%OpenBCI Raw EXG Data
%Number of channels = 16
%Sample Rate = 125 Hz
%Board = OpenBCI_GUI$BoardCytonSerialDaisy
Sample Index, EXG Channel 0, EXG Channel 1, EXG Channel 2, EXG Channel 3, EXG Channel 4, EXG Channel 5, EXG Channel 6, EXG Channel 7, EXG Channel 8, EXG Channel 9, EXG Channel 10, EXG Channel 11, EXG Channel 12, EXG Channel 13, EXG Channel 14, EXG Channel 15, Accel Channel 0, Accel Channel 1, Accel Channel 2, Not Used, Digital Channel 0 (D11), Digital Channel 1 (D12), Digital Channel 2 (D13), Digital Channel 3 (D17), Not Used, Digital Channel 4 (D18), Analog Channel 0, Analog Channel 1, Analog Channel 2, Timestamp, Marker Channel, Timestamp (Formatted)
0.0, 21315.852858525857, 18262.47045546418, 48102.09400678802, 34243.25248518616, 43179.792842840296, 1923.9040522461, 8042.82820735314, 8477.077898630845, 0.0, 0.0, 0.0, 0.0, 0.0, 0.0, 0.0, 0.0, 0.0, 0.0, 0.0, 192.0, 0.0, 0.0, 0.0, 0.0, 0.0, 0.0, 0.0, 0.0, 0.0, 1.747691762335534E9, 0.0, 2025-05-19 23:56:02.335
22.0, 21304.40876536474, 18248.70178087971, 48089.04058802612, 34232.90362750335, 43172.1932497255, 1925.8263022692565, 8016.564907618154, 8467.936035148625, 0.0, 0.0, 6127.2837075333255, -27603.93501567066, 18679.17402734447, 5682.953379506276, -6451.920444002205, -30719.522323551457, 0.0, 0.0, 0.0, 192.0, 0.0, 0.0, 0.0, 0.0, 0.0, 0.0, 0.0, 0.0, 0.0, 1.747691762336216E9, 0.0, 2025-05-19 23:56:02.336
0.0, 10755.547673171483, 9225.950744861453, 24081.14362730308, 17118.217601563647, 22248.904079068194, 1590.3713214840081, 4322.402694511735, 4143.253462702449, 0.0, 0.0, 3054.3211763287995, -13810.695864045128, 9326.46653967697, 2826.6910107959525, -3239.3042134409206, -15376.592025350576, 0.056, -0.004, 1.03, 192.0, 0.5, 96.0, 127.5, 112.0, 16.0, 24.0, 0.0, 0.0, 0.0, 1.747691762452233E9, 0.0, 2025-05-19 23:56:02.452
2.0, 21520.21485808073, 18462.74208578373, 48176.86059199102, 34252.61786611293, 44512.694419943626, 3178.529820266941, 8666.71009858967, 8303.427195957565, 0.0, 0.0, 6045.856302482642, -27462.895508157675, 18913.912047614103, 5886.890695916498, -5963.199551486916, -30633.043424253876, 0.056, -0.004, 1.03, 192.0, 0.0, 0.0, 0.0, 0.0, 0.0, 0.0, 0.0, 0.0, 0.0, 1.747691762459286E9, 0.0, 2025-05-19 23:56:02.459
4.0, 21523.54526800457, 18466.877158507963, 48180.34746412605, 34269.985171554705, 44517.56710023488, 3188.1187186382676, 8689.017139556068, 8291.759585351896, 0.0, 0.0, 6068.67743357151, -27440.789632891374, 18941.583507249776, 5918.116082920562, -5930.36483888207, -30602.130961672185, 0.056, -0.004, 1.03, 192.0, 0.0, 0.0, 0.0, 0.0, 0.0, 0.0, 0.0, 0.0, 0.0, 1.747691762466314E9, 0.0, 2025-05-19 23:56:02.466
6.0, 21512.63761671038, 18452.013248445182, 48176.34650186855, 34247.67813058831, 44500.110387815286, 3167.175134083645, 8654.640156583806, 8299.493288933432, 0.0, 0.0, 6056.741602032376, -27449.640923695675, 18932.35223678973, 5903.319228091148, -5948.626214102056, -30613.9773862335, 0.056, -0.004, 1.03, 192.0, 0.0, 0.0, 0.0, 0.0, 0.0, 0.0, 0.0, 0.0, 0.0, 1.747691762474332E9, 0.0, 2025-05-19 23:56:02.474
8.0, 21524.9310761608, 18466.27366140767, 48177.86642049151, 34263.74903485168, 44515.555443233905, 3176.3840527992315, 8697.24258151562, 8305.662370403095, 0.0, 0.0, 6057.76978227732, -27452.23372605249, 18920.528163972875, 5903.296876346693, -5942.635946588033, -30617.15133394615, 0.062, -0.006, 1.032, 192.0, 0.5, 120.0, 127.5, 104.0, 16.0, 32.0, 0.0, 0.0, 0.0, 1.747691762483357E9, 0.0, 2025-05-19 23:56:02.483
10.0, 21518.627884224403, 18457.690591536833, 48176.05592919063, 34260.53038365011, 44500.71388491558, 3195.494794308519, 8656.920034518247, 8299.225067999967, 0.0, 0.0, 6060.787267778786, -27449.797385906862, 18940.756492704928, 5919.770112010255, -5933.6952488059105, -30597.325336614293, 0.062, -0.006, 1.032, 192.0, 0.0, 0.0, 0.0, 0.0, 0.0, 0.0, 0.0, 0.0, 0.0, 1.747691762491438E9, 0.0, 2025-05-19 23:56:02.491
12.0, 21527.34506456197, 18468.978222486763, 48184.68370255038, 34261.78208133961, 44507.84409139682, 3170.4161370296642, 8675.874313816346, 8314.02192282938, 0.0, 0.0, 6052.539474074778, -27448.702150428555, 18921.377530262176, 5900.391149567503, -5950.570815869667, -30617.44190662407, 0.062, -0.006, 1.032, 192.0, 0.0, 0.0, 0.0, 0.0, 0.0, 0.0, 0.0, 0.0, 0.0, 1.747691762498456E9, 0.0, 2025-05-19 23:56:02.498
14.0, 21528.26148608464, 18471.07928646556, 48182.91791473841, 34275.12607277943, 44510.7051146871, 3192.1420326402226, 8662.61972935435, 8295.984065053948, 0.0, 0.0, 6067.604549837655, -27439.940266602072, 18938.655428726128, 5926.6991527914, -5924.061646945674, -30591.491531311458, 0.062, -0.006, 1.032, 192.0, 0.0, 0.0, 0.0, 0.0, 0.0, 0.0, 0.0, 0.0, 0.0, 1.747691762506462E9, 0.0, 2025-05-19 23:56:02.506
16.0, 21516.25859931214, 18458.629364803954, 48172.27848437768, 34247.342854421484, 44491.504966199995, 3175.7582039544827, 8651.28739491551, 8306.93641983705, 0.0, 0.0, 6054.86405549813, -27453.95481037555, 18930.675855955586, 5901.598143768089, -5955.6446618610225, -30613.95503448904, 0.062, -0.006, 1.032, 192.0, 0.0, 0.0, 0.0, 0.0, 0.0, 0.0, 0.0, 0.0, 0.0, 1.74769176251548E9, 0.0, 2025-05-19 23:56:02.515
18.0, 21525.93690466129, 18472.889777766442, 48180.23570540377, 34274.65668614586, 44506.77120766297, 3181.837878446326, 8695.432090214741, 8323.610821200708, 0.0, 0.0, 6059.177942178005, -27446.064644582828, 18926.02669310888, 5910.40473108348, -5942.837112288131, -30608.411801864127, 0.06, -0.006, 1.03, 192.0, 0.5, 112.0, 127.5, 104.0, 16.0, 24.0, 0.0, 0.0, 0.0, 1.747691762522512E9, 0.0, 2025-05-19 23:56:02.522
20.0, 21510.044814353565, 18452.974373456764, 48164.79064998515, 34251.79085156809, 44493.89660285671, 3181.457898790586, 8657.657642085273, 8313.396073984632, 0.0, 0.0, 6052.941805474974, -27445.90818237164, 18940.912954916115, 5922.988763211819, -5938.769094797265, -30592.854987723233, 0.06, -0.006, 1.03, 192.0, 0.0, 0.0, 0.0, 0.0, 0.0, 0.0, 0.0, 0.0, 0.0, 1.747691762530565E9, 0.0, 2025-05-19 23:56:02.530
22.0, 21522.852363926457, 18462.965603228284, 48182.62734206049, 34264.10666276296, 44502.14439656072, 3166.9292648946366, 8681.037566785522, 8323.387303756155, 0.0, 0.0, 6045.833950738186, -27453.887755142183, 18917.13069881567, 5900.569963523146, -5953.588301371134, -30618.04540372436, 0.06, -0.006, 1.03, 192.0, 0.0, 0.0, 0.0, 0.0, 0.0, 0.0, 0.0, 0.0, 0.0, 1.74769176253858E9, 0.0, 2025-05-19 23:56:02.538
24.0, 21521.64536972587, 18462.74208578373, 48184.86251650602, 34278.72470363673, 44517.70121070161, 3198.8699077212705, 8696.616732670873, 8314.468957718487, 0.0, 0.0, 6067.91747426003, -27433.413557221123, 18942.388170050166, 5936.2209959293605, -5918.6972282764, -30582.14850212914, 0.06, -0.006, 1.03, 192.0, 0.0, 0.0, 0.0, 0.0, 0.0, 0.0, 0.0, 0.0, 0.0, 1.747691762547641E9, 0.0, 2025-05-19 23:56:02.547
26.0, 21515.655102211847, 18451.543861811624, 48177.44173734686, 34251.27676144562, 44503.731370417045, 3178.194544100111, 8660.943348520203, 8305.327094236267, 0.0, 0.0, 6051.555997318745, -27454.62536270921, 18930.206469322024, 5913.802196240687, -5944.088809977628, -30605.036688451375, 0.06, -0.006, 1.03, 192.0, 0.0, 0.0, 0.0, 0.0, 0.0, 0.0, 0.0, 0.0, 0.0, 1.747691762554629E9, 0.0, 2025-05-19 23:56:02.554
28.0, 21522.27121857062, 18462.362106127992, 48183.543763583155, 34272.06388378905, 44524.071457871374, 3176.6969772216057, 8698.650741416304, 8313.105501306713, 0.0, 0.0, 6063.603587580155, -27444.142394559673, 18928.619495465697, 5917.825510242643, -5930.722466793355, -30603.136790172673, 0.058, -0.006, 1.032, 192.0, 0.5, 104.0, 127.5, 104.0, 16.0, 32.0, 0.0, 0.0, 0.0, 1.747691762562637E9, 0.0, 2025-05-19 23:56:02.562
30.0, 21504.25571253964, 18448.056989676596, 48173.66429253391, 34257.82582257102, 44488.509832442985, 3180.228552845544, 8663.893778788302, 8301.124966278669, 0.0, 0.0, 6058.239168910882, -27446.735196916485, 18939.258925826423, 5925.179234168439, -5931.393019127014, -30593.10085691224, 0.058, -0.006, 1.032, 192.0, 0.0, 0.0, 0.0, 0.0, 0.0, 0.0, 0.0, 0.0, 0.0, 1.747691762571666E9, 0.0, 2025-05-19 23:56:02.571
32.0, 21521.511259259136, 18463.233824161747, 48190.80808053113, 34267.28061047562, 44503.48550122804, 3162.168343325656, 8698.762500138582, 8322.426178744576, 0.0, 0.0, 6054.372317120114, -27451.76433941893, 18921.176364562078, 5909.153033393984, -5942.770057054765, -30612.39041237717, 0.058, -0.006, 1.032, 192.0, 0.0, 0.0, 0.0, 0.0, 0.0, 0.0, 0.0, 0.0, 0.0, 1.747691762578735E9, 0.0, 2025-05-19 23:56:02.578
34.0, 21523.947599404764, 18469.157036442404, 48191.50098460925, 34284.6926194063, 44507.732332674546, 3197.7299687540494, 8694.158040780789, 8319.699265921028, 0.0, 0.0, 6074.265369685337, -27432.161859531625, 18947.12673987469, 5942.010097743285, -5910.807062483676, -30579.510996283414, 0.058, -0.006, 1.032, 192.0, 0.0, 0.0, 0.0, 0.0, 0.0, 0.0, 0.0, 0.0, 0.0, 1.747691762586774E9, 0.0, 2025-05-19 23:56:02.586
36.0, 21518.225552824206, 18460.46220784929, 48186.33773164007, 34259.077520260515, 44493.181347034144, 3189.236305861033, 8676.120183005356, 8326.516547979898, 0.0, 0.0, 6062.620110824122, -27449.5291649734, 18937.51548975891, 5925.290992890715, -5931.772998782754, -30593.369077845706, 0.058, -0.006, 1.032, 192.0, 0.0, 0.0, 0.0, 0.0, 0.0, 0.0, 0.0, 0.0, 0.0, 1.747691762594808E9, 0.0, 2025-05-19 23:56:02.594
38.0, 21526.49569827267, 18470.18521668735, 48187.41061537393, 34279.03762805911, 44505.005419851, 3182.8884104357257, 8713.20172705671, 8330.964545126504, 0.0, 0.0, 6062.955386990951, -27434.70995839953, 18933.22395482349, 5928.55434758119, -5923.256984145282, -30590.373944088693, 0.058, -0.006, 1.032, 192.0, 0.5, 104.0, 127.5, 104.0, 16.0, 32.0, 0.0, 0.0, 0.0, 1.747691762603829E9, 0.0, 2025-05-19 23:56:02.603
40.0, 21510.178924820295, 18450.42627458886, 48174.49130707876, 34264.17371799633, 44498.79163489243, 3191.225611117555, 8672.409793425775, 8313.21726002899, 0.0, 0.0, 6059.893198000575, -27442.66717942562, 18944.869213684706, 5932.309440649681, -5926.02860045774, -30581.85792945122, 0.058, -0.006, 1.032, 192.0, 0.0, 0.0, 0.0, 0.0, 0.0, 0.0, 0.0, 0.0, 0.0, 1.747691762610832E9, 0.0, 2025-05-19 23:56:02.610
42.0, 21515.230419067197, 18452.817911245576, 48180.7721472707, 34255.07655800302, 44482.02782655094, 3168.9632736400695, 8691.565238423973, 8318.425216487076, 0.0, 0.0, 6049.76785776232, -27451.496118485466, 18919.678797683573, 5904.280353102727, -5946.078115234151, -30613.15037168865, 0.058, -0.006, 1.032, 192.0, 0.0, 0.0, 0.0, 0.0, 0.0, 0.0, 0.0, 0.0, 0.0, 1.747691762618973E9, 0.0, 2025-05-19 23:56:02.618
44.0, 21509.575427720003, 18447.341733854024, 48170.73621401027, 34267.01238954215, 44496.601163935804, 3193.617247774273, 8692.235790757632, 8308.277524504367, 0.0, 0.0, 6057.05452645475, -27445.505850971444, 18930.69820770004, 5925.000420212797, -5926.207414413383, -30592.430304578582, 0.058, -0.006, 1.032, 192.0, 0.0, 0.0, 0.0, 0.0, 0.0, 0.0, 0.0, 0.0, 0.0, 1.747691762626989E9, 0.0, 2025-05-19 23:56:02.626
46.0, 21497.5725409475, 18435.294143592615, 48161.08026040557, 34234.9823397377, 44485.42529170815, 3163.7553171819827, 8656.964738007156, 8299.11330927769, 0.0, 0.0, 6035.105113399639, -27465.62242098122, 18912.056852824313, 5897.1277948770285, -5960.182065985449, -30618.425383380105, 0.058, -0.006, 1.032, 192.0, 0.0, 0.0, 0.0, 0.0, 0.0, 0.0, 0.0, 0.0, 0.0, 1.747691762634959E9, 0.0, 2025-05-19 23:56:02.634
48.0, 21520.706596458745, 18456.32713512506, 48177.17351641339, 34258.36226443795, 44516.29305080093, 3182.10609937979, 8692.794584369014, 8299.448585444521, 0.0, 0.0, 6043.978755948396, -27461.777920934906, 18908.860553367205, 5900.905239689975, -5946.145170467516, -30619.29710141386, 0.058, -0.002, 1.026, 192.0, 0.5, 104.0, 127.5, 120.0, 16.0, 8.0, 0.0, 0.0, 0.0, 1.747691762643018E9, 0.0, 2025-05-19 23:56:02.643
50.0, 21511.49767774316, 18449.532204810646, 48177.754661769235, 34256.12708999242, 44503.91018437269, 3183.3354453248317, 8651.577967593428, 8290.463184173488, 0.0, 0.0, 6052.986508963884, -27456.078226098805, 18935.03444612437, 5919.188966654417, -5934.701077306399, -30599.493455826458, 0.058, -0.002, 1.026, 192.0, 0.0, 0.0, 0.0, 0.0, 0.0, 0.0, 0.0, 0.0, 0.0, 1.747691762651027E9, 0.0, 2025-05-19 23:56:02.651
52.0, 21521.555962748047, 18459.74695202672, 48183.49906009425, 34256.574124881525, 44512.94028913263, 3164.9846631270248, 8673.035642270523, 8300.275599989367, 0.0, 0.0, 6051.466590340923, -27452.636057452688, 18924.35031227473, 5898.223030355338, -5954.862350805086, -30621.82284853731, 0.058, -0.002, 1.026, 192.0, 0.0, 0.0, 0.0, 0.0, 0.0, 0.0, 0.0, 0.0, 0.0, 1.747691762659069E9, 0.0, 2025-05-19 23:56:02.659
54.0, 21523.657026726847, 18464.664335806887, 48184.66135080592, 34277.02597105813, 44510.83922515383, 3204.1896229016334, 8663.42439215474, 8289.435003928544, 0.0, 0.0, 6069.415041138535, -27431.603065920244, 18948.758417219928, 5924.5980888126005, -5928.576699325646, -30595.559548802325, 0.058, -0.002, 1.026, 192.0, 0.0, 0.0, 0.0, 0.0, 0.0, 0.0, 0.0, 0.0, 0.0, 1.747691762666104E9, 0.0, 2025-05-19 23:56:02.666
56.0, 21507.07203234101, 18449.30868736609, 48171.607932044026, 34244.45947938674, 44489.51566094347, 3166.146953838701, 8650.393325137296, 8287.244532971923, 0.0, 0.0, 6049.589043806678, -27453.06074059734, 18930.27352455539, 5899.586486767112, -5956.091696750128, -30620.39233689217, 0.058, -0.002, 1.026, 192.0, 0.0, 0.0, 0.0, 0.0, 0.0, 0.0, 0.0, 0.0, 0.0, 1.747691762674112E9, 0.0, 2025-05-19 23:56:02.674
58.0, 21525.132241860898, 18469.358202142503, 48181.57681007109, 34267.615886642445, 44518.81879792438, 3173.299512064399, 8692.124032035355, 8304.656541902606, 0.0, 0.0, 6056.205160165448, -27439.96261834653, 18928.530088487874, 5910.1588618944725, -5938.702039563899, -30613.128019944197, 0.058, -0.002, 1.026, 192.0, 0.5, 104.0, 127.5, 120.0, 16.0, 8.0, 0.0, 0.0, 0.0, 1.747691762683146E9, 0.0, 2025-05-19 23:56:02.683
60.0, 21515.6774539563, 18459.076399693062, 48177.195868157854, 34258.049340015576, 44495.99766683551, 3201.999151945013, 8657.434124640718, 8299.493288933432, 0.0, 0.0, 6060.228474167404, -27445.327037015802, 18945.159786362623, 5923.748722523299, -5932.7564755387875, -30595.04545867985, 0.058, -0.002, 1.026, 192.0, 0.0, 0.0, 0.0, 0.0, 0.0, 0.0, 0.0, 0.0, 0.0, 1.747691762691186E9, 0.0, 2025-05-19 23:56:02.691
62.0, 21521.421852281317, 18460.439856104837, 48181.48740309327, 34254.45070915827, 44496.735274402534, 3157.2956630343992, 8672.320386447953, 8305.97529482547, 0.0, 0.0, 6054.238206653382, -27455.89941214316, 18923.813870407805, 5897.083091388117, -5955.711717094388, -30624.61681659422, 0.058, -0.002, 1.026, 192.0, 0.0, 0.0, 0.0, 0.0, 0.0, 0.0, 0.0, 0.0, 0.0, 1.747691762698233E9, 0.0, 2025-05-19 23:56:02.698
64.0, 21518.53847724658, 18457.51177758119, 48176.63707454647, 34264.888973818895, 44508.984030364045, 3182.6648929911726, 8667.559464878972, 8284.383509681644, 0.0, 0.0, 6065.570541092222, -27436.587504933777, 18942.83520493927, 5921.1335684220285, -5930.610708071078, -30599.068772681807, 0.058, -0.002, 1.026, 192.0, 0.0, 0.0, 0.0, 0.0, 0.0, 0.0, 0.0, 0.0, 0.0, 1.747691762707242E9, 0.0, 2025-05-19 23:56:02.707
66.0, 21529.26731458513, 18470.051106220617, 48169.52921980968, 34234.7811740376, 44502.85965238329, 3173.746546953505, 8650.952118748679, 8285.098765504214, 0.0, 0.0, 6051.980680463395, -27458.402807522158, 18930.631152466674, 5899.653542000478, -5953.610653115589, -30620.30292991435, 0.058, -0.002, 1.026, 192.0, 0.0, 0.0, 0.0, 0.0, 0.0, 0.0, 0.0, 0.0, 0.0, 1.747691762715349E9, 0.0, 2025-05-19 23:56:02.715
68.0, 21529.31201807404, 18461.51273983869, 48176.078280935086, 34254.607171369455, 44514.996649622524, 3166.0351951164243, 8693.331026235941, 8288.317416705779, 0.0, 0.0, 6055.869883998619, -27456.81583366583, 18921.288123284357, 5895.987855909808, -5947.262757690282, -30627.701357329057, 0.06, -0.004, 1.028, 192.0, 0.5, 112.0, 127.5, 112.0, 16.0, 16.0, 0.0, 0.0, 0.0, 1.747691762722331E9, 0.0, 2025-05-19 23:56:02.722
70.0, 21518.40436677985, 18449.532204810646, 48165.01416742971, 34239.96677875123, 44508.64875419722, 3174.8641341762705, 8651.71207806016, 8277.990910767427, 0.0, 0.0, 6053.925282231007, -27462.604935479754, 18932.531050745376, 5911.3882078395145, -5941.294841920715, -30609.417630364613, 0.06, -0.004, 1.028, 192.0, 0.0, 0.0, 0.0, 0.0, 0.0, 0.0, 0.0, 0.0, 0.0, 1.747691762730275E9, 0.0, 2025-05-19 23:56:02.730
72.0, 21535.279933843605, 18463.233824161747, 48179.14046992546, 34244.86181078694, 44510.19102456463, 3149.226683286033, 8671.67218585875, 8301.2590767454, 0.0, 0.0, 6050.349003118158, -27465.711827959043, 18916.236629037456, 5889.4387947844025, -5960.986728785841, -30633.646921354168, 0.06, -0.004, 1.028, 192.0, 0.0, 0.0, 0.0, 0.0, 0.0, 0.0, 0.0, 0.0, 0.0, 1.747691762739333E9, 0.0, 2025-05-19 23:56:02.739
74.0, 21552.44607358528, 18482.635138348956, 48180.749795526244, 34263.45846217376, 44518.57292873537, 3179.2003726006, 8671.269854458555, 8288.719748105974, 0.0, 0.0, 6073.036023740295, -27444.18709804858, 18944.84686194025, 5918.943097465408, -5932.912937749975, -30603.24854889495, 0.06, -0.004, 1.028, 192.0, 0.0, 0.0, 0.0, 0.0, 0.0, 0.0, 0.0, 0.0, 0.0, 1.747691762746422E9, 0.0, 2025-05-19 23:56:02.746
76.0, 21540.510242046148, 18466.36306838549, 48172.05496693313, 34239.69855781776, 44507.08413208534, 3149.0255175859356, 8648.783999536516, 8295.671140631574, 0.0, 0.0, 6059.6026253226555, -27459.743912189475, 18935.50383275793, 5897.5971815105895, -5957.835132817642, -30622.426345637603, 0.06, -0.004, 1.028, 192.0, 0.0, 0.0, 0.0, 0.0, 0.0, 0.0, 0.0, 0.0, 0.0, 1.74769176275439E9, 0.0, 2025-05-19 23:56:02.754
78.0, 21561.520881834138, 18485.09383023904, 48179.63220830348, 34259.368092938435, 44524.04910612692, 3142.9681948385473, 8693.912171591779, 8302.868402346183, 0.0, 0.0, 6067.381032393102, -27449.640923695675, 18931.97225713399, 5903.609800769067, -5942.41242914348, -30617.933645002086, 0.058, -0.006, 1.028, 192.0, 0.5, 104.0, 127.5, 104.0, 16.0, 16.0, 0.0, 0.0, 0.0, 1.747691762762422E9, 0.0, 2025-05-19 23:56:02.762
80.0, 21554.36832360844, 18475.057896978607, 48171.89850472195, 34251.20970621225, 44510.23572805354, 3175.8252591878486, 8652.85201702738, 8281.723652091463, 0.0, 0.0, 6062.48600035739, -27451.33965627428, 18944.221013095503, 5913.4445683294025, -5940.9148622649745, -30606.71306928552, 0.058, -0.006, 1.028, 192.0, 0.0, 0.0, 0.0, 0.0, 0.0, 0.0, 0.0, 0.0, 0.0, 1.747691762770444E9, 0.0, 2025-05-19 23:56:02.770
82.0, 21562.616117312446, 18481.383440659458, 48175.519487323705, 34242.00078749666, 44514.28139379995, 3144.130485550223, 8672.990938781611, 8288.563285894787, 0.0, 0.0, 6057.210988665937, -27464.81775818083, 18923.143318074148, 5890.1987540958835, -5956.851656061609, -30636.731462089, 0.058, -0.006, 1.028, 192.0, 0.0, 0.0, 0.0, 0.0, 0.0, 0.0, 0.0, 0.0, 0.0, 1.747691762778494E9, 0.0, 2025-05-19 23:56:02.778
84.0, 21560.962088222754, 18481.785772059655, 48177.64290304696, 34261.62561912842, 44512.91793738818, 3157.2286078010334, 8688.927732578246, 8289.412652184088, 0.0, 0.0, 6070.890256272585, -27454.178327820104, 18938.968353148503, 5918.004324198285, -5932.711772049877, -30609.48468559798, 0.058, -0.006, 1.028, 192.0, 0.0, 0.0, 0.0, 0.0, 0.0, 0.0, 0.0, 0.0, 0.0, 1.747691762786553E9, 0.0, 2025-05-19 23:56:02.786
86.0, 21555.396503853382, 18470.14051319844, 48172.27848437768, 34234.401194381855, 44513.83435891085, 3150.254863530977, 8658.819932796947, 8295.469974931477, 0.0, 0.0, 6056.719250287921, -27467.276450070913, 18927.88188789867, 5908.482481060324, -5946.189873956428, -30617.44190662407, 0.058, -0.006, 1.028, 192.0, 0.0, 0.0, 0.0, 0.0, 0.0, 0.0, 0.0, 0.0, 0.0, 1.74769176279556E9, 0.0, 2025-05-19 23:56:02.795
88.0, 21569.433399371315, 18485.451458150324, 48178.96165596982, 34251.20970621225, 44531.04520214143, 3140.8894826042037, 8689.95591282319, 8298.420405199577, 0.0, 0.0, 6061.033136967795, -27464.795406436373, 18921.51164072891, 5908.907164204975, -5936.355106396092, -30621.91225551513, 0.058, -0.002, 1.03, 192.0, 0.5, 104.0, 127.5, 120.0, 16.0, 24.0, 0.0, 0.0, 0.0, 1.747691762802576E9, 0.0, 2025-05-19 23:56:02.802
90.0, 21560.98443996721, 18475.504931867712, 48171.2726558772, 34241.821973541024, 44516.673030456666, 3155.8651513892596, 8649.655717570271, 8283.623550370163, 0.0, 0.0, 6066.419907381524, -27456.055874354348, 18941.717617716506, 5920.954754466386, -5931.705943549388, -30604.813171006823, 0.058, -0.002, 1.03, 192.0, 0.0, 0.0, 0.0, 0.0, 0.0, 0.0, 0.0, 0.0, 0.0, 1.7476917628106E9, 0.0, 2025-05-19 23:56:02.810
92.0, 21568.405219126373, 18481.338737170547, 48171.42911808838, 34234.31178740404, 44524.69730671612, 3151.595968198296, 8663.580854365928, 8288.473878916964, 0.0, 0.0, 6052.29360488577, -27476.2842030864, 18911.83333537976, 5886.376605794026, -5961.187894485938, -30641.24651446897, 0.058, -0.002, 1.03, 192.0, 0.0, 0.0, 0.0, 0.0, 0.0, 0.0, 0.0, 0.0, 0.0, 1.747691762818627E9, 0.0, 2025-05-19 23:56:02.818
94.0, 21567.913480748353, 18482.45632439331, 48168.92572270939, 34248.14751722187, 44536.879007444266, 3152.825314143338, 8673.57208413745, 8274.057003743292, 0.0, 0.0, 6068.900951016063, -27456.972295877018, 18933.84980366824, 5913.7351410073215, -5932.398847627503, -30612.233950165984, 0.058, -0.002, 1.03, 192.0, 0.0, 0.0, 0.0, 0.0, 0.0, 0.0, 0.0, 0.0, 0.0, 1.747691762827638E9, 0.0, 2025-05-19 23:56:02.827
96.0, 21564.42660861333, 18480.109391225506, 48168.81396398711, 34228.053298956554, 44515.64485021173, 3137.0002790689805, 8642.95019423368, 8271.531256619843, 0.0, 0.0, 6051.600700807656, -27477.044162397884, 18922.249248295935, 5886.980102894318, -5962.439592175436, -30637.849049311764, 0.058, -0.002, 1.03, 192.0, 0.0, 0.0, 0.0, 0.0, 0.0, 0.0, 0.0, 0.0, 0.0, 1.747691762834708E9, 0.0, 2025-05-19 23:56:02.834
98.0, 21584.096143733997, 18502.639949636454, 48185.26484790622, 34258.87635456042, 44527.87125442878, 3144.421058228142, 8679.539999907018, 8283.511791647887, 0.0, 0.0, 6068.766840549331, -27456.614667965732, 18929.625323966186, 5897.686588488411, -5946.5475018677125, -30631.523505630914, 0.058, -0.002, 1.03, 192.0, 0.5, 104.0, 127.5, 120.0, 16.0, 24.0, 0.0, 0.0, 0.0, 1.747691762842751E9, 0.0, 2025-05-19 23:56:02.842
100.0, 21571.534463350115, 18491.12880124197, 48180.682740292876, 34251.52263063462, 44519.17642583566, 3168.873866662248, 8648.76164779206, 8272.917064776071, 0.0, 0.0, 6079.5850848657, -27442.890696870174, 18955.97803067899, 5922.318210878159, -5931.974164482852, -30604.25437739544, 0.058, -0.002, 1.03, 192.0, 0.0, 0.0, 0.0, 0.0, 0.0, 0.0, 0.0, 0.0, 0.0, 1.747691762850719E9, 0.0, 2025-05-19 23:56:02.850
102.0, 21577.54708260859, 18499.555408901622, 48178.89460073646, 34247.409909654845, 44511.53212923195, 3137.0002790689805, 8660.652775842284, 8282.170686980568, 0.0, 0.0, 6066.330500403703, -27457.91106914414, 18930.295876299846, 5892.791556452698, -5958.125705495561, -30635.949151033063, 0.058, -0.002, 1.03, 192.0, 0.0, 0.0, 0.0, 0.0, 0.0, 0.0, 0.0, 0.0, 0.0, 1.747691762857808E9, 0.0, 2025-05-19 23:56:02.857
104.0, 21579.826960543032, 18505.03158629317, 48181.88973449347, 34264.73251160771, 44521.210434581095, 3167.9574451395806, 8669.28054920203, 8280.851934057706, 0.0, 0.0, 6083.3178261897365, -27436.654560167142, 18954.011077166924, 5924.620440557056, -5928.777865025743, -30603.583825061778, 0.058, -0.002, 1.03, 192.0, 0.0, 0.0, 0.0, 0.0, 0.0, 0.0, 0.0, 0.0, 0.0, 1.747691762866923E9, 0.0, 2025-05-19 23:56:02.866
106.0, 21566.41591386985, 18489.005385518718, 48176.05592919063, 34237.7316043057, 44502.30085877191, 3149.941939108603, 8650.66154607076, 8284.74113759293, 0.0, 0.0, 6068.364509149135, -27459.609801722745, 18940.085940371267, 5909.488309560813, -5946.502798378801, -30617.844238024267, 0.058, -0.002, 1.03, 192.0, 0.0, 0.0, 0.0, 0.0, 0.0, 0.0, 0.0, 0.0, 0.0, 1.747691762874863E9, 0.0, 2025-05-19 23:56:02.874
108.0, 21574.998983740687, 18497.700214111832, 48177.464089091314, 34262.20676448426, 44515.689553700635, 3173.5677329978625, 8686.692558132716, 8289.92674230656, 0.0, 0.0, 6071.158477206049, -27453.86540339773, 18932.12871934518, 5913.578678796134, -5935.5727953401565, -30616.19020893457, 0.061, -0.003, 1.029, 192.0, 1.0, 0.0, 127.5, 112.0, 16.0, 16.0, 0.0, 0.0, 0.0, 1.747691762883975E9, 0.0, 2025-05-19 23:56:02.883
110.0, 21565.20891966926, 18483.75272557172, 48171.2726558772, 34249.846249800474, 44510.101617586806, 3166.9963201280025, 8638.882176742814, 8267.954977506994, 0.0, 0.0, 6065.302320158758, -27452.501946985954, 18944.422178795598, 5923.055818445185, -5936.243347673816, -30597.90648197013, 0.061, -0.003, 1.029, 192.0, 0.0, 0.0, 0.0, 0.0, 0.0, 0.0, 0.0, 0.0, 0.0, 1.747691762889968E9, 0.0, 2025-05-19 23:56:02.889
112.0, 21575.8930535189, 18492.648719864934, 48182.06854844911, 34250.74031957869, 44520.96456539209, 3145.33747975081, 8683.183334253232, 8293.145393508124, 0.0, 0.0, 6060.764916034332, -27457.307572043846, 18926.518431486897, 5899.988818167308, -5948.3132896796815, -30624.952092761054, 0.061, -0.003, 1.029, 192.0, 0.0, 0.0, 0.0, 0.0, 0.0, 0.0, 0.0, 0.0, 0.0, 1.747691762898948E9, 0.0, 2025-05-19 23:56:02.898
114.0, 21572.517940106147, 18490.793525075143, 48181.86738274901, 34260.37392143893, 44529.81585619639, 3176.5405150104184, 8681.261084230076, 8295.849954587216, 0.0, 0.0, 6080.993244766384, -27443.516545714923, 18945.964449163013, 5930.186024926427, -5914.5621555521675, -30595.537197057867, 0.061, -0.003, 1.029, 192.0, 0.0, 0.0, 0.0, 0.0, 0.0, 0.0, 0.0, 0.0, 0.0, 1.747691762907069E9, 0.0, 2025-05-19 23:56:02.907
116.0, 21557.899899232376, 18470.74401029873, 48163.53895229566, 34221.03485119758, 44510.21337630908, 3147.617357685251, 8645.52064484604, 8280.963692779982, 0.0, 0.0, 6057.76978227732, -27469.265755327437, 18925.132623330668, 5898.02186465524, -5948.55915886869, -30625.779107305898, 0.061, -0.003, 1.029, 192.0, 0.0, 0.0, 0.0, 0.0, 0.0, 0.0, 0.0, 0.0, 0.0, 1.747691762915009E9, 0.0, 2025-05-19 23:56:02.915
118.0, 21574.373134895937, 18488.04426050714, 48171.33971111056, 34239.56444735103, 44522.35037354832, 3144.778686139427, 8693.845116358414, 8292.228971985456, 0.0, 0.0, 6059.110886944639, -27468.66225822714, 18915.856649381716, 5894.087957631106, -5946.391039656525, -30633.44575565407, 0.0605, -0.0035, 1.0305, 192.0, 0.5, 112.0, 127.5, 112.0, 16.0, 32.0, 0.0, 0.0, 0.0, 1.747691762922031E9, 0.0, 2025-05-19 23:56:02.922
120.0, 21562.12437893443, 18474.253234178213, 48164.880056962975, 34231.6295780694, 44518.841149668835, 3176.8981429217033, 8649.745124548093, 8279.041442756825, 0.0, 0.0, 6063.938863746985, -27474.80898795235, 18933.112196101214, 5912.259925873271, -5932.5776615831455, -30615.050269967353, 0.0605, -0.0035, 1.0305, 192.0, 0.0, 0.0, 0.0, 0.0, 0.0, 0.0, 0.0, 0.0, 0.0, 1.747691762931041E9, 0.0, 2025-05-19 23:56:02.931
122.0, 21565.141864435896, 18480.824647048074, 48164.81300172961, 34230.86961875792, 44516.58362347885, 3119.007124782458, 8679.249427229099, 8289.367948695177, 0.0, 0.0, 6052.651232797055, -27469.28810707189, 18913.93439935856, 5884.186134837406, -5958.03629851774, -30642.74408134748, 0.0605, -0.0035, 1.0305, 192.0, 0.0, 0.0, 0.0, 0.0, 0.0, 0.0, 0.0, 0.0, 0.0, 1.747691762938055E9, 0.0, 2025-05-19 23:56:02.938
124.0, 21565.343030135995, 18487.530170384667, 48171.0714901771, 34252.46140390175, 44524.920824160676, 3159.396727013198, 8685.932598821235, 8288.317416705779, 0.0, 0.0, 6068.431564382501, -27454.33479003129, 18936.55436474733, 5917.222013142349, -5928.3531818810925, -30610.937548987575, 0.0605, -0.0035, 1.0305, 192.0, 0.0, 0.0, 0.0, 0.0, 0.0, 0.0, 0.0, 0.0, 0.0, 1.747691762946127E9, 0.0, 2025-05-19 23:56:02.946
126.0, 21550.479120073214, 18471.839245777042, 48162.89075170646, 34224.8793512439, 44500.91505061568, 3152.6912036766057, 8648.694592558693, 8288.809155083794, 0.0, 0.0, 6055.3781456206025, -27468.86342392724, 18926.60783846472, 5899.899411189486, -5951.822513559165, -30624.39329914967, 0.0605, -0.0035, 1.0305, 192.0, 0.0, 0.0, 0.0, 0.0, 0.0, 0.0, 0.0, 0.0, 0.0, 1.74769176295416E9, 0.0, 2025-05-19 23:56:02.954
128.0, 21577.435323886315, 18506.439746193857, 48172.926684966886, 34252.77432832412, 44512.98499262155, 3155.3063577778767, 8699.500107705606, 8297.481631932455, 0.0, 0.0, 6064.832933525197, -27459.274525555913, 18924.015036107903, 5905.442643814403, -5938.344411652614, -30623.275711926904, 0.058249999999999996, -0.00175, 1.0282499999999999, 192.0, 0.5, 96.0, 0.0, 0.0, 16.0, 8.0, 0.0, 0.0, 0.0, 1.747691762963194E9, 0.0, 2025-05-19 23:56:02.963
130.0, 21553.92128871933, 18477.31542316859, 48164.09774590704, 34243.67716833081, 44501.58560294934, 3170.460840518575, 8659.825761297436, 8287.915085305582, 0.0, 0.0, 6063.7153463024315, -27454.647714453666, 18942.3211148168, 5920.105388177084, -5933.069399961162, -30604.34378437326, 0.058249999999999996, -0.00175, 1.0282499999999999, 192.0, 0.0, 0.0, 0.0, 0.0, 0.0, 0.0, 0.0, 0.0, 0.0, 1.747691762970216E9, 0.0, 2025-05-19 23:56:02.970
132.0, 21577.971765753242, 18495.286225710657, 48181.50975483772, 34251.6343893569, 44518.12589384626, 3147.90793036317, 8679.562351651473, 8299.73915812244, 0.0, 0.0, 6060.2508259118595, -27458.33575228879, 18925.78082391987, 5900.525260034235, -5946.74866756781, -30625.041499738873, 0.058249999999999996, -0.00175, 1.0282499999999999, 192.0, 0.0, 0.0, 0.0, 0.0, 0.0, 0.0, 0.0, 0.0, 0.0, 1.747691762978256E9, 0.0, 2025-05-19 23:56:02.978
134.0, 21575.446018629795, 18488.066612251594, 48180.07924319259, 34258.45167141577, 44534.353260320815, 3161.1848665696225, 8687.586627910929, 8284.472916659464, 0.0, 0.0, 6090.805660582264, -27437.68274041209, 18955.933327190083, 5930.968335982363, -5913.60103054059, -30596.878301725188, 0.058249999999999996, -0.00175, 1.0282499999999999, 192.0, 0.0, 0.0, 0.0, 0.0, 0.0, 0.0, 0.0, 0.0, 0.0, 1.747691762987316E9, 0.0, 2025-05-19 23:56:02.987
136.0, 21560.760922522655, 18470.07345796507, 48165.46120231882, 34223.96292972123, 44516.53891998994, 3133.4910551894973, 8648.560482091962, 8270.033689741336, 0.0, 0.0, 6065.078802714205, -27466.896470415173, 18933.827451923782, 5895.607876254067, -5950.771981569766, -30632.26111319794, 0.058249999999999996, -0.00175, 1.0282499999999999, 192.0, 0.0, 0.0, 0.0, 0.0, 0.0, 0.0, 0.0, 0.0, 0.0, 1.747691762994328E9, 0.0, 2025-05-19 23:56:02.994
138.0, 21576.384791896915, 18481.517551126188, 48174.29014137866, 34243.40894739735, 44542.757516236015, 3151.260692031466, 8683.518610420062, 8284.539971892831, 0.0, 0.0, 6074.2206661964265, -27462.873156413218, 18928.395978021144, 5901.441681556903, -5937.830321530142, -30630.6294358527, 0.058124999999999996, -8.75E-4, 1.028125, 192.0, 0.5, 104.0, 0.0, 0.0, 16.0, 16.0, 0.0, 0.0, 0.0, 1.747691763002352E9, 0.0, 2025-05-19 23:56:03.002
140.0, 21568.919309248842, 18473.04623997763, 48167.18228664187, 34231.18254318029, 44535.60495801031, 3137.268500002444, 8639.731543032116, 8269.11726821867, 0.0, 0.0, 6074.153610963061, -27465.01892388093, 18942.45522528353, 5913.936306707419, -5932.667068560966, -30616.81605777932, 0.058124999999999996, -8.75E-4, 1.028125, 192.0, 0.0, 0.0, 0.0, 0.0, 0.0, 0.0, 0.0, 0.0, 0.0, 1.747691763010406E9, 0.0, 2025-05-19 23:56:03.010
142.0, 21574.797818040588, 18477.628347590966, 48172.859629733524, 34233.641235070376, 44530.039373640946, 3105.5513746203633, 8682.311616219475, 8279.68964334603, 0.0, 0.0, 6067.157514948549, -27468.72931346051, 18922.94215237405, 5893.171536108439, -5950.4814088918465, -30637.53612488939, 0.058124999999999996, -8.75E-4, 1.028125, 192.0, 0.0, 0.0, 0.0, 0.0, 0.0, 0.0, 0.0, 0.0, 0.0, 1.747691763019432E9, 0.0, 2025-05-19 23:56:03.019
144.0, 21583.000908255686, 18486.27847269517, 48175.29596987915, 34250.628560856414, 44542.44459181364, 3145.5162937064524, 8676.05312777199, 8278.01326251188, 0.0, 0.0, 6076.2770266863145, -27459.85567091175, 18938.834242681773, 5914.293934618704, -5933.2258621723495, -30616.972519990508, 0.058124999999999996, -8.75E-4, 1.028125, 192.0, 0.0, 0.0, 0.0, 0.0, 0.0, 0.0, 0.0, 0.0, 0.0, 1.747691763026493E9, 0.0, 2025-05-19 23:56:03.026
146.0, 21584.69964083429, 18489.966510530296, 48184.68370255038, 34239.385633395395, 44539.181237123164, 3137.6931831470947, 8645.90062450178, 8285.143468993125, 0.0, 0.0, 6078.601608109666, -27463.76722619143, 18942.097597372245, 5910.807062483676, -5936.55627209619, -30620.97348224801, 0.058124999999999996, -8.75E-4, 1.028125, 192.0, 0.0, 0.0, 0.0, 0.0, 0.0, 0.0, 0.0, 0.0, 0.0, 1.747691763034457E9, 0.0, 2025-05-19 23:56:03.034
148.0, 21601.306986964584, 18509.054900295127, 48185.35425488404, 34257.758767337655, 44548.63602502776, 3152.333575765321, 8677.81891558396, 8284.294102703823, 0.0, 0.0, 6091.543268149289, -27445.416443993625, 18944.779806706883, 5917.423178842447, -5922.653487044989, -30614.737345544978, 0.0570625, -0.0034375, 1.0290625, 192.0, 0.5, 96.0, 127.5, 104.0, 16.0, 24.0, 0.0, 0.0, 0.0, 1.747691763042483E9, 0.0, 2025-05-19 23:56:03.042
150.0, 21590.68990834831, 18498.549580401133, 48168.67985352038, 34238.44686012827, 44539.20358886762, 3189.2139541165775, 8636.579947063918, 8263.082297215737, 0.0, 0.0, 6082.937846533996, -27453.977162120005, 18951.597088765753, 5915.389170097014, -5934.097580206106, -30612.09983969925, 0.0570625, -0.0034375, 1.0290625, 192.0, 0.0, 0.0, 0.0, 0.0, 0.0, 0.0, 0.0, 0.0, 0.0, 1.747691763050555E9, 0.0, 2025-05-19 23:56:03.050
152.0, 21594.6461671169, 18501.18708624686, 48173.15020241144, 34227.852133256456, 44548.79248723895, 3147.304433262877, 8654.684860072715, 8267.910274018082, 0.0, 0.0, 6073.617169096133, -27465.041275625383, 18928.64184721015, 5889.327036062126, -5952.0683827481735, -30640.754776090955, 0.0570625, -0.0034375, 1.0290625, 192.0, 0.0, 0.0, 0.0, 0.0, 0.0, 0.0, 0.0, 0.0, 0.0, 1.747691763058577E9, 0.0, 2025-05-19 23:56:03.058
154.0, 21586.197207712798, 18493.051051265127, 48165.26003661872, 34237.30692116105, 44553.15107740773, 3145.046907072891, 8662.99970901009, 8260.087163458726, 0.0, 0.0, 6076.880523786607, -27464.19190933608, 18934.40859727962, 5901.508736790269, -5937.316231407671, -30628.461316640536, 0.0570625, -0.0034375, 1.0290625, 192.0, 0.0, 0.0, 0.0, 0.0, 0.0, 0.0, 0.0, 0.0, 0.0, 1.747691763066654E9, 0.0, 2025-05-19 23:56:03.066
156.0, 21581.257472188172, 18489.98886227475, 48156.855780703525, 34214.73165926119, 44531.73810621955, 3120.1247120052235, 8631.170824905734, 8265.272768172355, 0.0, 0.0, 6061.815448023731, -27476.217147853036, 18924.50677448592, 5881.25805631376, -5961.947853797419, -30646.45447092706, 0.0570625, -0.0034375, 1.0290625, 192.0, 0.0, 0.0, 0.0, 0.0, 0.0, 0.0, 0.0, 0.0, 0.0, 1.747691763074678E9, 0.0, 2025-05-19 23:56:03.074
158.0, 21601.888132320422, 18513.86052535302, 48175.98887395726, 34250.40504341186, 44541.10348714632, 3146.1197908067456, 8683.563313908973, 8290.26201847339, 0.0, 0.0, 6071.672567328521, -27459.29687730037, 18926.40667276462, 5893.752681464277, -5945.005231500296, -30636.06090975534, 0.055531250000000004, -0.00471875, 1.0305312500000001, 192.0, 0.5, 88.0, 127.5, 104.0, 16.0, 32.0, 0.0, 0.0, 0.0, 1.74769176308169E9, 0.0, 2025-05-19 23:56:03.081
160.0, 21586.46542864626, 18497.767269345197, 48170.870324477, 34238.603322339455, 44526.21722533908, 3155.5745787113406, 8638.122217431333, 8276.58275086674, 0.0, 0.0, 6081.350872677669, -27449.015074850926, 18953.027600410893, 5921.491196333313, -5929.671934803955, -30606.556607074333, 0.055531250000000004, -0.00471875, 1.0305312500000001, 192.0, 0.0, 0.0, 0.0, 0.0, 0.0, 0.0, 0.0, 0.0, 0.0, 1.747691763091696E9, 0.0, 2025-05-19 23:56:03.091
162.0, 21589.013527514166, 18499.018967034695, 48169.30570236513, 34231.607226324944, 44526.61955673928, 3147.103267562779, 8667.961796279169, 8287.848030072217, 0.0, 0.0, 6065.056450969751, -27470.3833425502, 18921.779861662373, 5895.227896598327, -5955.711717094388, -30635.792688821875, 0.055531250000000004, -0.00471875, 1.0305312500000001, 192.0, 0.0, 0.0, 0.0, 0.0, 0.0, 0.0, 0.0, 0.0, 0.0, 1.747691763098777E9, 0.0, 2025-05-19 23:56:03.098
164.0, 21590.354632181483, 18502.014100791705, 48176.01122570172, 34250.717967834236, 44536.56608302189, 3140.554206437374, 8670.308729446975, 8281.611893369185, 0.0, 0.0, 6081.82025931123, -27456.59231622128, 18942.83520493927, 5926.207414413383, -5928.733161536832, -30605.52842682939, 0.055531250000000004, -0.00471875, 1.0305312500000001, 192.0, 0.0, 0.0, 0.0, 0.0, 0.0, 0.0, 0.0, 0.0, 0.0, 1.747691763106702E9, 0.0, 2025-05-19 23:56:03.106
166.0, 21579.312870420563, 18487.239597706746, 48168.72455700929, 34229.39440362387, 44524.71965846058, 3163.0624131038685, 8645.408886123763, 8277.163896222579, 0.0, 0.0, 6069.39268939408, -27472.05972338435, 18930.60880072222, 5908.616591527056, -5948.000365257307, -30622.87338052671, 0.055531250000000004, -0.00471875, 1.0305312500000001, 192.0, 0.0, 0.0, 0.0, 0.0, 0.0, 0.0, 0.0, 0.0, 0.0, 1.747691763113782E9, 0.0, 2025-05-19 23:56:03.113
168.0, 21588.45473390278, 18497.85667632302, 48174.6701210344, 34250.36033992295, 44534.42031555418, 3132.7757993669275, 8685.19499125421, 8284.629378870652, 0.0, 0.0, 6071.940788261984, -27462.023790123916, 18926.093748342246, 5915.635039286022, -5934.455208117391, -30617.084278712784, 0.057765625, -0.0063593750000000004, 1.031265625, 192.0, 0.5, 112.0, 127.5, 96.0, 16.0, 32.0, 0.0, 0.0, 0.0, 1.747691763122785E9, 0.0, 2025-05-19 23:56:03.122
170.0, 21562.99609696819, 18474.119123711484, 48152.43013530137, 34223.91822623232, 44522.7080014596, 3134.8098081123603, 8644.403057623274, 8270.659538586086, 0.0, 0.0, 6065.101154458661, -27463.94604014707, 18936.353199047233, 5923.6593155454775, -5933.203510427894, -30605.14844717365, 0.057765625, -0.0063593750000000004, 1.031265625, 192.0, 0.0, 0.0, 0.0, 0.0, 0.0, 0.0, 0.0, 0.0, 0.0, 1.74769176313083E9, 0.0, 2025-05-19 23:56:03.130
172.0, 21568.762847037655, 18475.996670245728, 48159.38152782697, 34218.464400585224, 44522.21626308159, 3120.080008516313, 8672.543903892507, 8283.824716070261, 0.0, 0.0, 6049.119657173116, -27490.142284648693, 18901.55153293032, 5886.868344172042, -5964.56300789869, -30645.918029060133, 0.057765625, -0.0063593750000000004, 1.031265625, 192.0, 0.0, 0.0, 0.0, 0.0, 0.0, 0.0, 0.0, 0.0, 0.0, 1.747691763137836E9, 0.0, 2025-05-19 23:56:03.137
174.0, 21573.27789941763, 18483.75272557172, 48162.443716817346, 34238.08923221698, 44534.777943465466, 3163.8000206708934, 8674.063822515467, 8273.364099665177, 0.0, 0.0, 6064.743526547376, -27466.695304715075, 18924.97616111948, 5915.992667197307, -5933.181158683438, -30614.022089722406, 0.057765625, -0.0063593750000000004, 1.031265625, 192.0, 0.0, 0.0, 0.0, 0.0, 0.0, 0.0, 0.0, 0.0, 0.0, 1.747691763146846E9, 0.0, 2025-05-19 23:56:03.146
176.0, 21560.000963211176, 18468.486484108744, 48146.73044046527, 34201.09709514345, 44510.436893753635, 3141.560034937863, 8643.464284356152, 8266.21154143948, 0.0, 0.0, 6051.511293829834, -27486.34248809129, 18911.989797590948, 5890.824602940632, -5961.031432274751, -30638.676063856612, 0.057765625, -0.0063593750000000004, 1.031265625, 192.0, 0.0, 0.0, 0.0, 0.0, 0.0, 0.0, 0.0, 0.0, 0.0, 1.747691763154875E9, 0.0, 2025-05-19 23:56:03.154
178.0, 21581.41393439936, 18491.53113264217, 48166.0199959302, 34232.30013040306, 44538.66714700069, 3123.3210114623325, 8689.53122967854, 8281.656596858096, 0.0, 0.0, 6050.9748519629065, -27486.409543324655, 18902.132678286158, 5890.534030262713, -5953.141266482028, -30642.92289530312, 0.057882812500000005, -0.0071796875, 1.0316328125, 192.0, 0.5, 104.0, 127.5, 96.0, 16.0, 32.0, 0.0, 0.0, 0.0, 1.747691763161956E9, 0.0, 2025-05-19 23:56:03.161
180.0, 21572.584995339515, 18483.216283704794, 48163.561304040115, 34226.33221463349, 44534.68853648764, 3153.6746804326394, 8643.576043078428, 8263.484628615932, 0.0, 0.0, 6065.212913180937, -27467.768188448932, 18932.46399551201, 5915.366818352559, -5930.655411559989, -30616.39137463467, 0.057882812500000005, -0.0071796875, 1.0316328125, 192.0, 0.0, 0.0, 0.0, 0.0, 0.0, 0.0, 0.0, 0.0, 0.0, 1.747691763169955E9, 0.0, 2025-05-19 23:56:03.169
182.0, 21583.470294889248, 18496.783792589165, 48165.14827789644, 34225.7287175332, 44522.5068357595, 3131.2335289995112, 8671.649834114294, 8277.677986345052, 0.0, 0.0, 6055.422849109513, -27473.758455962954, 18913.50971621391, 5889.192925595395, -5953.588301371134, -30645.091014515285, 0.057882812500000005, -0.0071796875, 1.0316328125, 192.0, 0.0, 0.0, 0.0, 0.0, 0.0, 0.0, 0.0, 0.0, 0.0, 1.747691763178975E9, 0.0, 2025-05-19 23:56:03.178
184.0, 21586.331318179527, 18501.18708624686, 48168.34457735355, 34242.47017413023, 44533.83917019834, 3148.5784826968293, 8667.604168367883, 8270.391317652622, 0.0, 0.0, 6069.727965560909, -27460.213298823037, 18933.04514086785, 5917.289068375715, -5928.50964409228, -30616.480781612492, 0.057882812500000005, -0.0071796875, 1.0316328125, 192.0, 0.0, 0.0, 0.0, 0.0, 0.0, 0.0, 0.0, 0.0, 0.0, 1.747691763187004E9, 0.0, 2025-05-19 23:56:03.187
186.0, 21574.194320940296, 18482.143399970937, 48164.54478079615, 34217.704441273745, 44512.336792032336, 3147.617357685251, 8645.185368679211, 8274.615797354674, 0.0, 0.0, 6063.424773624512, -27472.99849665147, 18927.345446031744, 5900.055873400674, -5950.4814088918465, -30631.81407830883, 0.057882812500000005, -0.0071796875, 1.0316328125, 192.0, 0.0, 0.0, 0.0, 0.0, 0.0, 0.0, 0.0, 0.0, 0.0, 1.74769176319406E9, 0.0, 2025-05-19 23:56:03.194
188.0, 21601.306986964584, 18508.876086339485, 48175.74300476826, 34241.97843575221, 44540.63410051276, 3149.629014686229, 8693.129860535844, 8280.427250913055, 0.0, 0.0, 6070.353814405658, -27464.169557591627, 18923.1656698186, 5905.174422880938, -5937.852673274598, -30629.73536607449, 0.05694140625000001, -0.00958984375, 1.02881640625, 192.0, 0.5, 96.0, 127.5, 80.0, 16.0, 8.0, 0.0, 0.0, 0.0, 1.747691763202094E9, 0.0, 2025-05-19 23:56:03.202
190.0, 21582.665632088858, 18490.435897163858, 48170.35623435453, 34233.7306420482, 44523.020925881974, 3135.7709331239384, 8645.207720423665, 8261.942358248516, 0.0, 0.0, 6077.5063726313565, -27459.520394744923, 18944.019847395404, 5918.943097465408, -5930.208376670883, -30615.474953112003, 0.05694140625000001, -0.00958984375, 1.02881640625, 192.0, 0.0, 0.0, 0.0, 0.0, 0.0, 0.0, 0.0, 0.0, 0.0, 1.747691763211088E9, 0.0, 2025-05-19 23:56:03.211
192.0, 21589.818190314556, 18499.28718796816, 48172.18907739986, 34233.39536588137, 44532.02867889746, 3126.6290696417177, 8668.319424190453, 8280.82958231325, 0.0, 0.0, 6066.598721337166, -27467.611726237745, 18921.533992473363, 5894.177364608928, -5952.090734492628, -30640.777127835412, 0.05694140625000001, -0.00958984375, 1.02881640625, 192.0, 0.0, 0.0, 0.0, 0.0, 0.0, 0.0, 0.0, 0.0, 0.0, 1.74769176321813E9, 0.0, 2025-05-19 23:56:03.218
194.0, 21584.31966117855, 18496.023833277683, 48165.640016274454, 34240.74908980716, 44539.047126656435, 3156.9156833786587, 8667.917092790258, 8270.413669397078, 0.0, 0.0, 6076.724061575421, -27454.96063887604, 18938.1189868592, 5920.753588766288, -5926.766208024766, -30612.211598421527, 0.05694140625000001, -0.00958984375, 1.02881640625, 192.0, 0.0, 0.0, 0.0, 0.0, 0.0, 0.0, 0.0, 0.0, 0.0, 1.747691763226199E9, 0.0, 2025-05-19 23:56:03.226
196.0, 21570.59569008299, 18481.60695810401, 48161.259074361216, 34222.331252375996, 44518.52822524646, 3127.0537527863685, 8640.536205832506, 8272.626492098152, 0.0, 0.0, 6055.758125276342, -27476.574775764322, 18920.483460483963, 5892.7245012193325, -5960.6067491301, -30638.25138071196, 0.05694140625000001, -0.00958984375, 1.02881640625, 192.0, 0.0, 0.0, 0.0, 0.0, 0.0, 0.0, 0.0, 0.0, 0.0, 1.747691763234195E9, 0.0, 2025-05-19 23:56:03.234
198.0, 21588.924120536343, 18497.588455389556, 48172.18907739986, 34245.06297648704, 44536.36491732179, 3159.106154335279, 8682.490430175118, 8278.482649145442, 0.0, 0.0, 6066.844590526175, -27463.230784324503, 18920.751681417427, 5906.113196148061, -5938.947908752908, -30624.81798229432, 0.054470703125000006, -0.007794921875, 1.031408203125, 192.0, 0.5, 80.0, 127.5, 104.0, 16.0, 40.0, 0.0, 0.0, 0.0, 1.747691763243179E9, 0.0, 2025-05-19 23:56:03.243
200.0, 21567.93583249281, 18477.851865035518, 48153.145391123944, 34221.14660991986, 44524.6078997383, 3146.298604762388, 8630.23205163861, 8256.890864001616, 0.0, 0.0, 6061.793096279275, -27466.3823802927, 18931.301704800335, 5912.081111917629, -5940.601937842601, -30617.39720313516, 0.054470703125000006, -0.007794921875, 1.031408203125, 192.0, 0.0, 0.0, 0.0, 0.0, 0.0, 0.0, 0.0, 0.0, 0.0, 1.747691763250195E9, 0.0, 2025-05-19 23:56:03.250
202.0, 21586.59953911299, 18495.576798388578, 48173.75369951173, 34232.6801100588, 44523.57971949336, 3119.4765114160195, 8672.968587037158, 8281.768355580372, 0.0, 0.0, 6052.472418841412, -27476.53007227541, 18909.59816093423, 5884.208486581861, -5962.931330553452, -30648.153203505663, 0.054470703125000006, -0.007794921875, 1.031408203125, 192.0, 0.0, 0.0, 0.0, 0.0, 0.0, 0.0, 0.0, 0.0, 0.0, 1.747691763258256E9, 0.0, 2025-05-19 23:56:03.258
204.0, 21584.096143733997, 18493.006347776216, 48173.619589045, 34244.95121776476, 44536.07434464387, 3139.213101770056, 8665.257235200075, 8273.319396176266, 0.0, 0.0, 6077.238151697892, -27456.614667965732, 18937.76135894792, 5923.1899289119165, -5920.530071321735, -30610.468162354013, 0.054470703125000006, -0.007794921875, 1.031408203125, 192.0, 0.0, 0.0, 0.0, 0.0, 0.0, 0.0, 0.0, 0.0, 0.0, 1.7476917632673E9, 0.0, 2025-05-19 23:56:03.267
206.0, 21580.36340240996, 18485.205588961315, 48167.87519071999, 34226.33221463349, 44511.152149576206, 3125.0644475298463, 8636.71405753065, 8275.196942710512, 0.0, 0.0, 6060.608453823144, -27471.031543139405, 18925.512602986408, 5898.424196055436, -5951.755458325799, -30632.574037620314, 0.054470703125000006, -0.007794921875, 1.031408203125, 192.0, 0.0, 0.0, 0.0, 0.0, 0.0, 0.0, 0.0, 0.0, 0.0, 1.747691763274278E9, 0.0, 2025-05-19 23:56:03.274
208.0, 21600.502324164194, 18508.920789828397, 48186.851821762546, 34256.95410453726, 44536.11904813279, 3155.038136844413, 8698.538982694028, 8290.664349873585, 0.0, 0.0, 6074.5112388743455, -27453.418368508625, 18930.18411757757, 5914.249231129794, -5931.571833082657, -30618.738307802476, 0.054235351562500006, -0.006897460937500001, 1.0317041015625001, 192.0, 0.5, 88.0, 127.5, 104.0, 16.0, 32.0, 0.0, 0.0, 0.0, 1.747691763283366E9, 0.0, 2025-05-19 23:56:03.283
210.0, 21586.018393757153, 18495.97912978877, 48169.6186267875, 34239.6315025844, 44524.29497531593, 3168.3821282842314, 8650.594490837395, 8277.11919273367, 0.0, 0.0, 6079.182753465504, -27447.584563205786, 18950.568908520807, 5931.84005401612, -5924.329867879137, -30601.214540149518, 0.054235351562500006, -0.006897460937500001, 1.0317041015625001, 192.0, 0.0, 0.0, 0.0, 0.0, 0.0, 0.0, 0.0, 0.0, 0.0, 1.74769176329032E9, 0.0, 2025-05-19 23:56:03.290
212.0, 21584.051440245086, 18492.93929254285, 48165.304740107626, 34232.56835133652, 44517.96943163508, 3127.746656864483, 8668.207665468177, 8289.278541717356, 0.0, 0.0, 6058.038003210784, -27463.38724653569, 18919.298818027833, 5897.060739643663, -5955.979938027852, -30633.132831231695, 0.054235351562500006, -0.006897460937500001, 1.0317041015625001, 192.0, 0.0, 0.0, 0.0, 0.0, 0.0, 0.0, 0.0, 0.0, 0.0, 1.747691763298336E9, 0.0, 2025-05-19 23:56:03.298
214.0, 21585.951338523788, 18493.498086154235, 48171.00443494373, 34248.08046198851, 44532.051030641924, 3162.525971236941, 8670.845171313902, 8289.837335328739, 0.0, 0.0, 6069.05741322725, -27456.301743543358, 18931.882850156173, 5919.054856187685, -5931.102446449095, -30611.96572923252, 0.054235351562500006, -0.006897460937500001, 1.0317041015625001, 192.0, 0.0, 0.0, 0.0, 0.0, 0.0, 0.0, 0.0, 0.0, 0.0, 1.747691763306376E9, 0.0, 2025-05-19 23:56:03.306
216.0, 21573.590823840004, 18477.33777491305, 48158.97919642678, 34220.76663026412, 44515.846015911826, 3139.9730610815363, 8642.816083766947, 8286.283407960345, 0.0, 0.0, 6058.529741588801, -27468.72931346051, 18922.785690162862, 5905.26382985876, -5950.056725747196, -30624.929741016596, 0.054235351562500006, -0.006897460937500001, 1.0317041015625001, 192.0, 0.0, 0.0, 0.0, 0.0, 0.0, 0.0, 0.0, 0.0, 0.0, 1.74769176331438E9, 0.0, 2025-05-19 23:56:03.314
218.0, 21590.779315326134, 18495.085060010562, 48177.41938560241, 34244.124203219915, 44539.315347589894, 3139.1236947922343, 8688.570104666962, 8291.02197778487, 0.0, 0.0, 6064.140029447082, -27467.209394837548, 18914.87317262568, 5907.4543008153805, -5937.115065707572, -30625.801459050355, 0.054235351562500006, -0.006897460937500001, 1.0317041015625001, 192.0, 0.0, 0.0, 0.0, 0.0, 0.0, 0.0, 0.0, 0.0, 0.0, 1.74769176332245E9, 0.0, 2025-05-19 23:56:03.322
220.0, 21573.523768606636, 18480.04233599214, 48162.48842030626, 34223.69470878776, 44529.8605596853, 3139.0342878144133, 8647.509950102562, 8274.280521187846, 0.0, 0.0, 6075.181791208004, -27460.705037201053, 18938.3201525593, 5926.4756353468465, -5923.927536478942, -30608.121229186207, 0.058, -0.008, 1.034, 192.0, 0.5, 104.0, 127.5, 96.0, 16.0, 40.0, 0.0, 0.0, 0.0, 1.747691763330428E9, 0.0, 2025-05-19 23:56:03.330
222.0, 21580.922196021344, 18486.79256281764, 48159.225065615785, 34222.06303144253, 44527.67008872868, 3118.917717804637, 8666.486581145118, 8284.651730615107, 0.0, 0.0, 6042.056505925239, -27486.186025880103, 18898.668157895587, 5885.929570904919, -5962.618406131078, -30650.477784929015, 0.058, -0.008, 1.034, 192.0, 0.0, 0.0, 0.0, 0.0, 0.0, 0.0, 0.0, 0.0, 0.0, 1.747691763339526E9, 0.0, 2025-05-19 23:56:03.339
224.0, 21581.928024521832, 18492.201684975826, 48167.49521106425, 34237.46338337223, 44523.66912647118, 3159.419078757653, 8662.642081098806, 8270.056041485792, 0.0, 0.0, 6069.6385585830885, -27460.61563022323, 18930.854669911227, 5922.318210878159, -5927.481463847335, -30614.424421122603, 0.058, -0.008, 1.034, 192.0, 0.0, 0.0, 0.0, 0.0, 0.0, 0.0, 0.0, 0.0, 0.0, 1.747691763345505E9, 0.0, 2025-05-19 23:56:03.345
226.0, 21577.055344230575, 18488.22307446278, 48160.141487138455, 34217.36916510692, 44510.302783286905, 3132.9322615781143, 8633.651868540272, 8275.934550277538, 0.0, 0.0, 6055.333442131691, -27479.34639207678, 18920.103480828224, 5895.831393698621, -5961.053784019206, -30640.173630735117, 0.058, -0.008, 1.034, 192.0, 0.0, 0.0, 0.0, 0.0, 0.0, 0.0, 0.0, 0.0, 0.0, 1.747691763354535E9, 0.0, 2025-05-19 23:56:03.354
228.0, 21602.379870698438, 18513.927580586384, 48179.58750481457, 34250.51680213414, 44543.67393775868, 3146.8126948848603, 8693.308674491487, 8287.937437050037, 0.0, 0.0, 6075.606474352655, -27454.558307475843, 18929.64767571064, 5913.221050884849, -5936.757437796287, -30622.716918315524, 0.058, -0.008, 1.034, 192.0, 0.0, 0.0, 0.0, 0.0, 0.0, 0.0, 0.0, 0.0, 0.0, 1.747691763362554E9, 0.0, 2025-05-19 23:56:03.362
230.0, 21590.17581822584, 18499.577760646076, 48165.55060929664, 34230.73550829119, 44527.98301315105, 3157.429773501131, 8629.919127216235, 8269.29608217431, 0.0, 0.0, 6074.175962707515, -27452.72546443051, 18945.629172996185, 5923.1899289119165, -5935.595147084612, -30612.815095521823, 0.064, -0.01, 1.034, 192.0, 1.0, 0.0, 127.5, 88.0, 16.0, 40.0, 0.0, 0.0, 0.0, 1.747691763370584E9, 0.0, 2025-05-19 23:56:03.370
232.0, 21601.150524753397, 18507.736147372263, 48179.29693213665, 34235.831706027, 44532.02867889746, 3129.490092931997, 8675.203761482688, 8285.612855626685, 0.0, 0.0, 6067.023404481817, -27467.321153559824, 18922.830393651773, 5897.619533255045, -5953.342432182126, -30641.73825284699, 0.064, -0.01, 1.034, 192.0, 0.0, 0.0, 0.0, 0.0, 0.0, 0.0, 0.0, 0.0, 0.0, 1.7476917633786E9, 0.0, 2025-05-19 23:56:03.378
234.0, 21597.171914240353, 18504.830420593076, 48177.262923391216, 34247.67813058831, 44541.10348714632, 3171.2207998300555, 8678.265950473065, 8273.520561876365, 0.0, 0.0, 6086.335311691202, -27449.462109740034, 18946.724408474496, 5931.772998782754, -5917.646696287, -30610.557569331835, 0.064, -0.01, 1.034, 192.0, 0.0, 0.0, 0.0, 0.0, 0.0, 0.0, 0.0, 0.0, 0.0, 1.74769176338662E9, 0.0, 2025-05-19 23:56:03.386
236.0, 21586.867760046454, 18495.37563268848, 48160.901446449934, 34217.61503429592, 44528.51945501798, 3127.4784359310197, 8635.28354588551, 8261.428268126043, 0.0, 0.0, 6060.876674756608, -27473.937269918595, 18925.60200996423, 5901.374626323536, -5953.230673459849, -30639.21250572354, 0.064, -0.01, 1.034, 192.0, 0.0, 0.0, 0.0, 0.0, 0.0, 0.0, 0.0, 0.0, 0.0, 1.747691763394669E9, 0.0, 2025-05-19 23:56:03.394
238.0, 21597.75305959619, 18507.982016561273, 48167.5175628087, 34238.22334268372, 44534.509722532006, 3121.935203306103, 8672.14157249231, 8266.658576328586, 0.0, 0.0, 6070.912608017041, -27460.90620290115, 18926.18315532007, 5903.363931580059, -5942.5018361213015, -30636.77616557791, 0.064, -0.01, 1.034, 192.0, 0.0, 0.0, 0.0, 0.0, 0.0, 0.0, 0.0, 0.0, 0.0, 1.747691763401687E9, 0.0, 2025-05-19 23:56:03.401
240.0, 21575.155445951874, 18483.730373827264, 48148.63033874397, 34214.19521739426, 44523.89264391574, 3124.528005662919, 8638.144569175789, 8254.901558745094, 0.0, 0.0, 6065.659948070043, -27464.57188899182, 18935.995571135947, 5908.348370593592, -5942.926519265952, -30629.35538641875, 0.064, -0.006, 1.028, 192.0, 1.0, 0.0, 127.5, 104.0, 16.0, 16.0, 0.0, 0.0, 0.0, 1.747691763410733E9, 0.0, 2025-05-19 23:56:03.410
242.0, 21585.951338523788, 18493.52043789869, 48157.124001636985, 34225.080516944, 44535.15792312121, 3115.1626247361455, 8662.172694465244, 8271.3524426642, 0.0, 0.0, 6048.404401350546, -27482.140360133693, 18906.781841132863, 5877.92764638992, -5970.37446145707, -30659.59729666678, 0.064, -0.006, 1.028, 192.0, 0.0, 0.0, 0.0, 0.0, 0.0, 0.0, 0.0, 0.0, 0.0, 1.747691763418773E9, 0.0, 2025-05-19 23:56:03.418
244.0, 21588.097105991495, 18497.968435045295, 48168.14341165345, 34242.045490985576, 44533.57094926488, 3140.8671308597486, 8662.440915398707, 8265.429230383543, 0.0, 0.0, 6072.030195239806, -27456.234688309993, 18936.174385091592, 5916.596164297601, -5932.532958094234, -30619.140639202673, 0.064, -0.006, 1.028, 192.0, 0.0, 0.0, 0.0, 0.0, 0.0, 0.0, 0.0, 0.0, 0.0, 1.747691763425791E9, 0.0, 2025-05-19 23:56:03.425
246.0, 21584.386716411915, 18491.978167531273, 48167.09287966405, 34217.9279587183, 44519.24348106903, 3130.1829970101116, 8637.764589520048, 8265.473933872454, 0.0, 0.0, 6066.889294015085, -27470.696266972576, 18926.98781812046, 5898.424196055436, -5954.03533626024, -30640.084223757294, 0.064, -0.006, 1.028, 192.0, 0.0, 0.0, 0.0, 0.0, 0.0, 0.0, 0.0, 0.0, 0.0, 1.747691763433863E9, 0.0, 2025-05-19 23:56:03.433
248.0, 21600.256454975184, 18508.3172927281, 48176.03357744618, 34241.71021481874, 44540.09765864583, 3137.134389535712, 8680.232903985132, 8272.11240197568, 0.0, 0.0, 6076.5675993642335, -27463.476653513513, 18925.691416942052, 5904.6379810140115, -5939.260833175282, -30635.05508125485, 0.064, -0.006, 1.028, 192.0, 0.0, 0.0, 0.0, 0.0, 0.0, 0.0, 0.0, 0.0, 0.0, 1.747691763442832E9, 0.0, 2025-05-19 23:56:03.442
250.0, 21592.455696160283, 18501.14238275795, 48168.38928084246, 34227.829781511995, 44525.63607998325, 3141.5376831934077, 8639.262156398554, 8254.789800022818, 0.0, 0.0, 6078.936884276496, -27458.559269733345, 18944.243364839956, 5920.463016088369, -5931.728295293844, -30619.028880480397, 0.062, -0.004, 1.032, 192.0, 0.5, 120.0, 127.5, 112.0, 16.0, 32.0, 0.0, 0.0, 0.0, 1.747691763450885E9, 0.0, 2025-05-19 23:56:03.450
252.0, 21596.434306673327, 18504.18222000387, 48171.0714901771, 34228.70149954576, 44530.84403644133, 3121.3540579502655, 8664.877255544336, 8267.26207342888, 0.0, 0.0, 6064.497657358367, -27474.116083874236, 18918.583562205265, 5885.996626138285, -5961.992557286329, -30655.21635475354, 0.062, -0.004, 1.032, 192.0, 0.0, 0.0, 0.0, 0.0, 0.0, 0.0, 0.0, 0.0, 0.0, 1.747691763457902E9, 0.0, 2025-05-19 23:56:03.457
254.0, 21599.407088685883, 18508.227885750282, 48175.787708257165, 34249.578028867014, 44536.09669638833, 3155.6416339447064, 8671.627482369839, 8271.866532786671, 0.0, 0.0, 6086.044739013283, -27445.774071904907, 18945.964449163013, 5926.252117902293, -5923.569908567657, -30612.12219144371, 0.062, -0.004, 1.032, 192.0, 0.0, 0.0, 0.0, 0.0, 0.0, 0.0, 0.0, 0.0, 0.0, 1.747691763465983E9, 0.0, 2025-05-19 23:56:03.465
0.0, 21582.46446638876, 18491.95581578682, 48165.08122266307, 34221.63834829788, 44520.27166131397, 3136.463837202053, 8636.155263919267, 8272.335919420233, 0.0, 0.0, 6061.994261979373, -27467.142339604183, 18924.730291930475, 5897.060739643663, -5958.483333406846, -30638.430194667602, 0.062, -0.004, 1.032, 192.0, 0.0, 0.0, 0.0, 0.0, 0.0, 0.0, 0.0, 0.0, 0.0, 1.747691763474956E9, 0.0, 2025-05-19 23:56:03.474
2.0, 21598.26714971866, 18505.03158629317, 48175.519487323705, 34243.364243908436, 44534.62148125428, 3159.419078757653, 8678.802392339992, 8284.964655037482, 0.0, 0.0, 6073.036023740295, -27458.62632496671, 18923.836222152262, 5913.489271818313, -5933.628193572545, -30625.44383113907, 0.062, -0.004, 1.032, 192.0, 0.0, 0.0, 0.0, 0.0, 0.0, 0.0, 0.0, 0.0, 0.0, 1.747691763482004E9, 0.0, 2025-05-19 23:56:03.482
4.0, 21589.997004270197, 18492.983996031762, 48163.74011799576, 34227.18158092279, 44531.760457964, 3142.8340843718156, 8636.155263919267, 8265.16100945008, 0.0, 0.0, 6070.10794521665, -27464.504833758456, 18933.492175756954, 5921.357085866581, -5932.957641238885, -30617.06192696833, 0.06, -0.006, 1.028, 192.0, 0.5, 112.0, 127.5, 104.0, 16.0, 16.0, 0.0, 0.0, 0.0, 1.747691763489996E9, 0.0, 2025-05-19 23:56:03.489
6.0, 21596.143733995406, 18496.649682122432, 48162.778992984175, 34222.71123203173, 44528.43004804016, 3109.507633388953, 8663.71496483266, 8280.717823590974, 0.0, 0.0, 6056.585139821189, -27475.367781563735, 18909.084070811758, 5894.155012864472, -5956.203455472405, -30645.985084293497, 0.06, -0.006, 1.028, 192.0, 0.0, 0.0, 0.0, 0.0, 0.0, 0.0, 0.0, 0.0, 0.0, 1.747691763497969E9, 0.0, 2025-05-19 23:56:03.497
8.0, 21592.656861860378, 18493.5651413876, 48156.47580104778, 34230.33317689099, 44538.89066444524, 3159.061450846368, 8655.981261251123, 8260.958881492483, 0.0, 0.0, 6064.162381191538, -27467.969354149027, 18922.875097140684, 5919.166614909961, -5932.912937749975, -30620.34763340326, 0.06, -0.006, 1.028, 192.0, 0.0, 0.0, 0.0, 0.0, 0.0, 0.0, 0.0, 0.0, 0.0, 1.747691763507054E9, 0.0, 2025-05-19 23:56:03.507
10.0, 21584.856103045477, 18479.32708016957, 48148.20565559932, 34202.393496321856, 44526.0607631279, 3111.4522351565643, 8610.428406051207, 8253.783971522329, 0.0, 0.0, 6046.660965283033, -27488.667069514642, 18908.614684178196, 5888.075338372629, -5966.46290617739, -30652.35533146326, 0.06, -0.006, 1.028, 192.0, 0.0, 0.0, 0.0, 0.0, 0.0, 0.0, 0.0, 0.0, 0.0, 1.747691763514047E9, 0.0, 2025-05-19 23:56:03.514
12.0, 21605.352652710993, 18502.461135680813, 48167.78578374217, 34233.238903670186, 44546.82553372688, 3131.077066788324, 8673.795601582004, 8265.92096876156, 0.0, 0.0, 6067.291625415281, -27473.57964200731, 18914.761413903405, 5898.915934433453, -5949.564987369178, -30641.760604591444, 0.06, -0.006, 1.028, 192.0, 0.0, 0.0, 0.0, 0.0, 0.0, 0.0, 0.0, 0.0, 0.0, 1.747691763522087E9, 0.0, 2025-05-19 23:56:03.522
14.0, 21587.47125714675, 18485.89849303943, 48155.67113824739, 34216.25157788415, 44536.744896977536, 3132.7981511113826, 8631.528452817018, 8253.359288377678, 0.0, 0.0, 6069.3479859051695, -27473.087903629294, 18930.1170623442, 5912.952829951386, -5943.12768496605, -30630.003587007952, 0.058, -0.006, 1.032, 192.0, 0.5, 104.0, 127.5, 104.0, 16.0, 32.0, 0.0, 0.0, 0.0, 1.747691763531148E9, 0.0, 2025-05-19 23:56:03.531
16.0, 21594.333242694527, 18493.878065809975, 48162.89075170646, 34221.30307213105, 44543.85275171432, 3122.0916655172905, 8664.944310777702, 8279.711995090485, 0.0, 0.0, 6056.965119476929, -27480.799255466376, 18906.98300683296, 5887.091861616595, -5963.981862542852, -30654.67991288661, 0.058, -0.006, 1.032, 192.0, 0.0, 0.0, 0.0, 0.0, 0.0, 0.0, 0.0, 0.0, 0.0, 1.747691763538153E9, 0.0, 2025-05-19 23:56:03.538
18.0, 21592.56745488256, 18495.822667577588, 48163.87422846249, 34235.11645020443, 44539.02477491197, 3158.145029323701, 8661.725659576137, 8268.15614320709, 0.0, 0.0, 6073.170134207026, -27462.604935479754, 18928.08305359877, 5916.573812553145, -5933.27056566126, -30624.39329914967, 0.058, -0.006, 1.032, 192.0, 0.0, 0.0, 0.0, 0.0, 0.0, 0.0, 0.0, 0.0, 0.0, 1.747691763546202E9, 0.0, 2025-05-19 23:56:03.546
20.0, 21585.347841423492, 18488.535998885156, 48152.83246670157, 34213.45760982724, 44520.8081031809, 3131.5241016774303, 8633.338944117897, 8265.608044339186, 0.0, 0.0, 6061.882503257097, -27473.512586773944, 18921.578695962275, 5896.591353010101, -5958.03629851774, -30645.292180215383, 0.058, -0.006, 1.032, 192.0, 0.0, 0.0, 0.0, 0.0, 0.0, 0.0, 0.0, 0.0, 0.0, 1.747691763554222E9, 0.0, 2025-05-19 23:56:03.554
22.0, 21605.196190499806, 18512.65353115243, 48165.05887091862, 34240.95025550726, 44538.64479525624, 3145.8962733621925, 8682.535133664029, 8277.655634600596, 0.0, 0.0, 6064.274139913815, -27468.036409382396, 18915.99075984845, 5901.598143768089, -5946.972185012363, -30639.078395256805, 0.058, -0.006, 1.032, 192.0, 0.0, 0.0, 0.0, 0.0, 0.0, 0.0, 0.0, 0.0, 0.0, 1.747691763563217E9, 0.0, 2025-05-19 23:56:03.563
24.0, 21592.880379304934, 18498.66133912341, 48155.58173126957, 34220.0290226971, 44517.18712057914, 3148.9584623525698, 8631.819025494937, 8255.706221545484, 0.0, 0.0, 6070.443221383479, -27464.303668058357, 18934.40859727962, 5918.227841642838, -5938.41146688598, -30622.40399389315, 0.062, -0.004, 1.03, 192.0, 0.5, 120.0, 127.5, 112.0, 16.0, 24.0, 0.0, 0.0, 0.0, 1.747691763571257E9, 0.0, 2025-05-19 23:56:03.571
26.0, 21602.67044337636, 18509.23371425077, 48163.628359273476, 34228.120354189916, 44527.58068175086, 3131.14412202169, 8655.847150784391, 8275.711032832985, 0.0, 0.0, 6061.815448023731, -27473.780807707408, 18912.928570858072, 5888.812945939654, -5964.048917776217, -30652.936476819097, 0.062, -0.004, 1.03, 192.0, 0.0, 0.0, 0.0, 0.0, 0.0, 0.0, 0.0, 0.0, 0.0, 1.747691763578275E9, 0.0, 2025-05-19 23:56:03.578
28.0, 21599.854123574987, 18506.551504916133, 48158.75567898223, 34235.56348509353, 44539.02477491197, 3149.4502007305864, 8641.22910991062, 8268.424364140554, 0.0, 0.0, 6078.758070320853, -27455.67589469861, 18936.84493742525, 5918.004324198285, -5938.880853519542, -30623.029842737895, 0.062, -0.004, 1.03, 192.0, 0.0, 0.0, 0.0, 0.0, 0.0, 0.0, 0.0, 0.0, 0.0, 1.747691763586307E9, 0.0, 2025-05-19 23:56:03.586
30.0, 21581.190416954807, 18483.573911616077, 48144.830542186566, 34204.89689170085, 44517.43298976815, 3138.7660668809494, 8634.724752274127, 8259.64012856962, 0.0, 0.0, 6058.574445077711, -27478.251156598468, 18920.63992269515, 5888.656483728467, -5972.631987647055, -30650.835412840297, 0.062, -0.004, 1.03, 192.0, 0.0, 0.0, 0.0, 0.0, 0.0, 0.0, 0.0, 0.0, 0.0, 1.747691763594326E9, 0.0, 2025-05-19 23:56:03.594
32.0, 21600.524675908648, 18506.46209793831, 48163.22602787329, 34236.16698219383, 44544.12097264778, 3130.987659810503, 8675.851962071893, 8271.419497897567, 0.0, 0.0, 6066.732831803898, -27469.802197194364, 18918.337693016256, 5896.770166965744, -5954.929406038453, -30643.504040658958, 0.062, -0.004, 1.03, 192.0, 0.0, 0.0, 0.0, 0.0, 0.0, 0.0, 0.0, 0.0, 0.0, 1.74769176360235E9, 0.0, 2025-05-19 23:56:03.602
34.0, 21581.436286143817, 18486.077306995074, 48149.27853933317, 34213.41290633832, 44531.93927191964, 3137.0226308134356, 8622.677162012717, 8248.330145875234, 0.0, 0.0, 6069.236227182892, -27470.33863906129, 18931.97225713399, 5905.710864747866, -5950.74962982531, -30634.6303981102, 0.056, -0.006, 1.032, 192.0, 0.5, 96.0, 127.5, 104.0, 16.0, 32.0, 0.0, 0.0, 0.0, 1.74769176361039E9, 0.0, 2025-05-19 23:56:03.610
36.0, 21588.47708564724, 18494.638025121454, 48160.81203947211, 34221.5265895756, 44528.78767595145, 3125.623241141229, 8663.71496483266, 8268.044384484814, 0.0, 0.0, 6058.239168910882, -27481.469807800033, 18908.74879464493, 5881.6380359695, -5967.468734677879, -30660.536069933903, 0.056, -0.006, 1.032, 192.0, 0.0, 0.0, 0.0, 0.0, 0.0, 0.0, 0.0, 0.0, 0.0, 1.747691763618409E9, 0.0, 2025-05-19 23:56:03.618
38.0, 21594.154428738886, 18501.254141480225, 48169.842144232054, 34242.73839506369, 44544.38919358125, 3149.7631251529606, 8670.085212002423, 8263.886960016127, 0.0, 0.0, 6077.349910420169, -27457.3299237883, 18933.98391413497, 5918.764283509766, -5927.503815591791, -30623.722746816013, 0.056, -0.006, 1.032, 192.0, 0.0, 0.0, 0.0, 0.0, 0.0, 0.0, 0.0, 0.0, 0.0, 1.74769176362644E9, 0.0, 2025-05-19 23:56:03.626
40.0, 21575.177797696328, 18482.47867613777, 48155.24645510274, 34215.67043252831, 44522.9091671597, 3133.4463517005865, 8640.156226176767, 8261.897654759605, 0.0, 0.0, 6063.760049791343, -27468.796368693875, 18923.836222152262, 5899.765300722755, -5949.632042602545, -30642.72172960302, 0.056, -0.006, 1.032, 192.0, 0.0, 0.0, 0.0, 0.0, 0.0, 0.0, 0.0, 0.0, 0.0, 1.747691763634446E9, 0.0, 2025-05-19 23:56:03.634
42.0, 21600.882303819933, 18509.434879950866, 48172.34553961105, 34248.952180022265, 44544.90328370372, 3171.332558552332, 8681.95398830819, 8278.54970437881, 0.0, 0.0, 6068.297453915769, -27458.715731944532, 18921.422233751087, 5908.817757227154, -5935.326926151148, -30631.83643005329, 0.056, -0.006, 1.032, 192.0, 0.0, 0.0, 0.0, 0.0, 0.0, 0.0, 0.0, 0.0, 0.0, 1.74769176364245E9, 0.0, 2025-05-19 23:56:03.642
44.0, 21590.198169970296, 18500.114202513007, 48162.62253077299, 34230.981377480195, 44525.77019044998, 3140.5095029484637, 8635.238842396599, 8264.959843749983, 0.0, 0.0, 6084.256599456859, -27448.52333647291, 18949.40661780913, 5927.995553969808, -5924.329867879137, -30611.809267021334, 0.058, -0.01, 1.026, 192.0, 0.5, 104.0, 127.5, 88.0, 16.0, 8.0, 0.0, 0.0, 0.0, 1.747691763650472E9, 0.0, 2025-05-19 23:56:03.650
46.0, 21601.731670109235, 18510.23954275126, 48162.39901332844, 34229.99790072416, 44522.52918750396, 3131.9264330776255, 8660.876293286836, 8281.366024180177, 0.0, 0.0, 6062.5977590796665, -27466.270621570424, 18918.047120338335, 5892.188059352406, -5957.455153161902, -30647.125023260716, 0.058, -0.01, 1.026, 192.0, 0.0, 0.0, 0.0, 0.0, 0.0, 0.0, 0.0, 0.0, 0.0, 1.747691763657516E9, 0.0, 2025-05-19 23:56:03.657
48.0, 21598.08833576302, 18508.741975872752, 48152.7654114682, 34233.976511237204, 44528.74297246253, 3153.3841077547204, 8656.741220562604, 8265.809210039284, 0.0, 0.0, 6078.020462753829, -27449.81973765132, 18938.61072523722, 5918.6972282764, -5931.482426104835, -30620.414688636625, 0.058, -0.01, 1.026, 192.0, 0.0, 0.0, 0.0, 0.0, 0.0, 0.0, 0.0, 0.0, 0.0, 1.747691763666553E9, 0.0, 2025-05-19 23:56:03.666
50.0, 21586.152504223886, 18493.31927219859, 48146.81984744309, 34209.90368245884, 44505.43010299565, 3137.849645358282, 8625.761702747548, 8265.026898983348, 0.0, 0.0, 6055.8475322541635, -27472.126778617716, 18918.762376160907, 5889.7293674623215, -5965.434725932447, -30648.555534905856, 0.058, -0.01, 1.026, 192.0, 0.0, 0.0, 0.0, 0.0, 0.0, 0.0, 0.0, 0.0, 0.0, 1.747691763675583E9, 0.0, 2025-05-19 23:56:03.675
52.0, 21604.436231188327, 18512.161792774416, 48160.342652838546, 34237.44103162778, 44535.29203358794, 3145.069258817346, 8672.186275981221, 8277.54387587832, 0.0, 0.0, 6066.688128314988, -27467.790540193386, 18918.248286038433, 5898.491251288802, -5948.872083291064, -30638.6313603677, 0.058, -0.01, 1.026, 192.0, 0.0, 0.0, 0.0, 0.0, 0.0, 0.0, 0.0, 0.0, 0.0, 1.747691763681614E9, 0.0, 2025-05-19 23:56:03.681
54.0, 21584.92315827884, 18492.112277998003, 48149.72557422228, 34216.2739296286, 44519.98108863606, 3153.227645543533, 8626.61106903685, 8258.20961692448, 0.0, 0.0, 6072.298416173269, -27461.464996512535, 18937.336675803268, 5913.824547985143, -5942.390077399025, -30625.041499738873, 0.062, -0.004, 1.028, 192.0, 0.5, 120.0, 127.5, 112.0, 16.0, 16.0, 0.0, 0.0, 0.0, 1.747691763690673E9, 0.0, 2025-05-19 23:56:03.690
56.0, 21589.728783336734, 18494.392155932448, 48153.23479810176, 34220.34194711947, 44525.52432126097, 3143.8846163612147, 8652.673203071738, 8276.918027033571, 0.0, 0.0, 6056.227511909904, -27481.335697333303, 18908.45822196701, 5885.080204615618, -5965.166504998983, -30655.39516870918, 0.062, -0.004, 1.028, 192.0, 0.0, 0.0, 0.0, 0.0, 0.0, 0.0, 0.0, 0.0, 0.0, 1.747691763701746E9, 0.0, 2025-05-19 23:56:03.701
58.0, 21584.61023385647, 18491.28526345316, 48152.38543181246, 34229.28264490159, 44535.29203358794, 3175.1323551097344, 8652.583796093917, 8262.97053849346, 0.0, 0.0, 6069.146820205071, -27464.258964569446, 18925.2667337974, 5915.07624567464, -5934.008173228285, -30625.175610205606, 0.062, -0.004, 1.028, 192.0, 0.0, 0.0, 0.0, 0.0, 0.0, 0.0, 0.0, 0.0, 0.0, 1.747691763707735E9, 0.0, 2025-05-19 23:56:03.707
60.0, 21577.56943435305, 18481.830475548562, 48146.6633852319, 34208.24965336915, 44523.84794042682, 3131.725267377528, 8627.773359748526, 8267.642053084619, 0.0, 0.0, 6054.752296775854, -27479.14522637668, 18912.928570858072, 5890.556382007168, -5963.13249625355, -30650.008398295453, 0.062, -0.004, 1.028, 192.0, 0.0, 0.0, 0.0, 0.0, 0.0, 0.0, 0.0, 0.0, 0.0, 1.747691763714796E9, 0.0, 2025-05-19 23:56:03.714
62.0, 21606.26907423366, 18508.630217150476, 48175.43008034588, 34242.805450297055, 44553.508705319015, 3145.2033692840782, 8672.409793425775, 8281.83541081374, 0.0, 0.0, 6067.492791115379, -27466.42708378161, 18914.98493134796, 5903.45333855788, -5940.9148622649745, -30637.469069656025, 0.062, -0.004, 1.028, 192.0, 0.0, 0.0, 0.0, 0.0, 0.0, 0.0, 0.0, 0.0, 0.0, 1.747691763722797E9, 0.0, 2025-05-19 23:56:03.722
64.0, 21593.662690360867, 18498.974263545784, 48171.78674599967, 34228.09800244546, 44534.73323997656, 3144.8457413727933, 8629.069760926934, 8263.797553038306, 0.0, 0.0, 6084.748337834876, -27454.29008654238, 18942.07524562779, 5923.346391123104, -5926.542690580212, -30618.559493846835, 0.066, -0.004, 1.026, 192.0, 1.0, 8.0, 127.5, 112.0, 16.0, 8.0, 0.0, 0.0, 0.0, 1.74769176373084E9, 0.0, 2025-05-19 23:56:03.730
66.0, 21603.85508583249, 18507.847906094543, 48176.03357744618, 34231.85309551395, 44550.29005411745, 3123.0304387844135, 8659.445781641696, 8277.990910767427, 0.0, 0.0, 6080.009768010351, -27462.269659312926, 18926.943114631547, 5898.6924169889, -5948.22388270186, -30645.560401148847, 0.066, -0.004, 1.026, 192.0, 0.0, 0.0, 0.0, 0.0, 0.0, 0.0, 0.0, 0.0, 0.0, 1.747691763737826E9, 0.0, 2025-05-19 23:56:03.737
68.0, 21607.341957967517, 18514.396967219946, 48175.11715592351, 34245.77823230961, 44549.37363259478, 3172.7630701974717, 8662.99970901009, 8271.151276964101, 0.0, 0.0, 6095.991265295896, -27441.929571858596, 18950.121873631702, 5926.989725469319, -5922.206452155883, -30615.318490900816, 0.066, -0.004, 1.026, 192.0, 0.0, 0.0, 0.0, 0.0, 0.0, 0.0, 0.0, 0.0, 0.0, 1.747691763746966E9, 0.0, 2025-05-19 23:56:03.746
70.0, 21588.70060309179, 18496.113240255505, 48158.107478393016, 34213.68112727179, 44524.11616136029, 3148.1761512966336, 8633.473054584629, 8271.486553130931, 0.0, 0.0, 6074.5112388743455, -27460.66033371214, 18932.955733890027, 5903.095710646595, -5949.922615280463, -30638.02786326741, 0.066, -0.004, 1.026, 192.0, 0.0, 0.0, 0.0, 0.0, 0.0, 0.0, 0.0, 0.0, 0.0, 1.747691763754953E9, 0.0, 2025-05-19 23:56:03.754
72.0, 21602.491629420714, 18512.765289874707, 48166.37762384148, 34241.50904911865, 44541.72933599107, 3162.81654391486, 8680.232903985132, 8286.618684127174, 0.0, 0.0, 6073.639520840588, -27460.570926734323, 18922.56217271831, 5912.774015995743, -5934.790484284221, -30629.802421307853, 0.066, -0.004, 1.026, 192.0, 0.0, 0.0, 0.0, 0.0, 0.0, 0.0, 0.0, 0.0, 0.0, 1.747691763761951E9, 0.0, 2025-05-19 23:56:03.761
74.0, 21584.967861767753, 18494.481562910267, 48148.09389687704, 34216.4750953287, 44516.96360313459, 3151.104229820279, 8628.980353949113, 8259.260148913878, 0.0, 0.0, 6072.186657450993, -27460.72738894551, 18934.721521701995, 5917.959620709375, -5940.736048309333, -30623.655691582644, 0.064, -0.004, 1.026, 192.0, 0.5, 120.0, 127.5, 112.0, 16.0, 8.0, 0.0, 0.0, 0.0, 1.747691763770008E9, 0.0, 2025-05-19 23:56:03.770
76.0, 21597.03780377362, 18505.23275199327, 48156.09582139204, 34223.53824657658, 44527.357164306304, 3126.070276030335, 8654.394287394796, 8277.789745067328, 0.0, 0.0, 6062.083668957194, -27471.880909428706, 18914.381434247665, 5891.718672718844, -5964.138324754039, -30652.82471809682, 0.064, -0.004, 1.026, 192.0, 0.0, 0.0, 0.0, 0.0, 0.0, 0.0, 0.0, 0.0, 0.0, 1.747691763778017E9, 0.0, 2025-05-19 23:56:03.778
78.0, 21590.93577753732, 18497.387289689457, 48154.35238532453, 34229.32734839051, 44534.53207427646, 3150.1878082976114, 8663.111467732366, 8268.15614320709, 0.0, 0.0, 6073.125430718116, -27459.587449978288, 18931.212297822512, 5921.915879477964, -5934.41050462848, -30623.16395320463, 0.064, -0.004, 1.026, 192.0, 0.0, 0.0, 0.0, 0.0, 0.0, 0.0, 0.0, 0.0, 0.0, 1.747691763787065E9, 0.0, 2025-05-19 23:56:03.787
80.0, 21590.71226009277, 18491.017042519696, 48156.788725470156, 34210.82010398151, 44527.42421953967, 3123.790398095894, 8634.188310407199, 8268.737288562928, 0.0, 0.0, 6066.375203892613, -27477.11121763125, 18920.595219206243, 5899.385321067014, -5957.365746184081, -30648.533183161402, 0.064, -0.004, 1.026, 192.0, 0.0, 0.0, 0.0, 0.0, 0.0, 0.0, 0.0, 0.0, 0.0, 1.747691763794056E9, 0.0, 2025-05-19 23:56:03.794
82.0, 21603.85508583249, 18508.585513661565, 48164.678891262876, 34238.15628745035, 44550.42416458418, 3146.008032084469, 8679.38353769583, 8273.766431065373, 0.0, 0.0, 6079.272160443325, -27463.119025602227, 18924.618533208195, 5913.3328096071255, -5933.762304039276, -30631.501153886456, 0.064, -0.004, 1.026, 192.0, 0.0, 0.0, 0.0, 0.0, 0.0, 0.0, 0.0, 0.0, 0.0, 1.747691763802087E9, 0.0, 2025-05-19 23:56:03.802
84.0, 21584.766696067658, 18488.62540586298, 48145.99283289824, 34212.89881621586, 44530.82168469688, 3131.971136566536, 8625.337019602897, 8248.687773786518, 0.0, 0.0, 6072.901913273563, -27466.360028548246, 18931.54757398934, 5913.533975307224, -5942.077152976651, -30628.640130596177, 0.062, -0.005, 1.028, 192.0, 0.5, 112.0, 127.5, 104.0, 16.0, 24.0, 0.0, 0.0, 0.0, 1.747691763810113E9, 0.0, 2025-05-19 23:56:03.810
86.0, 21597.171914240353, 18502.081156025073, 48153.704184735325, 34221.057202942044, 44539.65062375672, 3135.0780290458238, 8659.378726408331, 8269.854875785693, 0.0, 0.0, 6062.016613723828, -27478.29586008738, 18909.151126045123, 5883.1579545924615, -5964.674766620966, -30660.245497255983, 0.062, -0.005, 1.028, 192.0, 0.0, 0.0, 0.0, 0.0, 0.0, 0.0, 0.0, 0.0, 0.0, 1.747691763818145E9, 0.0, 2025-05-19 23:56:03.818
88.0, 21601.239931731216, 18505.05393803763, 48158.28629234866, 34230.57904608, 44548.837190727856, 3163.4423927596085, 8661.211569453666, 8262.679965815541, 0.0, 0.0, 6085.307131446259, -27455.273563298415, 18936.867289169706, 5922.206452155883, -5928.084960947628, -30621.06288922583, 0.062, -0.005, 1.028, 192.0, 0.0, 0.0, 0.0, 0.0, 0.0, 0.0, 0.0, 0.0, 0.0, 1.747691763826164E9, 0.0, 2025-05-19 23:56:03.826
90.0, 21596.858989817978, 18501.052975780127, 48158.57686502658, 34212.07180167101, 44531.62634749727, 3128.037229542402, 8634.434179596208, 8248.620718553153, 0.0, 0.0, 6073.505410373857, -27470.53980476139, 18924.439719252554, 5895.853745443076, -5959.645624118522, -30648.220258739027, 0.062, -0.005, 1.028, 192.0, 0.0, 0.0, 0.0, 0.0, 0.0, 0.0, 0.0, 0.0, 0.0, 1.747691763834184E9, 0.0, 2025-05-19 23:56:03.834
92.0, 21615.36623422697, 18520.81191787862, 48173.284312878175, 34237.77630779461, 44552.68169077417, 3144.8680931172485, 8685.306749976486, 8271.01716649737, 0.0, 0.0, 6084.949503534974, -27459.095711600272, 18927.70307394303, 5914.606859041079, -5932.689420305422, -30629.02011025192, 0.062, -0.005, 1.028, 192.0, 0.0, 0.0, 0.0, 0.0, 0.0, 0.0, 0.0, 0.0, 0.0, 1.747691763843236E9, 0.0, 2025-05-19 23:56:03.843
94.0, 21612.7510801257, 18517.593266677057, 48167.56226629762, 34229.21558966823, 44530.441705041136, 3181.9496371686027, 8634.121255173834, 8265.317471661267, 0.0, 0.0, 6090.380977437613, -27453.66423769763, 18946.031504396382, 5925.872138246553, -5927.637926058523, -30619.92295025861, 0.062, -0.0025, 1.028, 192.0, 0.5, 120.0, 0.0, 0.0, 16.0, 16.0, 0.0, 0.0, 0.0, 1.747691763850225E9, 0.0, 2025-05-19 23:56:03.850
96.0, 21624.977484342755, 18529.819670894107, 48176.570019313105, 34240.81614504053, 44538.9130161897, 3151.5736164538407, 8658.90933977477, 8277.230951455946, 0.0, 0.0, 6081.797907566775, -27451.33965627428, 18931.92755364508, 5905.487347303313, -5946.771019312265, -30635.34565393277, 0.062, -0.0025, 1.028, 192.0, 0.0, 0.0, 0.0, 0.0, 0.0, 0.0, 0.0, 0.0, 0.0, 1.747691763858288E9, 0.0, 2025-05-19 23:56:03.858
98.0, 21615.925027838355, 18524.209383035824, 48170.6691587769, 34249.35451142246, 44536.63313825526, 3173.433622531131, 8661.703307831682, 8281.656596858096, 0.0, 0.0, 6096.550058907278, -27437.43687122308, 18950.613612009718, 5939.618461086567, -5914.204527640883, -30602.600348305747, 0.062, -0.0025, 1.028, 192.0, 0.0, 0.0, 0.0, 0.0, 0.0, 0.0, 0.0, 0.0, 0.0, 1.747691763866273E9, 0.0, 2025-05-19 23:56:03.866
100.0, 21594.780277583635, 18502.125859513984, 48151.5137137787, 34217.19035115127, 44513.18615832164, 3162.615378214762, 8624.599412035872, 8272.4029746536, 0.0, 0.0, 6068.230398682404, -27458.96160113354, 18926.049044853335, 5906.2249548703385, -5955.622310116567, -30631.81407830883, 0.062, -0.0025, 1.028, 192.0, 0.0, 0.0, 0.0, 0.0, 0.0, 0.0, 0.0, 0.0, 0.0, 1.747691763874353E9, 0.0, 2025-05-19 23:56:03.874
102.0, 21607.096088778508, 18510.708929384822, 48158.55451328213, 34236.45755487175, 44536.54373127744, 3134.6086424122623, 8673.661491115272, 8287.49040216093, 0.0, 0.0, 6071.180828950504, -27461.554403490354, 18920.014073850405, 5909.711827005366, -5944.535844866735, -30630.696491086066, 0.062, -0.0025, 1.028, 192.0, 0.0, 0.0, 0.0, 0.0, 0.0, 0.0, 0.0, 0.0, 0.0, 1.747691763881363E9, 0.0, 2025-05-19 23:56:03.881
104.0, 21590.399335670394, 18494.74978384373, 48144.45056253082, 34216.31863311752, 44522.21626308159, 3151.4395059871085, 8628.130987659812, 8266.166837950568, 0.0, 0.0, 6070.085593472194, -27463.655467469154, 18930.295876299846, 5915.053893930184, -5946.2569291897935, -30625.24266543897, 0.062, 7.5E-4, 1.03, 192.0, 0.5, 120.0, 0.0, 16.0, 16.0, 32.0, 0.0, 0.0, 0.0, 1.747691763890417E9, 0.0, 2025-05-19 23:56:03.890
106.0, 21592.209826971273, 18495.107411755016, 48149.68087073337, 34219.06789768552, 44525.546673005425, 3127.1878632531007, 8660.585720608917, 8280.941341035526, 0.0, 0.0, 6053.254729897348, -27477.066514142338, 18904.50196319842, 5887.896524416987, -5968.742784111832, -30654.411691953148, 0.062, 7.5E-4, 1.03, 192.0, 0.0, 0.0, 0.0, 0.0, 0.0, 0.0, 0.0, 0.0, 0.0, 1.747691763898471E9, 0.0, 2025-05-19 23:56:03.898
108.0, 21595.85316131749, 18499.622464134987, 48152.54189402365, 34225.25933089964, 44537.95189117812, 3142.789380882905, 8661.703307831682, 8267.44088738452, 0.0, 0.0, 6076.500544130868, -27460.392112778678, 18929.625323966186, 5925.201585912894, -5929.157844681483, -30620.280578169895, 0.062, 7.5E-4, 1.03, 192.0, 0.0, 0.0, 0.0, 0.0, 0.0, 0.0, 0.0, 0.0, 0.0, 1.747691763905408E9, 0.0, 2025-05-19 23:56:03.905
110.0, 21579.98342275422, 18483.775077316175, 48135.01812637068, 34192.96106016172, 44509.81104490889, 3114.626182869218, 8631.841377239392, 8259.126038447146, 0.0, 0.0, 6056.048697954261, -27485.426066568623, 18906.73713764395, 5887.158916849961, -5969.905074823508, -30660.64782865618, 0.062, 7.5E-4, 1.03, 192.0, 0.0, 0.0, 0.0, 0.0, 0.0, 0.0, 0.0, 0.0, 0.0, 1.747691763914486E9, 0.0, 2025-05-19 23:56:03.914
112.0, 21607.252550989695, 18511.71475788531, 48156.073469647585, 34228.187409423284, 44541.57287377988, 3150.3889739977094, 8682.088098774922, 8275.420460155066, 0.0, 0.0, 6060.831971267698, -27474.85369144126, 18905.999530076926, 5901.329922834626, -5950.146132725016, -30645.292180215383, 0.062, 7.5E-4, 1.03, 192.0, 0.0, 0.0, 0.0, 0.0, 0.0, 0.0, 0.0, 0.0, 0.0, 1.747691763922522E9, 0.0, 2025-05-19 23:56:03.922
114.0, 21599.295329963606, 18501.74587985824, 48152.81011495711, 34210.93186270379, 44529.122952118276, 3143.370526238743, 8617.558612532452, 8253.53810233332, 0.0, 0.0, 6068.00688123785, -27465.287144814392, 18927.88188789867, 5914.5621555521675, -5944.625251844555, -30634.16101147664, 0.06, -6.25E-4, 1.028, 192.0, 0.5, 104.0, 127.5, 120.0, 16.0, 8.0, 0.0, 0.0, 0.0, 1.747691763929564E9, 0.0, 2025-05-19 23:56:03.929
116.0, 21609.97946381324, 18517.5709149326, 48171.38441459947, 34230.7802117801, 44527.647736984225, 3138.788418625405, 8666.039546256012, 8283.243570714423, 0.0, 0.0, 6066.665776570532, -27468.841072182786, 18913.397957491634, 5895.294951831693, -5962.37253694207, -30654.59050590879, 0.06, -6.25E-4, 1.028, 192.0, 0.0, 0.0, 0.0, 0.0, 0.0, 0.0, 0.0, 0.0, 0.0, 1.747691763937585E9, 0.0, 2025-05-19 23:56:03.937
118.0, 21611.566437669568, 18519.89549635595, 48172.14437391095, 34242.73839506369, 44533.83917019834, 3168.270369561955, 8668.230017212632, 8278.572056123265, 0.0, 0.0, 6088.72694834792, -27443.829470137298, 18945.673876485096, 5940.356068653592, -5920.306553877182, -30608.456505353035, 0.06, -6.25E-4, 1.028, 192.0, 0.0, 0.0, 0.0, 0.0, 0.0, 0.0, 0.0, 0.0, 0.0, 1.747691763946628E9, 0.0, 2025-05-19 23:56:03.946
120.0, 21600.61408288647, 18507.37851946098, 48160.58852202756, 34217.7267930182, 44514.504911244505, 3138.9672325810475, 8641.05029595498, 8274.3028729323, 0.0, 0.0, 6074.667701085532, -27461.420293023624, 18928.75360593243, 5911.142338650506, -5956.404621172503, -30638.072566756317, 0.06, -6.25E-4, 1.028, 192.0, 0.0, 0.0, 0.0, 0.0, 0.0, 0.0, 0.0, 0.0, 0.0, 1.747691763954619E9, 0.0, 2025-05-19 23:56:03.954
122.0, 21612.52756268115, 18519.24729576675, 48163.76246974021, 34237.26221767214, 44532.8109899534, 3139.593081425796, 8693.331026235941, 8288.4068236836, 0.0, 0.0, 6076.165267964037, -27458.33575228879, 18925.110271586214, 5921.245327144305, -5940.356068653592, -30627.16491546213, 0.06, -6.25E-4, 1.028, 192.0, 0.0, 0.0, 0.0, 0.0, 0.0, 0.0, 0.0, 0.0, 0.0, 1.747691763961636E9, 0.0, 2025-05-19 23:56:03.961
124.0, 21602.782202098635, 18504.629254892978, 48152.29602483464, 34214.64225228337, 44520.76339969199, 3156.0216136004465, 8630.164996405245, 8259.416611125065, 0.0, 0.0, 6071.91843651753, -27462.515528501932, 18933.112196101214, 5923.525205078746, -5943.999402999807, -30625.26501718343, 0.061, -0.0033125, 1.0270000000000001, 192.0, 0.5, 120.0, 127.5, 104.0, 16.0, 8.0, 0.0, 0.0, 0.0, 1.747691763970683E9, 0.0, 2025-05-19 23:56:03.970
126.0, 21611.99112081422, 18511.29007474066, 48152.3183765791, 34217.10094417345, 44532.676879486666, 3133.5134069339524, 8658.507008374574, 8274.772259565862, 0.0, 0.0, 6059.870846256119, -27475.09956063027, 18905.88777135465, 5889.483498273314, -5974.241313247838, -30658.36795072174, 0.061, -0.0033125, 1.0270000000000001, 192.0, 0.0, 0.0, 0.0, 0.0, 0.0, 0.0, 0.0, 0.0, 0.0, 1.747691763978739E9, 0.0, 2025-05-19 23:56:03.978
128.0, 21616.819097616568, 18515.916885842908, 48154.397088813435, 34227.002766967154, 44530.10642887431, 3152.7135554210613, 8661.52449387604, 8273.073526987258, 0.0, 0.0, 6082.468459900434, -27455.698246443066, 18934.945039146547, 5927.213242913872, -5937.27152791876, -30621.241703181473, 0.061, -0.0033125, 1.0270000000000001, 192.0, 0.0, 0.0, 0.0, 0.0, 0.0, 0.0, 0.0, 0.0, 0.0, 1.747691763985763E9, 0.0, 2025-05-19 23:56:03.985
130.0, 21604.391527699416, 18503.019929292193, 48146.41751604289, 34203.98047017818, 44513.61084146629, 3126.852587086271, 8632.400170850775, 8270.816000797273, 0.0, 0.0, 6066.5316661038005, -27473.87021468523, 18918.717672671995, 5893.417405297448, -5978.018758060784, -30654.568154164335, 0.061, -0.0033125, 1.0270000000000001, 192.0, 0.0, 0.0, 0.0, 0.0, 0.0, 0.0, 0.0, 0.0, 0.0, 1.747691763993803E9, 0.0, 2025-05-19 23:56:03.993
132.0, 21615.18742027133, 18517.257990510225, 48158.42040281539, 34231.540171091576, 44537.25898710001, 3151.1489333091895, 8684.658549387283, 8283.757660836895, 0.0, 0.0, 6074.980625507907, -27461.57675523481, 18921.08695758426, 5910.270620616749, -5951.643699603522, -30637.424366167113, 0.061, -0.0033125, 1.0270000000000001, 192.0, 0.0, 0.0, 0.0, 0.0, 0.0, 0.0, 0.0, 0.0, 0.0, 1.747691764002888E9, 0.0, 2025-05-19 23:56:04.002
134.0, 21604.682100377333, 18504.361033959514, 48157.14635338144, 34215.78219125059, 44524.786713693946, 3153.0488315878906, 8626.119330658834, 8260.333032647733, 0.0, 0.0, 6079.227456954415, -27461.330886045802, 18935.12385310219, 5919.747760265799, -5947.776847812754, -30628.751889318453, 0.0605, -0.00465625, 1.0285000000000002, 192.0, 0.5, 112.0, 127.5, 104.0, 16.0, 24.0, 0.0, 0.0, 0.0, 1.747691764010848E9, 0.0, 2025-05-19 23:56:04.010
136.0, 21616.439117960825, 18518.688502155364, 48164.43302207387, 34228.16505767883, 44537.39309756674, 3124.3938951961873, 8674.220284726654, 8280.78487882434, 0.0, 0.0, 6072.67839582901, -27470.115121616738, 18915.230800536967, 5894.3114750756595, -5969.346281212125, -30653.674084386123, 0.0605, -0.00465625, 1.0285000000000002, 192.0, 0.0, 0.0, 0.0, 0.0, 0.0, 0.0, 0.0, 0.0, 0.0, 1.747691764017898E9, 0.0, 2025-05-19 23:56:04.017
138.0, 21624.955132598297, 18526.19868829235, 48175.85476349053, 34244.23596194219, 44541.72933599107, 3147.8185233853487, 8674.153229493288, 8276.001605510904, 0.0, 0.0, 6099.098157775183, -27441.99662709196, 18949.2725073424, 5938.903205263997, -5923.435798100924, -30607.33891813027, 0.0605, -0.00465625, 1.0285000000000002, 192.0, 0.0, 0.0, 0.0, 0.0, 0.0, 0.0, 0.0, 0.0, 0.0, 1.747691764025878E9, 0.0, 2025-05-19 23:56:04.025
140.0, 21609.46537369077, 18507.020891549695, 48161.10261215003, 34213.47996157169, 44517.83532116834, 3119.2306422270112, 8641.877310499825, 8266.166837950568, 0.0, 0.0, 6078.355738920658, -27458.402807522158, 18928.28421929887, 5905.844975214598, -5962.149019497517, -30641.000645279964, 0.0605, -0.00465625, 1.0285000000000002, 192.0, 0.0, 0.0, 0.0, 0.0, 0.0, 0.0, 0.0, 0.0, 0.0, 1.747691764034957E9, 0.0, 2025-05-19 23:56:04.034
142.0, 21624.686911664834, 18526.444557481358, 48172.859629733524, 34243.274836930614, 44537.30369058892, 3152.9594246100696, 8693.800412869503, 8279.332015434744, 0.0, 0.0, 6080.747375577375, -27453.016037108428, 18926.764300675906, 5915.635039286022, -5945.407562900492, -30630.517677130425, 0.0605, -0.00465625, 1.0285000000000002, 192.0, 0.0, 0.0, 0.0, 0.0, 0.0, 0.0, 0.0, 0.0, 0.0, 1.747691764041931E9, 0.0, 2025-05-19 23:56:04.041
144.0, 21612.572266170057, 18513.212324763816, 48174.603065801035, 34227.427450111805, 44513.78965542193, 3151.0595263313685, 8641.47497909963, 8262.165875693068, 0.0, 0.0, 6092.750262349876, -27445.505850971444, 18948.04316139736, 5930.74481853781, -5936.533920351734, -30614.20090367805, 0.058249999999999996, -0.003328125, 1.03025, 192.0, 0.5, 96.0, 127.5, 120.0, 16.0, 32.0, 0.0, 0.0, 0.0, 1.747691764049969E9, 0.0, 2025-05-19 23:56:04.049
146.0, 21616.282655749637, 18513.547600930644, 48171.58558029957, 34229.88614200189, 44527.53597826195, 3127.120808019735, 8663.893778788302, 8277.387413667133, 0.0, 0.0, 6076.612302853144, -27461.62145872372, 18919.745852916938, 5900.793480967699, -5958.997423529318, -30642.87819181421, 0.058249999999999996, -0.003328125, 1.03025, 192.0, 0.0, 0.0, 0.0, 0.0, 0.0, 0.0, 0.0, 0.0, 0.0, 1.747691764057951E9, 0.0, 2025-05-19 23:56:04.057
148.0, 21603.788030599124, 18500.09185076855, 48157.39222257045, 34225.37108962191, 44525.703135216616, 3124.0586190293575, 8660.362203164364, 8257.226140168446, 0.0, 0.0, 6081.037948255294, -27451.362008018736, 18934.140376346157, 5929.917803992964, -5931.3483156381035, -30613.7762205334, 0.058249999999999996, -0.003328125, 1.03025, 192.0, 0.0, 0.0, 0.0, 0.0, 0.0, 0.0, 0.0, 0.0, 0.0, 1.747691764066007E9, 0.0, 2025-05-19 23:56:04.066
150.0, 21604.056251532587, 18496.761440844708, 48157.57103652609, 34209.34488884746, 44513.946117633124, 3114.6485346136733, 8615.681065998206, 8255.125076189646, 0.0, 0.0, 6064.251788169359, -27469.735141961, 18918.248286038433, 5898.759472222266, -5965.367670699081, -30648.64494188368, 0.058249999999999996, -0.003328125, 1.03025, 192.0, 0.0, 0.0, 0.0, 0.0, 0.0, 0.0, 0.0, 0.0, 0.0, 1.747691764074015E9, 0.0, 2025-05-19 23:56:04.074
152.0, 21635.393397258926, 18532.05484533964, 48191.188060186876, 34257.35643593746, 44556.794411753945, 3151.3500990092875, 8699.790680383525, 8284.629378870652, 0.0, 0.0, 6089.285741959303, -27446.91401087213, 18934.185079835068, 5924.441626601413, -5928.196719669905, -30624.39329914967, 0.058249999999999996, -0.003328125, 1.03025, 192.0, 0.0, 0.0, 0.0, 0.0, 0.0, 0.0, 0.0, 0.0, 0.0, 1.747691764081996E9, 0.0, 2025-05-19 23:56:04.081
154.0, 21609.577132413047, 18506.864429338508, 48165.505905807724, 34219.13495291888, 44530.508760274504, 3140.3530407372764, 8627.974525448624, 8247.771352263851, 0.0, 0.0, 6094.0019600393725, -27447.361045761234, 18946.813815452315, 5932.130626694039, -5926.162710924472, -30618.783011291387, 0.058124999999999996, -0.0026640624999999998, 1.029125, 192.0, 0.5, 104.0, 127.5, 120.0, 16.0, 16.0, 0.0, 0.0, 0.0, 1.747691764090072E9, 0.0, 2025-05-19 23:56:04.090
156.0, 21607.654882389892, 18502.66230138091, 48152.25132134573, 34207.44499056876, 44536.29786208843, 3119.2306422270112, 8632.221356895132, 8254.320413389256, 0.0, 0.0, 6074.5112388743455, -27470.5845082503, 18914.046158080837, 5891.7857279522095, -5959.7573828407985, -30660.82664261182, 0.058124999999999996, -0.0026640624999999998, 1.029125, 192.0, 0.0, 0.0, 0.0, 0.0, 0.0, 0.0, 0.0, 0.0, 0.0, 1.747691764097076E9, 0.0, 2025-05-19 23:56:04.097
158.0, 21616.774394127657, 18508.94314157285, 48154.397088813435, 34220.990147708675, 44531.29107133044, 3164.224703815544, 8650.99682223759, 8237.310735858768, 0.0, 0.0, 6073.438355140491, -27464.594240736278, 18922.293951784846, 5909.60006828309, -5939.6855163199325, -30640.553610390856, 0.058124999999999996, -0.0026640624999999998, 1.029125, 192.0, 0.0, 0.0, 0.0, 0.0, 0.0, 0.0, 0.0, 0.0, 0.0, 1.747691764106055E9, 0.0, 2025-05-19 23:56:04.106
160.0, 21619.680120906847, 18513.793470119654, 48164.54478079615, 34215.55867380604, 44524.56319624939, 3130.361810965754, 8651.577967593428, 8272.224160697957, 0.0, 0.0, 6072.119602217627, -27465.421255281122, 18921.444585495545, 5898.871230944542, -5954.258853704793, -30652.511793674446, 0.058124999999999996, -0.0026640624999999998, 1.029125, 192.0, 0.0, 0.0, 0.0, 0.0, 0.0, 0.0, 0.0, 0.0, 0.0, 1.747691764114129E9, 0.0, 2025-05-19 23:56:04.114
162.0, 21624.70926340929, 18522.465946968314, 48170.2221238878, 34239.11741246193, 44539.65062375672, 3156.6698141896504, 8649.968641992646, 8258.544893091308, 0.0, 0.0, 6086.82705006922, -27446.5787347053, 18931.03348386687, 5923.614612056567, -5919.345428865604, -30625.91321777263, 0.058124999999999996, -0.0026640624999999998, 1.029125, 192.0, 0.0, 0.0, 0.0, 0.0, 0.0, 0.0, 0.0, 0.0, 0.0, 1.747691764122126E9, 0.0, 2025-05-19 23:56:04.122
164.0, 21610.89588533591, 18508.227885750282, 48168.81396398711, 34231.339005391485, 44522.79740843742, 3140.822427370838, 8652.539092605006, 8304.678893647062, 0.0, 0.0, 6080.948541277474, -27449.90914462914, 18936.68847521406, 5927.83909175862, -5935.595147084612, -30619.162990947127, 0.0610625, -0.00333203125, 1.0295625, 192.0, 1.0, 0.0, 127.5, 112.0, 16.0, 24.0, 0.0, 0.0, 0.0, 1.74769176412917E9, 0.0, 2025-05-19 23:56:04.129
166.0, 21624.79867038711, 18520.633103922977, 48185.086033950574, 34246.20291545426, 44527.1112951173, 3132.395819711187, 8707.34557000942, 8308.903373349116, 0.0, 0.0, 6083.027253511817, -27448.545688217368, 18926.741948931452, 5929.806045270687, -5928.442588858913, -30619.788839791876, 0.0610625, -0.00333203125, 1.0295625, 192.0, 0.0, 0.0, 0.0, 0.0, 0.0, 0.0, 0.0, 0.0, 0.0, 1.747691764138174E9, 0.0, 2025-05-19 23:56:04.138
168.0, 21622.071757563564, 18517.123880043495, 48182.649693804946, 34250.1815259673, 44551.072365173386, 3149.7631251529606, 8676.209589983177, 8273.609968854185, 0.0, 0.0, 6097.958218807962, -27433.592371176765, 18949.384266064677, 5955.734068838843, -5902.223992612839, -30592.050324922842, 0.0610625, -0.00333203125, 1.0295625, 192.0, 0.0, 0.0, 0.0, 0.0, 0.0, 0.0, 0.0, 0.0, 0.0, 1.74769176414617E9, 0.0, 2025-05-19 23:56:04.146
170.0, 21621.244743018717, 18509.5689904176, 48169.015129687206, 34221.03485119758, 44524.09380961583, 3148.7572966524717, 8634.724752274127, 8274.459335143487, 0.0, 0.0, 6077.484020886901, -27457.084054599294, 18930.094710599747, 5922.631135300534, -5937.048010474206, -30627.09786022876, 0.0610625, -0.00333203125, 1.0295625, 192.0, 0.0, 0.0, 0.0, 0.0, 0.0, 0.0, 0.0, 0.0, 0.0, 1.747691764153268E9, 0.0, 2025-05-19 23:56:04.153
172.0, 21626.676216921358, 18521.191897534358, 48175.96652221281, 34239.69855781776, 44544.12097264778, 3144.62222392824, 8684.926770320746, 8276.381585166644, 0.0, 0.0, 6088.615189625644, -27444.790595148876, 18931.525222244887, 5927.4144086139695, -5925.380399868536, -30621.219351437016, 0.0610625, -0.00333203125, 1.0295625, 192.0, 0.0, 0.0, 0.0, 0.0, 0.0, 0.0, 0.0, 0.0, 0.0, 1.747691764163305E9, 0.0, 2025-05-19 23:56:04.163
174.0, 21602.156353253886, 18497.074365267083, 48155.447620802835, 34206.61797602391, 44539.65062375672, 3132.95461332257, 8612.931801430203, 8235.67905851353, 0.0, 0.0, 6078.892180787585, -27455.54178423188, 18933.80510017933, 5921.3123823776705, -5925.223937657349, -30629.511848629936, 0.061531249999999996, -0.0066660156250000005, 1.0317812499999999, 192.0, 0.5, 120.0, 127.5, 88.0, 16.0, 40.0, 0.0, 0.0, 0.0, 1.747691764170277E9, 0.0, 2025-05-19 23:56:04.170
176.0, 21612.773431870155, 18508.80903110612, 48158.24158885975, 34207.221473124206, 44530.173484107676, 3110.9828485230028, 8660.786886309015, 8249.53714007582, 0.0, 0.0, 6063.8271050247085, -27476.507720530957, 18905.396032976634, 5886.533068005213, -5957.455153161902, -30671.622535183735, 0.061531249999999996, -0.0066660156250000005, 1.0317812499999999, 192.0, 0.0, 0.0, 0.0, 0.0, 0.0, 0.0, 0.0, 0.0, 0.0, 1.747691764177311E9, 0.0, 2025-05-19 23:56:04.177
178.0, 21614.31570223757, 18509.077252039584, 48159.33682433806, 34219.91726397482, 44541.99755692453, 3132.4181714556426, 8652.0920577159, 8234.96380269096, 0.0, 0.0, 6081.10500348866, -27458.134586588694, 18929.714730944008, 5916.17148115295, -5929.98485922633, -30641.604142380256, 0.061531249999999996, -0.0066660156250000005, 1.0317812499999999, 192.0, 0.0, 0.0, 0.0, 0.0, 0.0, 0.0, 0.0, 0.0, 0.0, 1.747691764185385E9, 0.0, 2025-05-19 23:56:04.185
180.0, 21598.51301890767, 18492.179333231372, 48139.53317875066, 34191.95523166123, 44523.870292171276, 3115.073217758324, 8634.121255173834, 8231.38752357811, 0.0, 0.0, 6066.554017848256, -27470.20452859456, 18917.35421626022, 5891.003416896274, -5952.761286826288, -30666.41457872565, 0.061531249999999996, -0.0066660156250000005, 1.0317812499999999, 192.0, 0.0, 0.0, 0.0, 0.0, 0.0, 0.0, 0.0, 0.0, 0.0, 1.747691764194349E9, 0.0, 2025-05-19 23:56:04.194
182.0, 21616.37206272746, 18511.558295674124, 48163.203676128825, 34229.7296797907, 44540.05295515692, 3123.589232395796, 8677.52834290604, 8254.58863432272, 0.0, 0.0, 6065.525837603312, -27467.81289193784, 18911.766280146396, 5902.671027501944, -5937.495045363313, -30654.50109893097, 0.061531249999999996, -0.0066660156250000005, 1.0317812499999999, 192.0, 0.0, 0.0, 0.0, 0.0, 0.0, 0.0, 0.0, 0.0, 0.0, 1.747691764202407E9, 0.0, 2025-05-19 23:56:04.202
184.0, 21603.340995710016, 18499.823629835086, 48163.136620895464, 34220.29724363056, 44528.78767595145, 3162.615378214762, 8626.879289970313, 8241.937546961015, 0.0, 0.0, 6085.485945401901, -27455.251211553958, 18938.49896651494, 5925.894489991008, -5917.512585820268, -30630.6294358527, 0.061765625, -0.0053330078125, 1.030890625, 192.0, 0.5, 120.0, 127.5, 112.0, 16.0, 24.0, 0.0, 0.0, 0.0, 1.747691764209509E9, 0.0, 2025-05-19 23:56:04.209
186.0, 21610.694719635812, 18504.741013615254, 48164.99181568525, 34230.64610131337, 44526.86542592829, 3125.109151018757, 8667.090078245412, 8272.06769848677, 0.0, 0.0, 6072.097250473172, -27465.309496558846, 18913.397957491634, 5899.45237630038, -5938.590280841623, -30654.054064041862, 0.061765625, -0.0053330078125, 1.030890625, 192.0, 0.0, 0.0, 0.0, 0.0, 0.0, 0.0, 0.0, 0.0, 0.0, 1.74769176421757E9, 0.0, 2025-05-19 23:56:04.217
188.0, 21613.84631560401, 18511.893571840952, 48162.42136507289, 34237.485735116694, 44530.95579516361, 3159.463782246564, 8651.309746659965, 8250.185340665024, 0.0, 0.0, 6092.169116994038, -27437.839202623276, 18942.187004350068, 5929.895452248508, -5916.350295108592, -30618.335976402283, 0.061765625, -0.0053330078125, 1.030890625, 192.0, 0.0, 0.0, 0.0, 0.0, 0.0, 0.0, 0.0, 0.0, 0.0, 1.747691764226487E9, 0.0, 2025-05-19 23:56:04.226
190.0, 21606.89492307841, 18500.47183042429, 48153.503019035226, 34211.04362142606, 44512.02386760996, 3135.3462499792877, 8658.149380463288, 8260.578901836741, 0.0, 0.0, 6073.125430718116, -27460.995609878973, 18924.50677448592, 5891.562210507657, -5956.449324661413, -30653.65173264167, 0.061765625, -0.0053330078125, 1.030890625, 192.0, 0.0, 0.0, 0.0, 0.0, 0.0, 0.0, 0.0, 0.0, 0.0, 1.747691764233615E9, 0.0, 2025-05-19 23:56:04.233
192.0, 21616.394414471917, 18511.80416486313, 48152.69835623483, 34226.578083822504, 44537.39309756674, 3135.949747079581, 8715.191032313232, 8265.183361194535, 0.0, 0.0, 6079.875657543619, -27449.842089395774, 18923.3668355187, 5904.190946124905, -5929.604879570589, -30640.598313879767, 0.061765625, -0.0053330078125, 1.030890625, 192.0, 0.0, 0.0, 0.0, 0.0, 0.0, 0.0, 0.0, 0.0, 0.0, 1.747691764241604E9, 0.0, 2025-05-19 23:56:04.241
194.0, 21609.577132413047, 18498.6166356345, 48146.52927476517, 34208.69668825826, 44526.28428057245, 3154.747564166494, 8633.674220284727, 8245.804398751783, 0.0, 0.0, 6073.39365165158, -27457.173461577117, 18928.395978021144, 5902.223992612839, -5950.213187958382, -30641.82765982481, 0.061765625, -0.0053330078125, 1.030890625, 192.0, 0.0, 0.0, 0.0, 0.0, 0.0, 0.0, 0.0, 0.0, 0.0, 1.747691764249615E9, 0.0, 2025-05-19 23:56:04.249
196.0, 21602.17870499834, 18493.654548365423, 48139.086143861554, 34203.824007967, 44533.63800449824, 3127.7690086089383, 8673.885008559824, 8252.576977321742, 0.0, 0.0, 6059.647328811566, -27472.86438618474, 18902.244437008434, 5875.513657988747, -5978.108165038606, -30671.26490727245, 0.064, -0.006, 1.032, 192.0, 1.0, 0.0, 127.5, 104.0, 16.0, 32.0, 0.0, 0.0, 0.0, 1.747691764258607E9, 0.0, 2025-05-19 23:56:04.258
198.0, 21601.46344917577, 18491.486429153258, 48147.557455010116, 34214.21756913872, 44542.466943558094, 3124.8632818297488, 8665.27958694453, 8237.757770747874, 0.0, 0.0, 6067.313977159736, -27466.762359948443, 18915.588428448253, 5905.688513003411, -5949.587339113634, -30642.945247047574, 0.064, -0.006, 1.032, 192.0, 0.0, 0.0, 0.0, 0.0, 0.0, 0.0, 0.0, 0.0, 0.0, 1.747691764265715E9, 0.0, 2025-05-19 23:56:04.265
200.0, 21592.79097232711, 18479.483542380756, 48142.32714680757, 34191.01645839411, 44527.80419919541, 3112.3239531903214, 8652.606147838373, 8241.110532416169, 0.0, 0.0, 6059.200293922459, -27483.973203179026, 18905.396032976634, 5887.360082550059, -5970.173295756972, -30666.6380961702, 0.064, -0.006, 1.032, 192.0, 0.0, 0.0, 0.0, 0.0, 0.0, 0.0, 0.0, 0.0, 0.0, 1.747691764273717E9, 0.0, 2025-05-19 23:56:04.273
202.0, 21608.057213790085, 18497.09671701154, 48159.73915573826, 34223.76176402113, 44559.20840015512, 3116.011991025447, 8715.503956735607, 8265.406878639089, 0.0, 0.0, 6070.197352194471, -27472.082075128805, 18908.279408011367, 5905.777919981232, -5943.12768496605, -30648.7343488615, 0.064, -0.006, 1.032, 192.0, 0.0, 0.0, 0.0, 0.0, 0.0, 0.0, 0.0, 0.0, 0.0, 1.747691764281717E9, 0.0, 2025-05-19 23:56:04.281
204.0, 21585.236082701216, 18474.163827200395, 48140.404896784414, 34197.67727824179, 44530.75462946351, 3128.4172091981422, 8650.66154607076, 8229.4429218105, 0.0, 0.0, 6070.443221383479, -27472.95379316256, 18919.142355816646, 5910.807062483676, -5942.971222754863, -30641.782956335897, 0.064, -0.006, 1.032, 192.0, 0.0, 0.0, 0.0, 0.0, 0.0, 0.0, 0.0, 0.0, 0.0, 1.747691764289733E9, 0.0, 2025-05-19 23:56:04.289
206.0, 21597.306024707083, 18487.70898434031, 48149.54676026664, 34206.796789979555, 44529.63704224075, 3111.184014223101, 8675.583741138427, 8254.096895944702, 0.0, 0.0, 6053.165322919527, -27486.856578213763, 18891.716765369983, 5879.335806290604, -5967.401679444513, -30672.87423287323, 0.062, 0.0, 1.032, 192.0, 0.5, 120.0, 0.0, 0.0, 16.0, 32.0, 0.0, 0.0, 0.0, 1.747691764297726E9, 0.0, 2025-05-19 23:56:04.297
208.0, 21609.04069054612, 18501.455307180324, 48165.19298138535, 34234.93763624879, 44535.336737076854, 3141.113000048757, 8689.19595351171, 8256.935567490527, 0.0, 0.0, 6083.675454101021, -27456.32409528781, 18926.071396597792, 5925.648620802, -5922.519376578257, -30627.16491546213, 0.062, 0.0, 1.032, 192.0, 0.0, 0.0, 0.0, 0.0, 0.0, 0.0, 0.0, 0.0, 0.0, 1.747691764305789E9, 0.0, 2025-05-19 23:56:04.305
210.0, 21588.90176879189, 18478.723583069277, 48150.77610621168, 34209.97073769221, 44513.007344366, 3131.725267377528, 8651.42150538224, 8250.900596487594, 0.0, 0.0, 6068.655081827054, -27464.81775818083, 18916.97423660448, 5906.716693248355, -5948.805028057698, -30644.085186014796, 0.062, 0.0, 1.032, 192.0, 0.0, 0.0, 0.0, 0.0, 0.0, 0.0, 0.0, 0.0, 0.0, 1.747691764314751E9, 0.0, 2025-05-19 23:56:04.314
212.0, 21609.55478066859, 18501.544714158146, 48158.733327237765, 34234.44589787077, 44526.35133580582, 3168.113907350768, 8689.687691889727, 8264.49045711642, 0.0, 0.0, 6073.170134207026, -27457.44168251058, 18916.4154429931, 5912.371684595548, -5939.998440742307, -30637.40201442266, 0.062, 0.0, 1.032, 192.0, 0.0, 0.0, 0.0, 0.0, 0.0, 0.0, 0.0, 0.0, 0.0, 1.747691764321797E9, 0.0, 2025-05-19 23:56:04.321
214.0, 21601.03876603112, 18493.7663070877, 48153.346556824035, 34217.86090348493, 44504.021943094966, 3154.3228810218434, 8636.71405753065, 8247.704297030485, 0.0, 0.0, 6079.093346487683, -27456.659371454643, 18933.4698240125, 5923.256984145282, -5938.634984330533, -30628.573075362812, 0.062, 0.0, 1.032, 192.0, 0.0, 0.0, 0.0, 0.0, 0.0, 0.0, 0.0, 0.0, 0.0, 1.74769176432982E9, 0.0, 2025-05-19 23:56:04.329
216.0, 21603.22923698774, 18494.906246054918, 48151.78193471217, 34216.8774267289, 44522.5068357595, 3121.175243994623, 8672.342738192408, 8258.030802968837, 0.0, 0.0, 6064.743526547376, -27465.510662258945, 18909.93343710106, 5896.703111732378, -5958.550388640212, -30655.73044487601, 0.056, -0.002, 1.032, 192.0, 0.5, 96.0, 127.5, 120.0, 16.0, 32.0, 0.0, 0.0, 0.0, 1.747691764337835E9, 0.0, 2025-05-19 23:56:04.337
218.0, 21605.196190499806, 18498.303711212124, 48161.01320517221, 34229.12618269041, 44526.597204994825, 3165.7669741829604, 8713.067616589979, 8253.269881399856, 0.0, 0.0, 6077.998111009373, -27455.564135976332, 18923.79151866335, 5921.6476585445, -5930.7001150488995, -30630.45062189706, 0.056, -0.002, 1.032, 192.0, 0.0, 0.0, 0.0, 0.0, 0.0, 0.0, 0.0, 0.0, 0.0, 1.747691764345877E9, 0.0, 2025-05-19 23:56:04.345
220.0, 21596.523713651146, 18488.312481440604, 48154.19592311334, 34206.14858939035, 44521.568062492384, 3109.820557811327, 8669.81699106896, 8258.388430880123, 0.0, 0.0, 6068.208046937949, -27471.56798500633, 18915.901352870627, 5902.000475168285, -5958.41627817348, -30653.674084386123, 0.056, -0.002, 1.032, 192.0, 0.0, 0.0, 0.0, 0.0, 0.0, 0.0, 0.0, 0.0, 0.0, 1.747691764353909E9, 0.0, 2025-05-19 23:56:04.353
222.0, 21609.04069054612, 18497.253179222727, 48160.566170283106, 34225.9298832333, 44539.91884469019, 3113.128615990712, 8692.124032035355, 8268.759640307384, 0.0, 0.0, 6072.879561529107, -27464.326019802815, 18913.0626813248, 5911.522318306246, -5943.50766462179, -30645.940380804586, 0.056, -0.002, 1.032, 192.0, 0.0, 0.0, 0.0, 0.0, 0.0, 0.0, 0.0, 0.0, 0.0, 1.747691764361948E9, 0.0, 2025-05-19 23:56:04.361
224.0, 21597.373079940447, 18481.89753078193, 48149.56911201109, 34210.574234792504, 44528.698268973625, 3135.6368226572067, 8643.531339589517, 8253.2475296554, 0.0, 0.0, 6069.571503349723, -27465.555365747856, 18921.399882006634, 5920.083036432628, -5942.300670421204, -30637.178496978107, 0.056, -0.002, 1.032, 192.0, 0.0, 0.0, 0.0, 0.0, 0.0, 0.0, 0.0, 0.0, 0.0, 1.747691764369961E9, 0.0, 2025-05-19 23:56:04.369
226.0, 21594.735574094724, 18481.00346100372, 48149.926739922375, 34208.94255744726, 44528.65356548471, 3114.201499724567, 8683.138630764322, 8269.944282763516, 0.0, 0.0, 6053.5005990863565, -27481.00042116647, 18893.21433224849, 5890.243457584794, -5971.045013790729, -30665.7887298809, 0.056, -0.004, 1.038, 192.0, 0.5, 96.0, 127.5, 112.0, 16.0, 56.0, 0.0, 0.0, 0.0, 1.747691764376999E9, 0.0, 2025-05-19 23:56:04.376
228.0, 21602.98336779873, 18490.90528379742, 48156.40874581441, 34222.15243842035, 44535.04616439893, 3129.914776076648, 8661.949177020691, 8258.969576235959, 0.0, 0.0, 6072.365471406636, -27469.15399660516, 18915.40961449261, 5918.093731176106, -5944.312327422182, -30637.7819940784, 0.056, -0.004, 1.038, 192.0, 0.0, 0.0, 0.0, 0.0, 0.0, 0.0, 0.0, 0.0, 0.0, 1.747691764386047E9, 0.0, 2025-05-19 23:56:04.386
230.0, 21595.741402595213, 18483.75272557172, 48155.60408301403, 34206.68503125728, 44524.630251482755, 3119.4094561826537, 8635.574118563429, 8253.560454077775, 0.0, 0.0, 6071.449049883968, -27472.685572229097, 18915.856649381716, 5900.771129223243, -5962.797220086721, -30654.50109893097, 0.056, -0.004, 1.038, 192.0, 0.0, 0.0, 0.0, 0.0, 0.0, 0.0, 0.0, 0.0, 0.0, 1.747691764394071E9, 0.0, 2025-05-19 23:56:04.394
232.0, 21604.816210844067, 18493.90041755443, 48164.254208118226, 34225.37108962191, 44530.307594574406, 3123.9692120515365, 8702.495241462617, 8265.764506550373, 0.0, 0.0, 6070.890256272585, -27465.24244132548, 18910.15695454561, 5905.532050792223, -5947.50862687929, -30650.54484016238, 0.056, -0.004, 1.038, 192.0, 0.0, 0.0, 0.0, 0.0, 0.0, 0.0, 0.0, 0.0, 0.0, 1.747691764402134E9, 0.0, 2025-05-19 23:56:04.402
234.0, 21592.634510115924, 18478.097734224528, 48145.56814975359, 34205.76860973461, 44520.96456539209, 3123.8351015848043, 8655.444819384196, 8245.692640029507, 0.0, 0.0, 6073.997148751873, -27464.169557591627, 18925.669065197595, 5916.752626508788, -5938.769094797265, -30639.413671423637, 0.056, -0.004, 1.038, 192.0, 0.0, 0.0, 0.0, 0.0, 0.0, 0.0, 0.0, 0.0, 0.0, 1.747691764410181E9, 0.0, 2025-05-19 23:56:04.410
236.0, 21609.21950450176, 18492.067574509096, 48155.53702778066, 34216.20687439524, 44526.463094528095, 3125.153854507668, 8670.867523058358, 8266.882093773138, 0.0, 0.0, 6059.5802735782, -27475.367781563735, 18902.80323061982, 5885.661349971456, -5964.272435220771, -30668.336828748805, 0.056, -0.008, 1.036, 192.0, 0.5, 96.0, 127.5, 96.0, 16.0, 48.0, 0.0, 0.0, 0.0, 1.747691764418156E9, 0.0, 2025-05-19 23:56:04.418
238.0, 21612.9522458258, 18497.499048411733, 48160.02972841618, 34229.19323792377, 44540.790562723945, 3151.0595263313685, 8666.151304978288, 8263.886960016127, 0.0, 0.0, 6081.6190936111325, -27456.122929587716, 18925.825527408782, 5922.921707978453, -5927.816740014165, -30631.903485286653, 0.056, -0.008, 1.036, 192.0, 0.0, 0.0, 0.0, 0.0, 0.0, 0.0, 0.0, 0.0, 0.0, 1.747691764426175E9, 0.0, 2025-05-19 23:56:04.426
240.0, 21603.452754432292, 18486.256120950715, 48153.01128065721, 34206.08153415698, 44519.19877758012, 3116.2131567255446, 8639.485673843106, 8268.223198440457, 0.0, 0.0, 6067.4704393709235, -27472.707923973554, 18913.800288891827, 5901.955771679374, -5950.123780980562, -30654.322284975326, 0.056, -0.008, 1.036, 192.0, 0.0, 0.0, 0.0, 0.0, 0.0, 0.0, 0.0, 0.0, 0.0, 1.747691764433314E9, 0.0, 2025-05-19 23:56:04.433
242.0, 21615.679158649345, 18503.17639150338, 48160.342652838546, 34231.20489492475, 44525.61372823879, 3154.6805089331283, 8683.362148208875, 8271.508904875387, 0.0, 0.0, 6072.67839582901, -27464.43777852509, 18911.900390613126, 5909.085978160618, -5935.505740106791, -30646.81209883834, 0.056, -0.008, 1.036, 192.0, 0.0, 0.0, 0.0, 0.0, 0.0, 0.0, 0.0, 0.0, 0.0, 1.747691764442217E9, 0.0, 2025-05-19 23:56:04.442
244.0, 21600.36821369746, 18486.770211073188, 48147.9150829214, 34208.473170813704, 44526.105466616806, 3138.6319564142177, 8624.599412035872, 8245.849102240694, 0.0, 0.0, 6075.293549930281, -27463.409598280145, 18927.099576842735, 5920.775940510744, -5926.386228369025, -30635.25624695495, 0.056, -0.008, 1.036, 192.0, 0.0, 0.0, 0.0, 0.0, 0.0, 0.0, 0.0, 0.0, 0.0, 1.747691764450296E9, 0.0, 2025-05-19 23:56:04.450
246.0, 21609.688891135324, 18489.340661685546, 48158.33099583757, 34214.95517670574, 44532.878045186764, 3111.3181246898325, 8657.881159529825, 8265.630396083641, 0.0, 0.0, 6055.3781456206025, -27479.502854287966, 18896.83531485025, 5890.958713407364, -5941.898339021009, -30667.39805548168, 0.056, -0.01, 1.032, 192.0, 0.5, 96.0, 127.5, 88.0, 16.0, 32.0, 0.0, 0.0, 0.0, 1.747691764457273E9, 0.0, 2025-05-19 23:56:04.457
248.0, 21609.018338801663, 18492.76047858721, 48162.13079239497, 34225.50520008865, 44530.28524282995, 3133.938090078603, 8666.28541544502, 8255.370945378656, 0.0, 0.0, 6084.34600643468, -27459.833319167297, 18922.56217271831, 5928.777865025743, -5900.4135013119585, -30630.316511430326, 0.056, -0.01, 1.032, 192.0, 0.0, 0.0, 0.0, 0.0, 0.0, 0.0, 0.0, 0.0, 0.0, 1.747691764465326E9, 0.0, 2025-05-19 23:56:04.465
250.0, 21601.61991138696, 18479.975280758772, 48148.58563525506, 34196.15735961883, 44532.900396931225, 3111.273421200922, 8623.817100979937, 8245.692640029507, 0.0, 0.0, 6067.4704393709235, -27478.16174962065, 18910.134602801158, 5900.458204800869, -5934.611670328578, -30660.469014700535, 0.056, -0.01, 1.032, 192.0, 0.0, 0.0, 0.0, 0.0, 0.0, 0.0, 0.0, 0.0, 0.0, 1.747691764474467E9, 0.0, 2025-05-19 23:56:04.474
252.0, 21611.9017138364, 18491.12880124197, 48151.178437611874, 34212.943519704764, 44538.95771967861, 3136.0168023129468, 8670.152267235788, 8247.614890052664, 0.0, 0.0, 6067.112811459639, -27477.3347350758, 18902.490306197444, 5902.492213546302, -5930.253080159793, -30658.904392588665, 0.056, -0.01, 1.032, 192.0, 0.0, 0.0, 0.0, 0.0, 0.0, 0.0, 0.0, 0.0, 0.0, 1.747691764482372E9, 0.0, 2025-05-19 23:56:04.482
254.0, 21601.217579986762, 18480.019984247683, 48144.49526601974, 34201.119446887904, 44526.15017010572, 3128.037229542402, 8608.886135683792, 8223.922040930038, 0.0, 0.0, 6070.845552783675, -27476.999458908973, 18917.60008544923, 5907.230783370827, -5936.042181973718, -30650.656598884656, 0.056, -0.01, 1.032, 192.0, 0.0, 0.0, 0.0, 0.0, 0.0, 0.0, 0.0, 0.0, 0.0, 1.747691764489379E9, 0.0, 2025-05-19 23:56:04.489
0.0, 21613.84631560401, 18489.98886227475, 48152.72070797929, 34208.09319115796, 44535.113219632294, 3129.914776076648, 8638.613955809351, 8251.906424988083, 0.0, 0.0, 6056.719250287921, -27487.01304042495, 18895.561265416298, 5883.78380343721, -5960.651452619011, -30672.69541891759, 0.062, -0.004, 1.028, 192.0, 0.5, 120.0, 127.5, 112.0, 16.0, 16.0, 0.0, 0.0, 0.0, 1.747691764497423E9, 0.0, 2025-05-19 23:56:04.497
2.0, 21618.80840287309, 18494.12393499898, 48151.893693434446, 34213.16703714932, 44535.71671673259, 3164.0235381154466, 8644.00072622308, 8259.148390191602, 0.0, 0.0, 6082.759032578353, -27468.505796015954, 18918.65061743863, 5919.121911421051, -5929.31430689267, -30636.642055111177, 0.062, -0.004, 1.028, 192.0, 0.0, 0.0, 0.0, 0.0, 0.0, 0.0, 0.0, 0.0, 0.0, 1.747691764506436E9, 0.0, 2025-05-19 23:56:04.506
4.0, 21612.52756268115, 18492.022871020185, 48155.96171092531, 34203.55578703353, 44526.105466616806, 3145.9633285955583, 8642.1902349222, 8253.716916288962, 0.0, 0.0, 6071.6949190729765, -27477.625307753722, 18913.822640636285, 5898.915934433453, -5956.516379894779, -30659.239668755494, 0.062, -0.004, 1.028, 192.0, 0.0, 0.0, 0.0, 0.0, 0.0, 0.0, 0.0, 0.0, 0.0, 1.747691764513471E9, 0.0, 2025-05-19 23:56:04.513
6.0, 21633.85112689151, 18517.772080632698, 48174.759528012226, 34239.07270897302, 44549.105411661316, 3177.211067344078, 8676.05312777199, 8277.499172389409, 0.0, 0.0, 6081.954369777963, -27462.470825013024, 18918.40474824962, 5920.21714689936, -5927.682629547433, -30640.173630735117, 0.062, -0.004, 1.028, 192.0, 0.0, 0.0, 0.0, 0.0, 0.0, 0.0, 0.0, 0.0, 0.0, 1.747691764523487E9, 0.0, 2025-05-19 23:56:04.523
8.0, 21608.638359145923, 18500.3153682131, 48161.41553657241, 34224.968758221716, 44529.324117818374, 3186.10706163729, 8627.348676603875, 8248.419552853054, 0.0, 0.0, 6094.5384019063, -27448.52333647291, 18940.108292115725, 5937.6291558300445, -5916.663219530967, -30619.654729325146, 0.062, -0.004, 1.028, 192.0, 0.0, 0.0, 0.0, 0.0, 0.0, 0.0, 0.0, 0.0, 0.0, 1.747691764530499E9, 0.0, 2025-05-19 23:56:04.530
10.0, 21616.930856338844, 18509.457231695324, 48167.94224595335, 34230.37788037991, 44520.09284735833, 3176.4064045436867, 8661.412735153763, 8273.989948509927, 0.0, 0.0, 6074.622997596622, -27460.72738894551, 18913.867344125192, 5910.002399683285, -5941.585414598634, -30646.67798837161, 0.058, -0.004, 1.028, 192.0, 0.5, 104.0, 127.5, 112.0, 16.0, 16.0, 0.0, 0.0, 0.0, 1.747691764538534E9, 0.0, 2025-05-19 23:56:04.538
12.0, 21622.719958152768, 18523.292961513158, 48172.16672565541, 34244.66064508684, 44526.68661197265, 3208.503509581508, 8661.435086898218, 8267.44088738452, 0.0, 0.0, 6094.314884461747, -27438.53210670139, 18939.013056637414, 5942.054801232195, -5914.495100318802, -30614.089144955775, 0.058, -0.004, 1.028, 192.0, 0.0, 0.0, 0.0, 0.0, 0.0, 0.0, 0.0, 0.0, 0.0, 1.747691764546576E9, 0.0, 2025-05-19 23:56:04.546
14.0, 21610.113574279974, 18512.921752085895, 48160.834391216566, 34219.78315350809, 44514.19198682213, 3202.6026490453064, 8636.311726130454, 8277.11919273367, 0.0, 0.0, 6082.468459900434, -27449.015074850926, 18931.18994607806, 5919.971277710352, -5942.770057054765, -30635.904447544155, 0.058, -0.004, 1.028, 192.0, 0.0, 0.0, 0.0, 0.0, 0.0, 0.0, 0.0, 0.0, 0.0, 1.747691764554778E9, 0.0, 2025-05-19 23:56:04.554
16.0, 21623.390510486428, 18528.165641804415, 48166.556437797124, 34241.15142120736, 44525.90430091671, 3194.533669296941, 8679.361185951375, 8285.724614348963, 0.0, 0.0, 6079.96506452144, -27446.66814168312, 18922.919800629592, 5924.754551023788, -5936.086885462629, -30629.713014330035, 0.058, -0.004, 1.028, 192.0, 0.0, 0.0, 0.0, 0.0, 0.0, 0.0, 0.0, 0.0, 0.0, 1.747691764561629E9, 0.0, 2025-05-19 23:56:04.561
18.0, 21614.628626659945, 18515.268685253704, 48161.035556916664, 34227.270987900614, 44516.53891998994, 3193.0137506739798, 8631.774322006026, 8272.268864186868, 0.0, 0.0, 6082.647273856077, -27445.751720160453, 18938.007228136925, 5930.387190626525, -5936.645679074011, -30623.8792090272, 0.058, -0.004, 1.028, 192.0, 0.0, 0.0, 0.0, 0.0, 0.0, 0.0, 0.0, 0.0, 0.0, 1.747691764569668E9, 0.0, 2025-05-19 23:56:04.569
20.0, 21621.93764709683, 18525.461080725323, 48159.62739701598, 34224.81229601053, 44517.70121070161, 3179.178020856145, 8664.05024099949, 8292.83246908575, 0.0, 0.0, 6073.483058629401, -27454.357141775745, 18916.79542264884, 5903.78861472471, -5957.678670606455, -30650.008398295453, 0.056, -0.006, 1.032, 192.0, 0.5, 96.0, 127.5, 104.0, 16.0, 32.0, 0.0, 0.0, 0.0, 1.747691764579718E9, 0.0, 2025-05-19 23:56:04.579
22.0, 21621.55766744109, 18525.170508047406, 48160.72263249429, 34236.01051998264, 44523.64677472672, 3202.043855433924, 8666.486581145118, 8280.963692779982, 0.0, 0.0, 6084.569523879233, -27442.309551514336, 18933.4698240125, 5926.341524880115, -5938.657336074989, -30625.24266543897, 0.056, -0.006, 1.032, 192.0, 0.0, 0.0, 0.0, 0.0, 0.0, 0.0, 0.0, 0.0, 0.0, 1.747691764585715E9, 0.0, 2025-05-19 23:56:04.585
24.0, 21613.33222548154, 18517.839135866063, 48152.43013530137, 34216.028060439596, 44511.24155655403, 3197.39469258722, 8641.430275610719, 8276.448640400009, 0.0, 0.0, 6070.443221383479, -27455.16180457614, 18922.405710507122, 5904.615629269556, -5962.640757875533, -30647.39324419418, 0.056, -0.006, 1.032, 192.0, 0.0, 0.0, 0.0, 0.0, 0.0, 0.0, 0.0, 0.0, 0.0, 1.747691764594828E9, 0.0, 2025-05-19 23:56:04.594
26.0, 21627.212658788285, 18529.216173793815, 48163.29308310665, 34238.759784550646, 44528.00536489551, 3204.7931200019266, 8675.76255509407, 8284.428213170555, 0.0, 0.0, 6077.72989007591, -27443.114214314726, 18922.383358762665, 5909.778882238732, -5954.1247432380615, -30640.710072602044, 0.056, -0.006, 1.032, 192.0, 0.0, 0.0, 0.0, 0.0, 0.0, 0.0, 0.0, 0.0, 0.0, 1.74769176460177E9, 0.0, 2025-05-19 23:56:04.601
28.0, 21615.701510393803, 18514.75459513123, 48152.9665771683, 34221.057202942044, 44517.25417581251, 3204.614306046284, 8627.795711492981, 8272.11240197568, 0.0, 0.0, 6077.640483098088, -27447.91983937262, 18935.32501880229, 5917.26671663126, -5954.370612427069, -30633.713976587533, 0.056, -0.006, 1.032, 192.0, 0.0, 0.0, 0.0, 0.0, 0.0, 0.0, 0.0, 0.0, 0.0, 1.74769176460982E9, 0.0, 2025-05-19 23:56:04.609
30.0, 21638.790862416132, 18537.128691330992, 48172.30083612214, 34233.708290303744, 44519.84697816932, 3241.718201842094, 8642.123179688833, 8281.298968946812, 0.0, 0.0, 6073.795983051776, -27450.3785312627, 18919.388225005656, 5893.149184363983, -5972.050842291217, -30656.78097686541, 0.06, -0.006, 1.032, 192.0, 0.5, 112.0, 127.5, 104.0, 16.0, 32.0, 0.0, 0.0, 0.0, 1.747691764619873E9, 0.0, 2025-05-19 23:56:04.619
32.0, 21637.315647282085, 18545.91292690193, 48183.566115327616, 34254.85304055847, 44530.7099259746, 3209.2187654040777, 8656.718868818149, 8277.968559022971, 0.0, 0.0, 6107.6812276460205, -27422.48355418248, 18954.74868473395, 5932.93528949443, -5933.918766250464, -30616.659595568133, 0.06, -0.006, 1.032, 192.0, 0.0, 0.0, 0.0, 0.0, 0.0, 0.0, 0.0, 0.0, 0.0, 1.747691764626993E9, 0.0, 2025-05-19 23:56:04.626
34.0, 21624.731615153745, 18531.451348239345, 48171.13854541046, 34230.60139782446, 44513.90141414421, 3193.192564629622, 8632.511929573051, 8275.375756666155, 0.0, 0.0, 6091.610323382655, -27433.927647343597, 18943.528109017385, 5913.757492751777, -5957.946891539918, -30635.30095044386, 0.06, -0.006, 1.032, 192.0, 0.0, 0.0, 0.0, 0.0, 0.0, 0.0, 0.0, 0.0, 0.0, 1.747691764634009E9, 0.0, 2025-05-19 23:56:04.634
36.0, 21641.495423495224, 18544.817691423617, 48178.13464142497, 34250.1815259673, 44534.286205087454, 3195.5394977974297, 8675.874313816346, 8292.161916752091, 0.0, 0.0, 6096.930038563018, -27429.881981597184, 18940.64473398265, 5923.100521934095, -5943.708830321888, -30630.607084108247, 0.06, -0.006, 1.032, 192.0, 0.0, 0.0, 0.0, 0.0, 0.0, 0.0, 0.0, 0.0, 0.0, 1.747691764641957E9, 0.0, 2025-05-19 23:56:04.641
38.0, 21630.297199523116, 18529.976133105294, 48170.28917912116, 34237.910418261345, 44522.32802180386, 3215.7007712961163, 8633.808330751459, 8269.407840896589, 0.0, 0.0, 6091.923247805029, -27436.38633923368, 18947.104388130236, 5930.543652837712, -5947.46392339038, -30621.375813648203, 0.06, -0.006, 1.032, 192.0, 0.0, 0.0, 0.0, 0.0, 0.0, 0.0, 0.0, 0.0, 0.0, 1.747691764651016E9, 0.0, 2025-05-19 23:56:04.651
40.0, 21651.15137709992, 18552.797264194163, 48179.09576643655, 34246.426432898814, 44530.82168469688, 3224.842634778337, 8660.965700264656, 8289.63616962864, 0.0, 0.0, 6086.894105302586, -27437.503926456444, 18931.815794922804, 5916.88673697552, -5955.756420583299, -30636.48559289999, 0.058, -0.004, 1.034, 192.0, 0.5, 104.0, 127.5, 112.0, 16.0, 40.0, 0.0, 0.0, 0.0, 1.747691764658013E9, 0.0, 2025-05-19 23:56:04.658
42.0, 21652.93951665634, 18555.747694462265, 48181.88973449347, 34259.94923829428, 44536.40962081071, 3229.715315069594, 8653.634328083317, 8275.666329344074, 0.0, 0.0, 6102.920306077041, -27419.019033791905, 18954.23459461148, 5949.743801324821, -5926.565042324668, -30603.20384540604, 0.058, -0.004, 1.034, 192.0, 0.0, 0.0, 0.0, 0.0, 0.0, 0.0, 0.0, 0.0, 0.0, 1.747691764666072E9, 0.0, 2025-05-19 23:56:04.666
44.0, 21636.198060059316, 18534.826461652097, 48164.99181568525, 34226.86865650042, 44518.14824559072, 3184.3859773142312, 8617.983295677102, 8270.078393230247, 0.0, 0.0, 6090.11275650415, -27437.48157471199, 18940.912954916115, 5924.1287021790395, -5954.281205449249, -30628.438964896082, 0.058, -0.004, 1.034, 192.0, 0.0, 0.0, 0.0, 0.0, 0.0, 0.0, 0.0, 0.0, 0.0, 1.747691764674206E9, 0.0, 2025-05-19 23:56:04.674
46.0, 21634.208754802796, 18533.731226173786, 48157.45927780381, 34231.71898504722, 44528.11712361778, 3181.882581935237, 8661.792714809504, 8275.800439810806, 0.0, 0.0, 6080.076823243717, -27447.09282482777, 18922.338655273754, 5918.764283509766, -5955.398792672014, -30634.853915554755, 0.058, -0.004, 1.034, 192.0, 0.0, 0.0, 0.0, 0.0, 0.0, 0.0, 0.0, 0.0, 0.0, 1.747691764682137E9, 0.0, 2025-05-19 23:56:04.682
48.0, 21621.870591863466, 18518.86731611101, 48150.8655131895, 34215.78219125059, 44515.15311183371, 3191.650294262206, 8625.046446924978, 8263.261111171378, 0.0, 0.0, 6073.036023740295, -27458.693380200075, 18925.110271586214, 5918.764283509766, -5961.947853797419, -30636.038558010885, 0.058, -0.004, 1.034, 192.0, 0.0, 0.0, 0.0, 0.0, 0.0, 0.0, 0.0, 0.0, 0.0, 1.747691764689176E9, 0.0, 2025-05-19 23:56:04.689
