%OpenBCI Raw EXG Data
%Number of channels = 16
%Sample Rate = 125 Hz
%Board = OpenBCI_GUI$BoardCytonSerialDaisy
Sample Index, EXG Channel 0, EXG Channel 1, EXG Channel 2, EXG Channel 3, EXG Channel 4, EXG Channel 5, EXG Channel 6, EXG Channel 7, EXG Channel 8, EXG Channel 9, EXG Channel 10, EXG Channel 11, EXG Channel 12, EXG Channel 13, EXG Channel 14, EXG Channel 15, Accel Channel 0, Accel Channel 1, Accel Channel 2, Not Used, Digital Channel 0 (D11), Digital Channel 1 (D12), Digital Channel 2 (D13), Digital Channel 3 (D17), Not Used, Digital Channel 4 (D18), Analog Channel 0, Analog Channel 1, Analog Channel 2, Timestamp, Marker Channel, Timestamp (Formatted)
0.0, 24276.117894186726, 20783.72487827836, 48151.08903063405, 31304.892159091494, 38295.13201655531, 4645.921843757849, 10221.340980689643, 2033.293489610373, 0.0, 0.0, 0.0, 0.0, 0.0, 0.0, 0.0, 0.0, 0.0, 0.0, 0.0, 192.0, 0.0, 0.0, 0.0, 0.0, 0.0, 0.0, 0.0, 0.0, 0.0, 1.747688542019326E9, 0.0, 2025-05-19 23:02:22.019
160.0, 24283.695135557075, 20794.051384216713, 48170.19977214334, 31331.602493715585, 38317.64022322181, 4691.429995468855, 10209.472204383876, 2026.16328312913, 0.0, 0.0, 15192.413651038845, -14453.599089813126, 8592.725824442605, 999.3688463412341, -26235.38240616112, -33347.059291250625, 0.0, 0.0, 0.0, 192.0, 0.0, 0.0, 0.0, 0.0, 0.0, 0.0, 0.0, 0.0, 0.0, 1.747688542019786E9, 0.0, 2025-05-19 23:02:22.019
0.0, 11896.179544470257, 10446.534806076861, 24257.588298033275, 15964.934642903167, 19206.94341742318, 2284.8176699659434, 4985.534249011785, 1064.0994982838033, 0.0, 0.0, 7594.966303702153, -7228.285935912841, 4293.725406375576, 490.46432858280286, -13125.83841393452, -16677.843532305185, 0.056, -0.008, 1.03, 192.0, 0.5, 96.0, 127.5, 96.0, 16.0, 24.0, 0.0, 0.0, 0.0, 1.747688542139877E9, 0.0, 2025-05-19 23:02:22.139
2.0, 23783.977184769774, 20887.14639987307, 48514.438988499525, 31931.8362393184, 38405.01319229761, 4592.344712298478, 9929.606012058975, 2121.225252297551, 0.0, 0.0, 15194.022976639626, -13930.836490492404, 9450.339907448282, 1823.5223678973161, -20218.605723214834, -32890.16728283969, 0.056, -0.008, 1.03, 192.0, 0.0, 0.0, 0.0, 0.0, 0.0, 0.0, 0.0, 0.0, 0.0, 1.747688542146899E9, 0.0, 2025-05-19 23:02:22.146
4.0, 23784.535978381155, 20891.594397019675, 48517.724694934455, 31911.920835008725, 38402.330982962965, 4562.818057873018, 9926.946154468795, 2118.900670874199, 0.0, 0.0, 15184.165857334836, -13940.313630141454, 9429.329267660292, 1789.2794953917858, -20250.836938719385, -32916.832913974875, 0.056, -0.008, 1.03, 192.0, 0.0, 0.0, 0.0, 0.0, 0.0, 0.0, 0.0, 0.0, 0.0, 1.747688542152928E9, 0.0, 2025-05-19 23:02:22.152
6.0, 23787.17348422688, 20893.293129598278, 48521.81506416977, 31941.201620245174, 38419.40771572682, 4577.570209213521, 9957.836265306029, 2119.615926696769, 0.0, 0.0, 15199.745023220185, -13928.578964302418, 9439.320497431814, 1820.2590132068412, -20217.264618547513, -32902.55014926793, 0.056, -0.008, 1.03, 192.0, 0.0, 0.0, 0.0, 0.0, 0.0, 0.0, 0.0, 0.0, 0.0, 1.747688542160939E9, 0.0, 2025-05-19 23:02:22.160
8.0, 23779.484484134256, 20880.55263525875, 48517.32236353426, 31917.240550189086, 38402.30863121851, 4572.384604499889, 9906.58371527001, 2112.41866498216, 0.0, 0.0, 15194.112383617448, -13931.551746314974, 9448.149436491662, 1813.3076206812407, -20232.843784432866, -32892.89419566324, 0.058, -0.002, 1.03, 192.0, 0.5, 104.0, 127.5, 120.0, 16.0, 24.0, 0.0, 0.0, 0.0, 1.747688542168935E9, 0.0, 2025-05-19 23:02:22.168
10.0, 23795.644795375443, 20893.293129598278, 48520.47395950246, 31925.30952993745, 38407.583642909965, 4593.90933441035, 9964.966471787271, 2122.9463366206096, 0.0, 0.0, 15190.804325438063, -13937.407903362264, 9423.562517590824, 1798.331951896185, -20238.163499613227, -32918.79986748694, 0.058, -0.002, 1.03, 192.0, 0.0, 0.0, 0.0, 0.0, 0.0, 0.0, 0.0, 0.0, 0.0, 1.747688542178068E9, 0.0, 2025-05-19 23:02:22.178
12.0, 23778.925690522872, 20879.56915850272, 48514.014305354875, 31930.361024184353, 38409.4164859553, 4740.089743148058, 9926.409712601866, 2110.0493800698973, 0.0, 0.0, 15195.520543518132, -13928.80248174697, 9450.764590592933, 1829.5349871557937, -20218.873944148298, -32887.261556060505, 0.058, -0.002, 1.03, 192.0, 0.0, 0.0, 0.0, 0.0, 0.0, 0.0, 0.0, 0.0, 0.0, 1.747688542185043E9, 0.0, 2025-05-19 23:02:22.185
14.0, 23780.020926001183, 20883.056030637745, 48518.976392623954, 31913.351346653864, 38400.40873293981, 4759.51340907972, 9939.463131363766, 2118.319525518361, 0.0, 0.0, 15184.05409861256, -13944.627516821327, 9426.557651347835, 1792.1852221709755, -20253.519148054023, -32917.23524537507, 0.058, -0.002, 1.03, 192.0, 0.0, 0.0, 0.0, 0.0, 0.0, 0.0, 0.0, 0.0, 0.0, 1.747688542193053E9, 0.0, 2025-05-19 23:02:22.193
16.0, 23795.75655409772, 20898.99282443438, 48525.681915960544, 31941.671006878736, 38416.14436103635, 4798.986589787793, 9963.044221764114, 2122.834577898333, 0.0, 0.0, 15207.322264590535, -13925.270906123033, 9446.204834724049, 1827.366867943629, -20213.95656036813, -32896.492826520545, 0.058, -0.002, 1.03, 192.0, 0.0, 0.0, 0.0, 0.0, 0.0, 0.0, 0.0, 0.0, 0.0, 1.747688542201122E9, 0.0, 2025-05-19 23:02:22.201
18.0, 23777.204606199815, 20885.157094616545, 48512.472034987455, 31914.156009454255, 38393.814968325496, 4803.255772978756, 9920.464148576755, 2120.308830774883, 0.0, 0.0, 15191.67604347182, -13940.693609797194, 9446.070724257317, 1811.5418328692715, -20239.25873509154, -32896.58223349837, 0.058, -0.006, 1.032, 192.0, 0.5, 104.0, 127.5, 104.0, 16.0, 32.0, 0.0, 0.0, 0.0, 1.747688542209146E9, 0.0, 2025-05-19 23:02:22.209
20.0, 23787.911091793907, 20887.928710929, 48523.6032037262, 31930.65159686227, 38410.511721433606, 4796.0585112641475, 9967.939253799826, 2133.4069530256934, 0.0, 0.0, 15183.24943581217, -13939.084284196411, 9422.132005945685, 1806.3115246667296, -20236.24124959007, -32912.87665520628, 0.058, -0.006, 1.032, 192.0, 0.0, 0.0, 0.0, 0.0, 0.0, 0.0, 0.0, 0.0, 0.0, 1.747688542217169E9, 0.0, 2025-05-19 23:02:22.217
22.0, 23788.089905749548, 20893.31548134273, 48519.15520657959, 31937.02184403203, 38406.98014580967, 4839.2420815518, 9932.77995977163, 2120.0629615858747, 0.0, 0.0, 15197.91218017485, -13927.349618357375, 9453.469151672025, 1838.74390587138, -20212.123717322793, -32879.39374201223, 0.058, -0.006, 1.032, 192.0, 0.0, 0.0, 0.0, 0.0, 0.0, 0.0, 0.0, 0.0, 0.0, 1.74768854222521E9, 0.0, 2025-05-19 23:02:22.225
24.0, 23797.298824465135, 20897.651719767062, 48523.84907291521, 31916.525294366515, 38404.767323108594, 4799.321865954622, 9932.265869649156, 2121.158197064185, 0.0, 0.0, 15190.29023531559, -13937.921993484735, 9433.643154340167, 1796.432053617484, -20251.172214886217, -32913.94953894014, 0.058, -0.006, 1.032, 192.0, 0.0, 0.0, 0.0, 0.0, 0.0, 0.0, 0.0, 0.0, 0.0, 1.747688542235259E9, 0.0, 2025-05-19 23:02:22.235
26.0, 23772.957774753308, 20867.99095487487, 48525.45839851599, 31940.8886958228, 38412.7692476236, 4811.950601571871, 9952.583605359032, 2118.4312842406375, 0.0, 0.0, 15199.76737496464, -13932.937554471202, 9437.82293055331, 1825.712838853936, -20218.4716127481, -32899.644422488745, 0.058, -0.006, 1.032, 192.0, 0.0, 0.0, 0.0, 0.0, 0.0, 0.0, 0.0, 0.0, 0.0, 1.747688542242248E9, 0.0, 2025-05-19 23:02:22.242
28.0, 23740.27952435965, 20824.159183998014, 48515.8024449113, 31911.94318675318, 38403.716791119194, 4802.920496811927, 9911.255229861168, 2111.3457812483052, 0.0, 0.0, 15193.508886517155, -13941.341810386397, 9444.215529467527, 1819.7449230843692, -20230.720368709608, -32892.22364332958, 0.062, -0.008, 1.034, 192.0, 0.5, 120.0, 127.5, 96.0, 16.0, 40.0, 0.0, 0.0, 0.0, 1.747688542249271E9, 0.0, 2025-05-19 23:02:22.249
30.0, 23726.443794541814, 20810.70343383592, 48513.723732676954, 31913.351346653864, 38408.70123013273, 4785.03910124768, 9954.639965848919, 2121.9405081201207, 0.0, 0.0, 15176.745078175674, -13957.23390069412, 9406.329322615782, 1796.074425706199, -20243.885546193786, -32925.81831524591, 0.062, -0.008, 1.034, 192.0, 0.0, 0.0, 0.0, 0.0, 0.0, 0.0, 0.0, 0.0, 0.0, 1.747688542257318E9, 0.0, 2025-05-19 23:02:22.257
32.0, 23692.804419136577, 20766.62579377005, 48503.57604069424, 31916.391183899785, 38405.57198590899, 4805.736816613295, 9921.000590443682, 2107.9706678355537, 0.0, 0.0, 15180.544874733076, -13954.23876693711, 9427.786997292877, 1823.4776644084054, -20226.317075051913, -32895.442294531145, 0.062, -0.008, 1.034, 192.0, 0.0, 0.0, 0.0, 0.0, 0.0, 0.0, 0.0, 0.0, 0.0, 1.7476885422653E9, 0.0, 2025-05-19 23:02:22.265
34.0, 23665.512939156644, 20731.622961953042, 48494.5459359343, 31884.40583758424, 38400.67695387328, 4767.537685339175, 9912.77514848413, 2112.7986446379, 0.0, 0.0, 15155.153293031848, -13981.373784705853, 9390.772508474887, 1778.2153818864087, -20269.34418312838, -32933.44026010517, 0.062, -0.008, 1.034, 192.0, 0.0, 0.0, 0.0, 0.0, 0.0, 0.0, 0.0, 0.0, 0.0, 1.747688542273357E9, 0.0, 2025-05-19 23:02:22.273
36.0, 23661.713142599245, 20720.44708972539, 48493.98714232292, 31906.087029705886, 38413.305689490524, 4782.3792436574995, 9943.218224432258, 2107.4565777130815, 0.0, 0.0, 15161.14356054587, -13975.115296258367, 9390.504287541424, 1803.6293153320928, -20238.00703740204, -32922.644367533256, 0.062, -0.008, 1.034, 192.0, 0.0, 0.0, 0.0, 0.0, 0.0, 0.0, 0.0, 0.0, 0.0, 1.747688542281339E9, 0.0, 2025-05-19 23:02:22.281
38.0, 23640.523688855614, 20697.84947608107, 48482.45364218398, 31874.21344211262, 38403.47092193019, 4772.767993541717, 9887.964712138739, 2087.8764495702326, 0.0, 0.0, 15145.85496733844, -13993.24256101162, 9387.24093285095, 1786.1502511680426, -20262.34808711387, -32925.773611756995, 0.064, -0.006, 1.03, 192.0, 1.0, 0.0, 127.5, 104.0, 16.0, 24.0, 0.0, 0.0, 0.0, 1.747688542289366E9, 0.0, 2025-05-19 23:02:22.289
40.0, 23643.094139467972, 20698.81060109265, 48486.00756955237, 31880.963668938122, 38407.47188418769, 4752.316147365111, 9939.261965663669, 2106.9424875906097, 0.0, 0.0, 15141.585784147477, -14000.752747148605, 9359.927101126565, 1769.0958701486434, -20268.651279050264, -32954.026216748505, 0.064, -0.006, 1.03, 192.0, 0.0, 0.0, 0.0, 0.0, 0.0, 0.0, 0.0, 0.0, 0.0, 1.74768854229638E9, 0.0, 2025-05-19 23:02:22.296
42.0, 23635.181621930795, 20687.031231764704, 48478.83265958222, 31886.64101202977, 38403.20270099672, 4771.985682485782, 9910.718787994241, 2096.459519441071, 0.0, 0.0, 15146.413760949823, -13994.538962190029, 9383.597598504735, 1799.0025042298441, -20248.15472938475, -32921.97381519959, 0.064, -0.006, 1.03, 192.0, 0.0, 0.0, 0.0, 0.0, 0.0, 0.0, 0.0, 0.0, 0.0, 1.74768854230549E9, 0.0, 2025-05-19 23:02:22.305
44.0, 23639.24963942166, 20692.66387136744, 48481.47016542795, 31866.88206993128, 38405.70609637572, 4750.03626943067, 9906.851936203473, 2105.4672724565594, 0.0, 0.0, 15135.193185233258, -14009.24641004162, 9360.687060438046, 1760.1998758554312, -20286.040936236495, -32951.634580091784, 0.064, -0.006, 1.03, 192.0, 0.0, 0.0, 0.0, 0.0, 0.0, 0.0, 0.0, 0.0, 0.0, 1.747688542313415E9, 0.0, 2025-05-19 23:02:22.313
46.0, 23654.515880884635, 20718.301322257677, 48488.55566842028, 31896.252262145554, 38418.98303258217, 4769.415231873421, 9937.853805762983, 2110.3176010033612, 0.0, 0.0, 15152.314621486024, -13994.203686023198, 9373.04757512183, 1791.2688006483081, -20249.071150907417, -32933.529667082985, 0.064, -0.006, 1.03, 192.0, 0.0, 0.0, 0.0, 0.0, 0.0, 0.0, 0.0, 0.0, 0.0, 1.747688542321473E9, 0.0, 2025-05-19 23:02:22.321
48.0, 23649.084406981994, 20711.2381710098, 48482.274828228336, 31873.699351990148, 38405.86255858691, 4775.3384441540775, 9888.612912727942, 2099.119377031252, 0.0, 0.0, 15145.229118493691, -14000.372767492863, 9383.105860126718, 1785.010312200822, -20264.53855807049, -32927.29353037996, 0.068, 0.0, 1.026, 192.0, 1.0, 16.0, 0.0, 0.0, 16.0, 8.0, 0.0, 0.0, 0.0, 1.747688542328551E9, 0.0, 2025-05-19 23:02:22.328
50.0, 23667.12226475743, 20732.986418364813, 48488.04157829781, 31884.562299795427, 38410.310555733515, 4754.46191483282, 9938.412599374366, 2108.4624062135704, 0.0, 0.0, 15144.558566160033, -13998.942255847724, 9362.765772672388, 1774.460288817917, -20264.695020281677, -32946.56073410043, 0.068, 0.0, 1.026, 192.0, 0.0, 0.0, 0.0, 0.0, 0.0, 0.0, 0.0, 0.0, 0.0, 1.747688542337548E9, 0.0, 2025-05-19 23:02:22.337
52.0, 23659.768540831632, 20721.274104270233, 48483.07949102873, 31891.8266167434, 38410.869349344895, 4775.673720320907, 9908.707130993263, 2096.772443863445, 0.0, 0.0, 15150.168854018315, -13989.755688876592, 9388.716147985, 1799.7401117968693, -20248.087674151382, -32920.27508262099, 0.068, 0.0, 1.026, 192.0, 0.0, 0.0, 0.0, 0.0, 0.0, 0.0, 0.0, 0.0, 0.0, 1.747688542345679E9, 0.0, 2025-05-19 23:02:22.345
54.0, 23671.123227014927, 20730.013636352258, 48487.12515677514, 31873.051151400945, 38405.57198590899, 4744.850664717039, 9903.074491390526, 2097.2641822414616, 0.0, 0.0, 15140.311734713523, -13999.501049459106, 9369.270130308883, 1762.2562363453194, -20284.07398272443, -32949.66762657972, 0.068, 0.0, 1.026, 192.0, 0.0, 0.0, 0.0, 0.0, 0.0, 0.0, 0.0, 0.0, 0.0, 1.747688542352661E9, 0.0, 2025-05-19 23:02:22.352
56.0, 23675.906500328365, 20736.4956422443, 48492.08724404422, 31900.722611036614, 38419.49712270464, 4758.574635812597, 9941.161863942369, 2096.7500921189894, 0.0, 0.0, 15155.823845365507, -13986.090002785922, 9380.848333936732, 1790.4417861034617, -20249.92051719672, -32935.60837931733, 0.068, 0.0, 1.026, 192.0, 0.0, 0.0, 0.0, 0.0, 0.0, 0.0, 0.0, 0.0, 0.0, 1.747688542361673E9, 0.0, 2025-05-19 23:02:22.361
58.0, 23667.6363548799, 20732.181755564423, 48487.61689515316, 31880.40487532674, 38409.75176212213, 4761.145086424957, 9896.257209331658, 2086.647103625191, 0.0, 0.0, 15149.699467384753, -13990.828572610448, 9390.459584052514, 1781.8140127437132, -20267.37722961631, -32930.534533325976, 0.056, -0.012, 1.026, 192.0, 0.5, 96.0, 127.5, 80.0, 16.0, 8.0, 0.0, 0.0, 0.0, 1.747688542369725E9, 0.0, 2025-05-19 23:02:22.369
60.0, 23691.105686557974, 20752.745360463305, 48500.379741237135, 31894.620584800316, 38417.26194825911, 4750.930339208882, 9940.781884286629, 2099.0076183089755, 0.0, 0.0, 15155.62267966541, -13988.928674331746, 9371.95233964352, 1766.9948061698444, -20270.886453495797, -32953.13214697029, 0.056, -0.012, 1.026, 192.0, 0.0, 0.0, 0.0, 0.0, 0.0, 0.0, 0.0, 0.0, 0.0, 1.747688542376749E9, 0.0, 2025-05-19 23:02:22.376
62.0, 23686.344764988993, 20747.090369116115, 48500.4467964705, 31906.958747739645, 38420.570006438495, 4772.700938308351, 9913.311590351057, 2094.3361037178165, 0.0, 0.0, 15173.839351396484, -13974.71296485817, 9408.251572638937, 1806.847966533657, -20238.945810669164, -32914.597739529345, 0.056, -0.012, 1.026, 192.0, 0.0, 0.0, 0.0, 0.0, 0.0, 0.0, 0.0, 0.0, 0.0, 1.747688542384782E9, 0.0, 2025-05-19 23:02:22.384
64.0, 23683.528445187625, 20745.816319682162, 48499.1503952921, 31886.08221841839, 38405.39317195334, 4748.94103395236, 9911.590506027998, 2101.645124154702, 0.0, 0.0, 15154.728609887197, -13988.280473742543, 9382.167086859596, 1771.688672505459, -20278.173122188226, -32941.19631543116, 0.056, -0.012, 1.026, 192.0, 0.0, 0.0, 0.0, 0.0, 0.0, 0.0, 0.0, 0.0, 0.0, 1.74768854239279E9, 0.0, 2025-05-19 23:02:22.392
66.0, 23694.68196567082, 20760.72493323385, 48504.51481396137, 31917.17349495572, 38423.028698328584, 4769.169362684413, 9932.288221393612, 2108.7306271470343, 0.0, 0.0, 15170.017203094627, -13973.371860190853, 9392.33713058676, 1803.8304810321906, -20244.042008404973, -32921.727946010586, 0.056, -0.012, 1.026, 192.0, 0.0, 0.0, 0.0, 0.0, 0.0, 0.0, 0.0, 0.0, 0.0, 1.747688542401849E9, 0.0, 2025-05-19 23:02:22.401
68.0, 23683.97548007673, 20750.979572651337, 48494.03184581183, 31892.564224310427, 38411.5175499341, 4765.906007993938, 9882.265017302636, 2102.740359633012, 0.0, 0.0, 15162.95405184675, -13978.892741071313, 9402.529526058379, 1798.5778210851934, -20258.414180089734, -32912.09434415035, 0.052000000000000005, -0.01, 1.026, 192.0, 0.5, 80.0, 127.5, 88.0, 16.0, 8.0, 0.0, 0.0, 0.0, 1.747688542408814E9, 0.0, 2025-05-19 23:02:22.408
70.0, 23699.241721539704, 20763.653011757495, 48500.871479615154, 31899.716782536125, 38419.877102360384, 4749.902158963938, 9929.337791125512, 2116.1961097951066, 0.0, 0.0, 15157.410819221834, -13985.084174285434, 9376.825019934777, 1781.7022540214366, -20265.745552271077, -32938.648216563255, 0.052000000000000005, -0.01, 1.026, 192.0, 0.0, 0.0, 0.0, 0.0, 0.0, 0.0, 0.0, 0.0, 0.0, 1.747688542416895E9, 0.0, 2025-05-19 23:02:22.416
72.0, 23691.686831913812, 20761.641354756517, 48501.162052293075, 31910.959709997143, 38418.64775641534, 4766.576560327597, 9911.366988583444, 2113.357438249283, 0.0, 0.0, 15171.29125252858, -13974.131819502332, 9407.983351705474, 1818.0014870168552, -20235.883621678786, -32902.59485275684, 0.052000000000000005, -0.01, 1.026, 192.0, 0.0, 0.0, 0.0, 0.0, 0.0, 0.0, 0.0, 0.0, 0.0, 1.747688542425988E9, 0.0, 2025-05-19 23:02:22.425
74.0, 23677.761695118155, 20742.62002022505, 48481.62662763913, 31872.380599067284, 38393.12206424738, 4703.142309563435, 9904.750872224675, 2108.641220169213, 0.0, 0.0, 15149.073618540004, -13994.784831379036, 9377.786144946354, 1773.8120882287133, -20278.217825677137, -32936.86007700683, 0.052000000000000005, -0.01, 1.026, 192.0, 0.0, 0.0, 0.0, 0.0, 0.0, 0.0, 0.0, 0.0, 0.0, 1.747688542432958E9, 0.0, 2025-05-19 23:02:22.432
76.0, 23689.094029556996, 20755.315811075667, 48482.05131078378, 31896.98986971258, 38407.874215587886, 4698.0908153165365, 9924.934497467817, 2110.4070079811822, 0.0, 0.0, 15150.682944140786, -13990.314482487975, 9376.780316445866, 1785.0550156897327, -20261.38696210229, -32938.20118167414, 0.052000000000000005, -0.01, 1.026, 192.0, 0.0, 0.0, 0.0, 0.0, 0.0, 0.0, 0.0, 0.0, 0.0, 1.747688542441037E9, 0.0, 2025-05-19 23:02:22.441
78.0, 23671.860834581952, 20739.133148090023, 48475.72576710293, 31874.459311301627, 38402.77801785207, 4676.610788894986, 9883.628473714409, 2099.767577620456, 0.0, 0.0, 15145.944374316261, -13996.01417732408, 9387.643264251145, 1779.9588179539226, -20273.903938997264, -32931.20508565963, 0.06, -0.006, 1.028, 192.0, 0.5, 112.0, 127.5, 104.0, 16.0, 16.0, 0.0, 0.0, 0.0, 1.747688542449165E9, 0.0, 2025-05-19 23:02:22.449
80.0, 23679.996869563685, 20750.130206362035, 48484.442947440504, 31888.183282397185, 38397.32419220498, 4648.358183903478, 9940.446608119799, 2110.451711470093, 0.0, 0.0, 15141.876356825394, -13998.137593047333, 9362.56460697229, 1761.1610008670093, -20282.263491423546, -32958.16128947274, 0.06, -0.006, 1.028, 192.0, 0.0, 0.0, 0.0, 0.0, 0.0, 0.0, 0.0, 0.0, 0.0, 1.747688542458038E9, 0.0, 2025-05-19 23:02:22.458
82.0, 23682.030878309117, 20751.158386606978, 48491.64020915511, 31904.902387249756, 38409.528244677575, 4671.894570814917, 9921.514680566153, 2111.993981837509, 0.0, 0.0, 15159.735400645186, -13976.903435814791, 9399.91437195711, 1807.8314432896905, -20241.449206048157, -32912.67548950619, 0.06, -0.006, 1.028, 192.0, 0.0, 0.0, 0.0, 0.0, 0.0, 0.0, 0.0, 0.0, 0.0, 1.747688542465145E9, 0.0, 2025-05-19 23:02:22.465
84.0, 23676.755866617666, 20743.044703369702, 48488.46626144246, 31875.442788057662, 38399.961698050705, 4615.232898620713, 9910.204697871768, 2109.244717269506, 0.0, 0.0, 15147.777217361596, -13992.639063911327, 9377.71908971299, 1771.0181201717999, -20275.64737506478, -32942.64917882075, 0.06, -0.006, 1.028, 192.0, 0.0, 0.0, 0.0, 0.0, 0.0, 0.0, 0.0, 0.0, 0.0, 1.747688542473159E9, 0.0, 2025-05-19 23:02:22.473
86.0, 23688.199959778784, 20754.73466571983, 48491.84137485521, 31900.74496278107, 38416.21141626971, 4619.502081811676, 9938.569061585553, 2111.8822231152326, 0.0, 0.0, 15158.19313027777, -13985.397098707808, 9382.502363026424, 1794.5321553387828, -20245.360761327836, -32932.210914160125, 0.06, -0.006, 1.028, 192.0, 0.0, 0.0, 0.0, 0.0, 0.0, 0.0, 0.0, 0.0, 0.0, 1.747688542481192E9, 0.0, 2025-05-19 23:02:22.481
88.0, 23675.370058461438, 20737.38971202251, 48490.00853180987, 31885.59048004037, 38402.97918355217, 4614.450587564777, 9903.119194879437, 2111.032856825931, 0.0, 0.0, 15150.526481929599, -13994.96364533468, 9391.19719161954, 1788.9218674805009, -20261.029334191007, -32924.76778325651, 0.058, 0.002, 1.034, 192.0, 0.5, 104.0, 0.0, 8.0, 16.0, 40.0, 0.0, 0.0, 0.0, 1.747688542489164E9, 0.0, 2025-05-19 23:02:22.489
90.0, 23676.867625339943, 20746.71038946037, 48487.371025964145, 31887.31156436343, 38406.22018649819, 4591.763566942641, 9941.854768020483, 2114.027990582942, 0.0, 0.0, 15150.817054607518, -13990.29213074352, 9370.320662298282, 1776.8966289635455, -20264.71737202613, -32945.08551896638, 0.058, 0.002, 1.034, 192.0, 0.0, 0.0, 0.0, 0.0, 0.0, 0.0, 0.0, 0.0, 0.0, 1.74768854249823E9, 0.0, 2025-05-19 23:02:22.498
92.0, 23673.24664273818, 20740.898935901994, 48481.73838636141, 31894.821750500414, 38406.4660556872, 4609.622610762431, 9913.110424650959, 2103.992057322509, 0.0, 0.0, 15153.901595342351, -13985.441802196718, 9391.91244744211, 1797.9743239849001, -20251.708656753144, -32921.437373332665, 0.058, 0.002, 1.034, 192.0, 0.0, 0.0, 0.0, 0.0, 0.0, 0.0, 0.0, 0.0, 0.0, 1.747688542505281E9, 0.0, 2025-05-19 23:02:22.505
94.0, 23676.95703231776, 20741.278915557734, 48476.35161594768, 31867.93260192068, 38396.02779102657, 4571.423479488311, 9897.53125876561, 2100.03579855392, 0.0, 0.0, 15137.450711423244, -14002.630293682849, 9369.717165197988, 1757.7411839653473, -20290.734802572108, -32954.96499001563, 0.058, 0.002, 1.034, 192.0, 0.0, 0.0, 0.0, 0.0, 0.0, 0.0, 0.0, 0.0, 0.0, 1.747688542513356E9, 0.0, 2025-05-19 23:02:22.513
96.0, 23690.278672013126, 20756.656915742984, 48493.27188650035, 31904.567111082928, 38416.658451158815, 4583.6275319609085, 9933.830491761028, 2108.2388887690176, 0.0, 0.0, 15155.488569198676, -13986.537037675029, 9379.909560669608, 1788.273666891297, -20254.972011443617, -32938.44705086316, 0.058, 0.002, 1.034, 192.0, 0.0, 0.0, 0.0, 0.0, 0.0, 0.0, 0.0, 0.0, 0.0, 1.747688542521344E9, 0.0, 2025-05-19 23:02:22.521
98.0, 23667.658706624356, 20733.075825342636, 48477.8938863151, 31870.9724391666, 38390.9092415463, 4566.461392219233, 9876.47591548871, 2089.709292615568, 0.0, 0.0, 15147.240775494669, -13996.72943314665, 9387.755022973422, 1784.786794756269, -20268.405409861258, -32929.10402168084, 0.058, -0.006, 1.038, 192.0, 0.5, 104.0, 127.5, 104.0, 16.0, 56.0, 0.0, 0.0, 0.0, 1.747688542529371E9, 0.0, 2025-05-19 23:02:22.529
100.0, 23683.953128332276, 20750.06315112867, 48486.11932827465, 31885.098741662354, 38395.44664567073, 4549.675232133297, 9929.941288225806, 2104.349685233794, 0.0, 0.0, 15139.32825795749, -14001.57976169345, 9362.139923827639, 1761.272759589286, -20283.984575746606, -32959.01065576204, 0.058, -0.006, 1.038, 192.0, 0.0, 0.0, 0.0, 0.0, 0.0, 0.0, 0.0, 0.0, 0.0, 1.747688542537406E9, 0.0, 2025-05-19 23:02:22.537
102.0, 23685.383639977415, 20753.3488575636, 48491.21552601046, 31903.06954420442, 38406.957794065216, 4578.173706313813, 9904.572058269032, 2101.287496243417, 0.0, 0.0, 15159.62364192291, -13980.435011438729, 9400.562572546312, 1800.142443197065, -20251.99922943106, -32920.47624832109, 0.058, -0.006, 1.038, 192.0, 0.0, 0.0, 0.0, 0.0, 0.0, 0.0, 0.0, 0.0, 0.0, 1.747688542545444E9, 0.0, 2025-05-19 23:02:22.545
104.0, 23674.610099149955, 20738.95433413438, 48483.682988129025, 31875.97922992459, 38398.486482916654, 4542.008583785127, 9911.29993335008, 2100.125205531741, 0.0, 0.0, 15141.250507980647, -13993.644892411816, 9377.652034479623, 1763.4408788014507, -20287.896131026286, -32948.90766726824, 0.058, -0.006, 1.038, 192.0, 0.0, 0.0, 0.0, 0.0, 0.0, 0.0, 0.0, 0.0, 0.0, 1.747688542552486E9, 0.0, 2025-05-19 23:02:22.552
106.0, 23678.096971284984, 20747.000962138292, 48489.65090389859, 31904.008317471544, 38403.82854984147, 4552.580958912487, 9944.49227386621, 2103.0756357998416, 0.0, 0.0, 15149.81122610703, -13983.251331240099, 9379.551932758324, 1791.4699663484057, -20256.827206233407, -32936.03306246198, 0.058, -0.006, 1.038, 192.0, 0.0, 0.0, 0.0, 0.0, 0.0, 0.0, 0.0, 0.0, 0.0, 1.747688542561487E9, 0.0, 2025-05-19 23:02:22.561
108.0, 23669.245680480682, 20735.556868977175, 48483.034787539815, 31880.337820093373, 38390.9092415463, 4550.368136211412, 9893.86557267494, 2094.5596211623697, 0.0, 0.0, 15148.112493528426, -13987.72168013116, 9392.873572453687, 1789.234791902875, -20265.454979593156, -32927.85232399134, 0.05500000000000001, -0.004, 1.037, 192.0, 0.5, 80.0, 127.5, 120.0, 16.0, 48.0, 0.0, 0.0, 0.0, 1.74768854256949E9, 0.0, 2025-05-19 23:02:22.569
110.0, 23677.560529418057, 20741.547136491197, 48480.397281694095, 31883.243546872563, 38394.30670670351, 4528.172853967292, 9936.244480162202, 2105.243755012006, 0.0, 0.0, 15142.703371370242, -13993.555485433995, 9366.476162251969, 1764.1561346240205, -20283.559892601956, -32955.38967316028, 0.05500000000000001, -0.004, 1.037, 192.0, 0.0, 0.0, 0.0, 0.0, 0.0, 0.0, 0.0, 0.0, 0.0, 1.747688542576578E9, 0.0, 2025-05-19 23:02:22.576
112.0, 23674.140712516393, 20739.58018297913, 48479.95024680498, 31895.872282489814, 38407.918919076794, 4549.161142010826, 9896.078395376015, 2085.9094960581656, 0.0, 0.0, 15153.029877308594, -13983.787773107026, 9394.795822476843, 1793.3698646271068, -20256.53663355549, -32925.505390823535, 0.05500000000000001, -0.004, 1.037, 192.0, 0.0, 0.0, 0.0, 0.0, 0.0, 0.0, 0.0, 0.0, 0.0, 1.747688542584598E9, 0.0, 2025-05-19 23:02:22.584
114.0, 23669.849177580974, 20729.141918318503, 48478.20681073747, 31870.950087422145, 38393.6138026254, 4519.522728863088, 9886.578903982509, 2082.9143623011546, 0.0, 0.0, 15136.131958500382, -13996.640026168827, 9373.204037333016, 1755.662471731004, -20293.215846206647, -32956.551963871956, 0.05500000000000001, -0.004, 1.037, 192.0, 0.0, 0.0, 0.0, 0.0, 0.0, 0.0, 0.0, 0.0, 0.0, 1.747688542593568E9, 0.0, 2025-05-19 23:02:22.593
116.0, 23680.555663175066, 20742.06122661367, 48492.0425405553, 31908.70218380716, 38407.7624568656, 4537.426476171789, 9938.949041241294, 2093.643199639702, 0.0, 0.0, 15154.549795931554, -13979.473886427151, 9384.245799093938, 1787.4913558353612, -20255.66491552173, -32938.648216563255, 0.05500000000000001, -0.004, 1.037, 192.0, 0.0, 0.0, 0.0, 0.0, 0.0, 0.0, 0.0, 0.0, 0.0, 1.747688542600636E9, 0.0, 2025-05-19 23:02:22.600
118.0, 23663.8365583225, 20726.57146770614, 48479.771432849346, 31882.193014883163, 38392.49621540263, 4533.447865658744, 9881.370947524423, 2082.1096995007633, 0.0, 0.0, 15146.413760949823, -13986.96172081968, 9394.661712010111, 1786.753748268336, -20269.25477615056, -32925.52774256799, 0.05450000000000001, 0.001, 1.0345, 192.0, 0.5, 88.0, 0.0, 24.0, 16.0, 32.0, 0.0, 0.0, 0.0, 1.747688542608691E9, 0.0, 2025-05-19 23:02:22.608
120.0, 23684.556625432568, 20747.671514471953, 48488.80153760929, 31895.872282489814, 38397.05597127151, 4530.497435390644, 9923.43693058931, 2107.7247986465454, 0.0, 0.0, 15142.725723114698, -13990.739165632625, 9372.019394876885, 1766.8606957031127, -20280.76592454504, -32950.89697252476, 0.05450000000000001, 0.001, 1.0345, 192.0, 0.0, 0.0, 0.0, 0.0, 0.0, 0.0, 0.0, 0.0, 0.0, 1.747688542617664E9, 0.0, 2025-05-19 23:02:22.617
122.0, 23675.079485783517, 20744.85519467058, 48490.813194610266, 31909.484494863096, 38400.162863750804, 4547.507112921133, 9926.38736085741, 2109.3564759917826, 0.0, 0.0, 15159.243662267168, -13972.276624712542, 9405.368197604204, 1807.1832427004867, -20247.774749729007, -32909.25567260452, 0.05450000000000001, 0.001, 1.0345, 192.0, 0.0, 0.0, 0.0, 0.0, 0.0, 0.0, 0.0, 0.0, 0.0, 1.747688542624677E9, 0.0, 2025-05-19 23:02:22.624
124.0, 23674.699506127778, 20745.190470837413, 48482.56540090626, 31883.042381172465, 38386.79652056653, 4519.254507929624, 9913.043369417594, 2110.0046765809866, 0.0, 0.0, 15143.932717315283, -13987.453459197695, 9382.010624648408, 1770.7722509827913, -20284.476314124622, -32935.69778629515, 0.05450000000000001, 0.001, 1.0345, 192.0, 0.0, 0.0, 0.0, 0.0, 0.0, 0.0, 0.0, 0.0, 0.0, 1.747688542632658E9, 0.0, 2025-05-19 23:02:22.632
126.0, 23682.634375409412, 20752.566546507664, 48477.4915549149, 31907.182265184198, 38388.18232872276, 4529.312792934513, 9951.577776858543, 2112.373961493249, 0.0, 0.0, 15151.152330774348, -13974.757668347082, 9387.106822384218, 1789.1453849250538, -20266.304345882458, -32928.299358880446, 0.05450000000000001, 0.001, 1.0345, 192.0, 0.0, 0.0, 0.0, 0.0, 0.0, 0.0, 0.0, 0.0, 0.0, 1.747688542642749E9, 0.0, 2025-05-19 23:02:22.642
128.0, 23680.890939341898, 20745.92807840444, 48481.98425555042, 31888.54091030847, 38392.49621540263, 4524.775388810085, 9882.846162658472, 2100.9075165876766, 0.0, 0.0, 15147.888976083874, -13979.071555026956, 9401.09901441324, 1783.1551174110316, -20282.084677467905, -32922.13027741078, 0.053250000000000006, -0.0025, 1.0342500000000001, 192.0, 0.5, 80.0, 127.5, 104.0, 16.0, 40.0, 0.0, 0.0, 0.0, 1.747688542649731E9, 0.0, 2025-05-19 23:02:22.649
130.0, 23694.03376508162, 20755.71814247586, 48486.052273041285, 31891.64780278776, 38402.889776574346, 4513.040722971049, 9930.097750436993, 2102.382731721727, 0.0, 0.0, 15153.968650575716, -13981.664357383772, 9382.636473493156, 1768.3806143260736, -20279.693040811188, -32948.59474284587, 0.053250000000000006, -0.0025, 1.0342500000000001, 192.0, 0.0, 0.0, 0.0, 0.0, 0.0, 0.0, 0.0, 0.0, 0.0, 1.747688542656802E9, 0.0, 2025-05-19 23:02:22.656
132.0, 23683.237872509704, 20746.442168526908, 48473.31177870176, 31893.055962688442, 38393.32322994748, 4527.077618488982, 9889.19405808378, 2088.547001903892, 0.0, 0.0, 15152.359324974934, -13981.306729472486, 9398.305046356327, 1790.6653035480147, -20265.29851738197, -32928.90285598074, 0.053250000000000006, -0.0025, 1.0342500000000001, 192.0, 0.0, 0.0, 0.0, 0.0, 0.0, 0.0, 0.0, 0.0, 0.0, 1.747688542664814E9, 0.0, 2025-05-19 23:02:22.664
134.0, 23679.996869563685, 20749.414950539463, 48474.18349673552, 31873.0735031454, 38384.67310484328, 4512.526632848577, 9924.286296878612, 2093.576144406336, 0.0, 0.0, 15135.95314454474, -13997.556447691495, 9375.081583867262, 1755.5507130087274, -20298.937892787206, -32955.16615571573, 0.053250000000000006, -0.0025, 1.0342500000000001, 192.0, 0.0, 0.0, 0.0, 0.0, 0.0, 0.0, 0.0, 0.0, 0.0, 1.747688542672845E9, 0.0, 2025-05-19 23:02:22.672
136.0, 23682.96965157624, 20750.91251741797, 48477.55861014827, 31893.659459788738, 38402.532148663064, 4516.1252637058815, 9934.97043072825, 2093.0844060283193, 0.0, 0.0, 15149.319487729013, -13985.553560918996, 9381.585941503758, 1782.4398615884618, -20263.465674336636, -32944.034986976985, 0.053250000000000006, -0.0025, 1.0342500000000001, 192.0, 0.0, 0.0, 0.0, 0.0, 0.0, 0.0, 0.0, 0.0, 0.0, 1.747688542680872E9, 0.0, 2025-05-19 23:02:22.680
138.0, 23665.31177345655, 20731.600610208585, 48467.56738037674, 31868.78196820998, 38386.036561255045, 4511.140824692348, 9884.85781965945, 2081.774423333934, 0.0, 0.0, 15135.640220122365, -14000.663340170782, 9385.43044155007, 1769.2970358487412, -20286.331508914413, -32943.677359065696, 0.05462500000000001, -0.00625, 1.033125, 192.0, 0.5, 96.0, 127.5, 88.0, 16.0, 32.0, 0.0, 0.0, 0.0, 1.74768854268891E9, 0.0, 2025-05-19 23:02:22.688
140.0, 23685.62950916642, 20753.28180233023, 48485.22525849644, 31891.334878365386, 38399.49231141714, 4508.79389152454, 9930.030695203626, 2105.8249003678443, 0.0, 0.0, 15138.635353879376, -13995.276569757054, 9368.957205886509, 1762.4797537898726, -20284.476314124622, -32956.37314991631, 0.05462500000000001, -0.00625, 1.033125, 192.0, 0.0, 0.0, 0.0, 0.0, 0.0, 0.0, 0.0, 0.0, 0.0, 1.747688542696919E9, 0.0, 2025-05-19 23:02:22.696
142.0, 23675.68298288381, 20745.90572665998, 48481.157241005574, 31903.27070990452, 38399.73818060615, 4533.425513914289, 9908.394206570889, 2094.6937316291014, 0.0, 0.0, 15148.917156328816, -13980.457363183184, 9398.752081245433, 1800.7235885529028, -20252.938002698185, -32918.8222192314, 0.05462500000000001, -0.00625, 1.033125, 192.0, 0.0, 0.0, 0.0, 0.0, 0.0, 0.0, 0.0, 0.0, 0.0, 1.747688542705956E9, 0.0, 2025-05-19 23:02:22.705
144.0, 23673.380753204914, 20741.3459707911, 48479.27969447133, 31878.035590414478, 38387.869404300385, 4513.375999137878, 9903.074491390526, 2097.6665136416573, 0.0, 0.0, 15135.371999188901, -13996.1035843019, 9377.137944357151, 1765.9889776693558, -20287.58320660391, -32943.45384162114, 0.05462500000000001, -0.00625, 1.033125, 192.0, 0.0, 0.0, 0.0, 0.0, 0.0, 0.0, 0.0, 0.0, 0.0, 1.747688542712984E9, 0.0, 2025-05-19 23:02:22.712
146.0, 23684.22134926574, 20751.225441840346, 48484.59940965169, 31907.629300073306, 38403.04623878554, 4527.323487677991, 9942.100637209493, 2104.930830589632, 0.0, 0.0, 15152.135807530381, -13979.943273060713, 9386.838601450754, 1791.4476146039506, -20257.073075422417, -32931.4733065931, 0.05462500000000001, -0.00625, 1.033125, 192.0, 0.0, 0.0, 0.0, 0.0, 0.0, 0.0, 0.0, 0.0, 0.0, 1.747688542720976E9, 0.0, 2025-05-19 23:02:22.720
148.0, 23672.10670377096, 20737.05443585568, 48478.58679039321, 31881.701276505148, 38393.45734041421, 4527.882281289373, 9877.034709100093, 2087.742339103501, 0.0, 0.0, 15144.871490582407, -13987.967549320168, 9398.014473678408, 1782.5069168218276, -20274.261566908546, -32928.90285598074, 0.0553125, -0.006125, 1.0355625000000002, 192.0, 0.5, 96.0, 127.5, 104.0, 16.0, 56.0, 0.0, 0.0, 0.0, 1.747688542729022E9, 0.0, 2025-05-19 23:02:22.729
150.0, 23678.54400617409, 20741.882412658026, 48476.91040955907, 31877.990886925567, 38391.69155260224, 4497.930943719261, 9919.81594798755, 2090.4245484381377, 0.0, 0.0, 15139.440016679768, -13997.489392458128, 9369.42659252007, 1758.1211636210876, -20286.15269495877, -32962.18460347469, 0.0553125, -0.006125, 1.0355625000000002, 192.0, 0.0, 0.0, 0.0, 0.0, 0.0, 0.0, 0.0, 0.0, 0.0, 1.747688542737084E9, 0.0, 2025-05-19 23:02:22.737
152.0, 23677.292308484593, 20742.307095802676, 48477.111575259165, 31891.69250627667, 38397.2124334827, 4528.75399932313, 9909.668256004841, 2079.5616006328587, 0.0, 0.0, 15147.799569106051, -13987.00642430859, 9395.242857365949, 1786.5525825682382, -20264.873834237318, -32936.50244909554, 0.0553125, -0.006125, 1.0355625000000002, 192.0, 0.0, 0.0, 0.0, 0.0, 0.0, 0.0, 0.0, 0.0, 0.0, 1.747688542745094E9, 0.0, 2025-05-19 23:02:22.745
154.0, 23680.846235852987, 20746.397465038, 48474.63053162462, 31867.999657154043, 38384.27077344308, 4494.198202395225, 9887.227104571713, 2078.9134000436547, 0.0, 0.0, 15134.455577666233, -14001.490354715628, 9378.344938557737, 1746.7664774377915, -20303.83292482292, -32967.034932021495, 0.0553125, -0.006125, 1.0355625000000002, 192.0, 0.0, 0.0, 0.0, 0.0, 0.0, 0.0, 0.0, 0.0, 0.0, 1.747688542753091E9, 0.0, 2025-05-19 23:02:22.753
156.0, 23676.264128239647, 20745.078712115137, 48488.19804050899, 31903.427172115706, 38399.469959672686, 4511.520804348088, 9930.030695203626, 2093.240868239506, 0.0, 0.0, 15152.225214508202, -13982.33490971743, 9390.683101497067, 1782.1269371660874, -20263.48802608109, -32944.437318377175, 0.0553125, -0.006125, 1.0355625000000002, 192.0, 0.0, 0.0, 0.0, 0.0, 0.0, 0.0, 0.0, 0.0, 0.0, 1.747688542761106E9, 0.0, 2025-05-19 23:02:22.761
158.0, 23664.931793800806, 20731.10887183057, 48479.10088051568, 31885.746942251557, 38385.52247113258, 4521.377923652879, 9888.568209239033, 2080.4333186666154, 0.0, 0.0, 15140.959935302728, -13987.542866175518, 9400.160241146117, 1785.0326639452774, -20274.99917447557, -32927.807620502426, 0.056656250000000005, -0.0070625, 1.0367812500000002, 192.0, 0.5, 104.0, 127.5, 96.0, 16.0, 56.0, 0.0, 0.0, 0.0, 1.747688542768108E9, 0.0, 2025-05-19 23:02:22.768
160.0, 23680.779180619622, 20749.124377861546, 48486.27579048584, 31890.373753353808, 38396.5642328935, 4505.821109511985, 9918.072511920038, 2085.9541995470763, 0.0, 0.0, 15139.596478890953, -13987.319348730964, 9378.926083913575, 1768.3582625816182, -20283.291671668492, -32953.64623709276, 0.056656250000000005, -0.0070625, 1.0367812500000002, 192.0, 0.0, 0.0, 0.0, 0.0, 0.0, 0.0, 0.0, 0.0, 0.0, 1.747688542777133E9, 0.0, 2025-05-19 23:02:22.777
162.0, 23684.64603241039, 20758.44505529941, 48493.517755689354, 31908.21044542914, 38405.057895786515, 4541.673307618297, 9911.232878116713, 2099.745225876001, 0.0, 0.0, 15158.371944233411, -13972.343679945909, 9411.045540695852, 1803.137576954076, -20254.904956210252, -32920.92328321019, 0.056656250000000005, -0.0070625, 1.0367812500000002, 192.0, 0.0, 0.0, 0.0, 0.0, 0.0, 0.0, 0.0, 0.0, 0.0, 1.747688542785171E9, 0.0, 2025-05-19 23:02:22.785
164.0, 23680.44390445279, 20753.371209308054, 48487.25926724187, 31882.193014883163, 38388.09292174494, 4512.951315993228, 9893.239723830191, 2098.806452608878, 0.0, 0.0, 15149.09597028446, -13985.598264407905, 9393.633531765166, 1771.331044594174, -20289.661918838254, -32941.95627474264, 0.056656250000000005, -0.0070625, 1.0367812500000002, 192.0, 0.0, 0.0, 0.0, 0.0, 0.0, 0.0, 0.0, 0.0, 0.0, 1.747688542792206E9, 0.0, 2025-05-19 23:02:22.792
166.0, 23688.244663267695, 20761.48489254533, 48493.696569645, 31909.26097741854, 38405.4155236978, 4520.796778297041, 9928.756645769674, 2099.342894475805, 0.0, 0.0, 15162.752886146653, -13972.298976456997, 9399.400281834636, 1795.5826873281824, -20259.934098712696, -32932.14385892676, 0.056656250000000005, -0.0070625, 1.0367812500000002, 192.0, 0.0, 0.0, 0.0, 0.0, 0.0, 0.0, 0.0, 0.0, 0.0, 1.747688542800239E9, 0.0, 2025-05-19 23:02:22.800
168.0, 23675.34770671698, 20745.816319682162, 48488.73448237592, 31890.440808587173, 38396.83245382696, 4523.3448771649455, 9893.373834296923, 2087.8093943368667, 0.0, 0.0, 15156.829673865996, -13979.809162593981, 9410.553802317834, 1793.168698927009, -20269.120665683826, -32924.164286156214, 0.059328125, -0.0045312500000000006, 1.0363906250000001, 192.0, 0.5, 120.0, 127.5, 120.0, 16.0, 48.0, 0.0, 0.0, 0.0, 1.747688542809208E9, 0.0, 2025-05-19 23:02:22.809
170.0, 23681.717953886742, 20751.158386606978, 48488.913296331564, 31892.519520821515, 38397.301840460525, 4502.289533888046, 9922.408750344366, 2095.31958047385, 0.0, 0.0, 15150.61588890742, -13983.810124851481, 9385.09516538324, 1778.0589196752214, -20275.088581453394, -32945.08551896638, 0.059328125, -0.0045312500000000006, 1.0363906250000001, 192.0, 0.0, 0.0, 0.0, 0.0, 0.0, 0.0, 0.0, 0.0, 0.0, 1.747688542817257E9, 0.0, 2025-05-19 23:02:22.817
172.0, 23673.29134622709, 20739.78134867923, 48484.82292709624, 31902.64486105977, 38400.63225038436, 4518.382789895867, 9911.00936067216, 2090.268086226951, 0.0, 0.0, 15153.320449986513, -13982.580778906438, 9400.786089990866, 1805.2162891884195, -20256.33546785539, -32919.42571633169, 0.059328125, -0.0045312500000000006, 1.0363906250000001, 192.0, 0.0, 0.0, 0.0, 0.0, 0.0, 0.0, 0.0, 0.0, 0.0, 1.747688542824276E9, 0.0, 2025-05-19 23:02:22.824
174.0, 23663.478930411213, 20728.337255518112, 48477.60331363718, 31874.280497345986, 38384.561346120994, 4494.399368095323, 9898.604142499464, 2090.379844949227, 0.0, 0.0, 15133.89678405485, -14002.026796582557, 9377.562627501802, 1771.0181201717999, -20290.377174660825, -32945.53255385549, 0.059328125, -0.0045312500000000006, 1.0363906250000001, 192.0, 0.0, 0.0, 0.0, 0.0, 0.0, 0.0, 0.0, 0.0, 0.0, 1.74768854283235E9, 0.0, 2025-05-19 23:02:22.832
176.0, 23682.54496843159, 20749.549061006197, 48494.27771500084, 31910.93735825269, 38399.42525618378, 4523.210766698214, 9946.593337845008, 2109.51293820297, 0.0, 0.0, 15146.480816183188, -13985.061822540978, 9384.402261305126, 1793.9063064940342, -20260.44818883517, -32934.71430953912, 0.059328125, -0.0045312500000000006, 1.0363906250000001, 192.0, 0.0, 0.0, 0.0, 0.0, 0.0, 0.0, 0.0, 0.0, 0.0, 1.74768854284134E9, 0.0, 2025-05-19 23:02:22.841
178.0, 23660.372037931924, 20732.069996842147, 48478.63149388212, 31883.22119512811, 38380.873308285874, 4517.108740461915, 9889.775203439618, 2090.0892722713083, 0.0, 0.0, 15154.929775587294, -13980.233845738632, 9407.424558094091, 1796.1191291951097, -20266.57256681592, -32922.17498089969, 0.060664062500000004, -0.004265625, 1.0361953125, 192.0, 0.5, 120.0, 127.5, 112.0, 16.0, 48.0, 0.0, 0.0, 0.0, 1.747688542848356E9, 0.0, 2025-05-19 23:02:22.848
180.0, 23682.634375409412, 20751.985401151825, 48489.67325564304, 31891.625451043303, 38392.630325869366, 4503.474176344178, 9923.749855011685, 2095.856022340777, 0.0, 0.0, 15138.814167835018, -13995.29892150151, 9374.321624555781, 1758.434088043462, -20295.093392740895, -32962.92221104172, 0.060664062500000004, -0.004265625, 1.0361953125, 192.0, 0.0, 0.0, 0.0, 0.0, 0.0, 0.0, 0.0, 0.0, 0.0, 1.747688542856393E9, 0.0, 2025-05-19 23:02:22.856
182.0, 23682.656727153866, 20755.069941886657, 48494.41182546757, 31909.46214311864, 38408.053029543524, 4530.475083646189, 9904.4379478023, 2095.0066560514756, 0.0, 0.0, 15165.77037164812, -13969.505008400085, 9416.700532043043, 1808.4125886455286, -20248.04297066247, -32920.61035878782, 0.060664062500000004, -0.004265625, 1.0361953125, 192.0, 0.0, 0.0, 0.0, 0.0, 0.0, 0.0, 0.0, 0.0, 0.0, 1.747688542865452E9, 0.0, 2025-05-19 23:02:22.865
184.0, 23669.11157001395, 20737.993209122804, 48484.21942999595, 31881.567166038418, 38385.29895368802, 4500.769615265085, 9901.643979745386, 2100.438129954115, 0.0, 0.0, 15146.771388861107, -13987.185238264232, 9390.727804985978, 1773.1862393839647, -20285.50449436957, -32944.90670501074, 0.060664062500000004, -0.004265625, 1.0361953125, 192.0, 0.0, 0.0, 0.0, 0.0, 0.0, 0.0, 0.0, 0.0, 0.0, 1.747688542873487E9, 0.0, 2025-05-19 23:02:22.873
186.0, 23683.34963123198, 20752.454787785387, 48490.41086321007, 31910.847951274867, 38395.916032304296, 4521.4673306306995, 9941.877119764938, 2113.2680312714615, 0.0, 0.0, 15154.281574998091, -13975.294110214008, 9390.101956141229, 1800.0306844747884, -20257.050723677963, -32929.88633273677, 0.060664062500000004, -0.004265625, 1.0361953125, 192.0, 0.0, 0.0, 0.0, 0.0, 0.0, 0.0, 0.0, 0.0, 0.0, 1.747688542880482E9, 0.0, 2025-05-19 23:02:22.880
188.0, 23663.03189552211, 20735.4451102549, 48480.77726134983, 31885.03168642899, 38380.1580524633, 4517.086388717459, 9896.838354687496, 2103.1426910332075, 0.0, 0.0, 15144.871490582407, -13985.486505685629, 9400.33905510176, 1799.9412774969671, -20264.359744114845, -32920.878579721284, 0.06133203125, -0.0051328125, 1.03309765625, 192.0, 0.5, 120.0, 127.5, 104.0, 16.0, 24.0, 0.0, 0.0, 0.0, 1.747688542888528E9, 0.0, 2025-05-19 23:02:22.888
190.0, 23677.761695118155, 20749.079674372635, 48487.01339805286, 31888.74207600857, 38394.79844508153, 4490.845440726929, 9934.903375494883, 2108.3282957468386, 0.0, 0.0, 15140.825824835996, -13993.890761600824, 9374.321624555781, 1775.4661173184058, -20279.514226855546, -32947.76772830102, 0.06133203125, -0.0051328125, 1.03309765625, 192.0, 0.0, 0.0, 0.0, 0.0, 0.0, 0.0, 0.0, 0.0, 0.0, 1.747688542897557E9, 0.0, 2025-05-19 23:02:22.897
192.0, 23671.279689226114, 20744.609325481575, 48483.191249751006, 31897.950994724157, 38400.18521549526, 4513.84538577144, 9918.608953786965, 2100.2369642540175, 0.0, 0.0, 15151.129979029893, -13982.044337039511, 9401.85897372472, 1805.7303793108917, -20252.24509862007, -32921.95146345514, 0.06133203125, -0.0051328125, 1.03309765625, 192.0, 0.0, 0.0, 0.0, 0.0, 0.0, 0.0, 0.0, 0.0, 0.0, 1.747688542904636E9, 0.0, 2025-05-19 23:02:22.904
194.0, 23666.49641591268, 20735.802738166185, 48476.99981653688, 31874.638125257272, 38374.39130239383, 4494.309961117502, 9902.739215223697, 2101.935696832621, 0.0, 0.0, 15134.388522432868, -13997.824668624959, 9380.088374625251, 1769.20762887092, -20288.901959526775, -32948.66179807923, 0.06133203125, -0.0051328125, 1.03309765625, 192.0, 0.0, 0.0, 0.0, 0.0, 0.0, 0.0, 0.0, 0.0, 0.0, 1.747688542912688E9, 0.0, 2025-05-19 23:02:22.912
196.0, 23678.320488729536, 20753.192395352413, 48490.3438079767, 31907.07050646192, 38397.815930583, 4516.929926506273, 9945.006363988681, 2116.8219586398554, 0.0, 0.0, 15145.631449893886, -13985.307691729986, 9381.116554870196, 1790.7100070369254, -20262.90688072525, -32940.34694914186, 0.06133203125, -0.0051328125, 1.03309765625, 192.0, 0.0, 0.0, 0.0, 0.0, 0.0, 0.0, 0.0, 0.0, 0.0, 1.747688542920689E9, 0.0, 2025-05-19 23:02:22.920
198.0, 23667.524596157622, 20741.480081257832, 48486.00756955237, 31891.69250627667, 38385.94715427723, 4523.27782193158, 9898.134755865904, 2104.0144090669646, 0.0, 0.0, 15146.927851072294, -13983.206627751188, 9402.283656869371, 1797.4378821179728, -20265.38792435979, -32921.68324252168, 0.062666015625, -0.00156640625, 1.032548828125, 192.0, 1.0, 0.0, 0.0, 8.0, 16.0, 32.0, 0.0, 0.0, 0.0, 1.747688542929725E9, 0.0, 2025-05-19 23:02:22.929
200.0, 23679.952166074774, 20752.566546507664, 48489.80736610977, 31896.140503423278, 38386.30478218851, 4506.312847890002, 9929.516605081155, 2108.41770272466, 0.0, 0.0, 15144.558566160033, -13986.939369075224, 9380.066022880796, 1773.7003295064367, -20281.950567001175, -32950.449937635654, 0.062666015625, -0.00156640625, 1.032548828125, 192.0, 0.0, 0.0, 0.0, 0.0, 0.0, 0.0, 0.0, 0.0, 0.0, 1.747688542936673E9, 0.0, 2025-05-19 23:02:22.936
202.0, 23682.075581798028, 20756.187529109422, 48492.66838940005, 31915.251244932562, 38392.13858749135, 4538.4323046722775, 9914.876212462928, 2099.9463915760984, 0.0, 0.0, 15160.741229145675, -13968.745049088604, 9411.671389540601, 1816.302754438252, -20247.841804962376, -32913.07782090638, 0.062666015625, -0.00156640625, 1.032548828125, 192.0, 0.0, 0.0, 0.0, 0.0, 0.0, 0.0, 0.0, 0.0, 0.0, 1.74768854294473E9, 0.0, 2025-05-19 23:02:22.944
204.0, 23679.952166074774, 20751.67247672945, 48489.65090389859, 31888.8761864753, 38380.60508735241, 4518.9415835072505, 9892.01037788515, 2095.118414773752, 0.0, 0.0, 15148.447769695256, -13984.05599404049, 9392.672406753589, 1780.137631909565, -20285.370383902835, -32938.156478185236, 0.062666015625, -0.00156640625, 1.032548828125, 192.0, 0.0, 0.0, 0.0, 0.0, 0.0, 0.0, 0.0, 0.0, 0.0, 1.747688542952756E9, 0.0, 2025-05-19 23:02:22.952
206.0, 23680.600366663977, 20756.656915742984, 48496.55759293528, 31918.246378689575, 38397.54770964953, 4533.13494123637, 9925.940325968306, 2096.3701124632494, 0.0, 0.0, 15159.578938433999, -13970.466133411663, 9395.846354466243, 1801.4164926310175, -20257.944793456172, -32929.975739714595, 0.062666015625, -0.00156640625, 1.032548828125, 192.0, 0.0, 0.0, 0.0, 0.0, 0.0, 0.0, 0.0, 0.0, 0.0, 1.747688542960781E9, 0.0, 2025-05-19 23:02:22.960
208.0, 23658.181566975305, 20734.48398524332, 48482.610104395164, 31888.8761864753, 38385.611878110394, 4525.043609743549, 9873.927816620806, 2078.4216616656377, 0.0, 0.0, 15154.393333720367, -13974.265929969066, 9410.129119173183, 1802.4670246204169, -20264.560909814943, -32921.68324252168, 0.060333007812500006, -0.002783203125, 1.0332744140624999, 192.0, 0.5, 104.0, 127.5, 112.0, 16.0, 40.0, 0.0, 0.0, 0.0, 1.74768854296885E9, 0.0, 2025-05-19 23:02:22.968
210.0, 23625.235095648182, 20690.831028322107, 48480.41963343855, 31888.49620681956, 38384.784863565554, 4498.5120890750995, 9913.602163028976, 2086.065958269353, 0.0, 0.0, 15140.356438202434, -13992.996691822613, 9374.209865833505, 1771.3980998275401, -20284.07398272443, -32954.6297138488, 0.060333007812500006, -0.002783203125, 1.0332744140624999, 192.0, 0.0, 0.0, 0.0, 0.0, 0.0, 0.0, 0.0, 0.0, 0.0, 1.747688542976834E9, 0.0, 2025-05-19 23:02:22.976
212.0, 23580.889234648854, 20648.4744725793, 48463.54406637479, 31885.83634922938, 38371.75379654811, 4504.3235426334795, 9906.76252922565, 2076.0970802422858, 0.0, 0.0, 15136.891917811861, -13991.29795924401, 9386.90565668412, 1797.236716417875, -20267.131360427305, -32931.18273391518, 0.060333007812500006, -0.002783203125, 1.0332744140624999, 192.0, 0.0, 0.0, 0.0, 0.0, 0.0, 0.0, 0.0, 0.0, 0.0, 1.747688542985911E9, 0.0, 2025-05-19 23:02:22.985
214.0, 23533.347074192414, 20590.5611026956, 48461.0406709958, 31855.169755836698, 38381.76737806408, 4468.8736759273625, 9881.661520202342, 2074.1524784746744, 0.0, 0.0, 15110.002769232127, -14021.316352047486, 9353.623909190168, 1755.5060095198166, -20305.710471357164, -32963.0786732529, 0.060333007812500006, -0.002783203125, 1.0332744140624999, 192.0, 0.0, 0.0, 0.0, 0.0, 0.0, 0.0, 0.0, 0.0, 0.0, 1.747688542991912E9, 0.0, 2025-05-19 23:02:22.991
216.0, 23502.233445910628, 20554.284221444635, 48465.37690942013, 31878.281459603484, 38382.2591164421, 4479.490754543634, 9935.86450050646, 2085.5965716357914, 0.0, 0.0, 15112.70733031122, -14023.685636959748, 9342.246871262416, 1770.8393062161574, -20282.889340268295, -32961.96108603014, 0.060333007812500006, -0.002783203125, 1.0332744140624999, 192.0, 0.0, 0.0, 0.0, 0.0, 0.0, 0.0, 0.0, 0.0, 0.0, 1.747688543000941E9, 0.0, 2025-05-19 23:02:23.000
218.0, 23449.371570273826, 20498.06958413954, 48459.67721458402, 31855.505032003526, 38383.175537964766, 4475.467440541678, 9869.368060751924, 2073.906609285666, 0.0, 0.0, 15109.935713998762, -14029.720607962681, 9358.831865648255, 1777.723643508392, -20285.079811224918, -32945.912533511226, 0.060333007812500006, -0.002783203125, 1.0332744140624999, 192.0, 0.0, 0.0, 0.0, 0.0, 0.0, 0.0, 0.0, 0.0, 0.0, 1.747688543010973E9, 0.0, 2025-05-19 23:02:23.010
220.0, 23445.59412546088, 20483.138618843393, 48460.8395052957, 31858.075482615888, 38380.62743909686, 4454.054469353494, 9914.786805485106, 2084.6354466242133, 0.0, 0.0, 15097.195219659236, -14047.132616893367, 9323.381998942137, 1748.6216722275822, -20303.184724233713, -32979.52955717201, 0.062, -0.006, 1.032, 192.0, 0.5, 120.0, 127.5, 104.0, 16.0, 32.0, 0.0, 0.0, 0.0, 1.747688543016966E9, 0.0, 2025-05-19 23:02:23.016
222.0, 23425.991645573577, 20460.541005199077, 48449.59657783468, 31857.270819815498, 38385.008381010106, 4459.955329889694, 9891.540991251588, 2061.322577157328, 0.0, 0.0, 15102.090251694948, -14041.343515079441, 9344.213824774484, 1779.1988586424422, -20278.843674521886, -32953.93680977068, 0.062, -0.006, 1.032, 192.0, 0.0, 0.0, 0.0, 0.0, 0.0, 0.0, 0.0, 0.0, 0.0, 1.747688543025066E9, 0.0, 2025-05-19 23:02:23.025
224.0, 23429.143241541773, 20461.85975812194, 48443.02516496482, 31826.894799100734, 38375.24066868313, 4431.501559198089, 9867.266996773124, 2060.1602864456518, 0.0, 0.0, 15083.493600308133, -14068.813809015013, 9316.609420372179, 1735.8364743991465, -20320.127346530837, -32988.403199720764, 0.062, -0.006, 1.032, 192.0, 0.0, 0.0, 0.0, 0.0, 0.0, 0.0, 0.0, 0.0, 0.0, 1.74768854303308E9, 0.0, 2025-05-19 23:02:23.033
226.0, 23454.490119754093, 20479.607043219454, 48455.720955815435, 31856.801433181936, 38395.26783171509, 4441.246919780603, 9917.96075319776, 2069.7268330725233, 0.0, 0.0, 15099.050414449028, -14057.928509465279, 9319.22457447345, 1757.8082391987134, -20291.181837461216, -32979.77542636102, 0.062, -0.006, 1.032, 192.0, 0.0, 0.0, 0.0, 0.0, 0.0, 0.0, 0.0, 0.0, 0.0, 1.747688543041035E9, 0.0, 2025-05-19 23:02:23.041
228.0, 23463.20730009166, 20481.283424053603, 48443.896882998575, 31836.036662582956, 38372.5584593485, 4449.0923820844155, 9874.978348610204, 2059.31092015635, 0.0, 0.0, 15100.279760394069, -14058.554358310028, 9340.07875205025, 1755.8412856866464, -20306.64924462429, -32971.05824602345, 0.062, -0.006, 1.032, 192.0, 0.0, 0.0, 0.0, 0.0, 0.0, 0.0, 0.0, 0.0, 0.0, 1.747688543050121E9, 0.0, 2025-05-19 23:02:23.050
230.0, 23516.359748406383, 20536.894564258404, 48467.43326991001, 31852.0181598685, 38405.30376497552, 4430.987469075617, 9903.856802446462, 2078.891048299199, 0.0, 0.0, 15105.398309874334, -14057.861454231914, 9323.337295453226, 1743.9054541475123, -20307.900942313783, -32988.96199333215, 0.064, -0.01, 1.026, 192.0, 1.0, 0.0, 127.5, 88.0, 16.0, 8.0, 0.0, 0.0, 0.0, 1.747688543057139E9, 0.0, 2025-05-19 23:02:23.057
232.0, 23526.216867711173, 20549.277430686645, 48470.85308681167, 31871.195956611155, 38407.89656733234, 4458.815390922474, 9901.219296600735, 2071.760841817956, 0.0, 0.0, 15127.079501995982, -14034.68269523176, 9359.860045893198, 1785.0773674341879, -20271.86993025183, -32953.06509173693, 0.064, -0.01, 1.026, 192.0, 0.0, 0.0, 0.0, 0.0, 0.0, 0.0, 0.0, 0.0, 0.0, 1.747688543065166E9, 0.0, 2025-05-19 23:02:23.065
234.0, 23552.36840872388, 20573.93140482085, 48480.35257820518, 31855.236811070063, 38408.32125047699, 4444.35381225989, 9889.685796461798, 2076.4770598980263, 0.0, 0.0, 15121.89389728235, -14042.326991835474, 9351.500493466914, 1758.367032810096, -20297.77560207553, -32969.35951344485, 0.064, -0.01, 1.026, 192.0, 0.0, 0.0, 0.0, 0.0, 0.0, 0.0, 0.0, 0.0, 0.0, 1.747688543073233E9, 0.0, 2025-05-19 23:02:23.073
236.0, 23574.295470034536, 20606.98963487025, 48477.13392700362, 31879.957840437633, 38404.11912251939, 4458.860094411385, 9930.522433581644, 2083.6296181237244, 0.0, 0.0, 15135.014371277615, -14024.311485804497, 9359.144790070628, 1785.144422667554, -20264.024467948017, -32954.38384465979, 0.064, -0.01, 1.026, 192.0, 0.0, 0.0, 0.0, 0.0, 0.0, 0.0, 0.0, 0.0, 0.0, 1.747688543080173E9, 0.0, 2025-05-19 23:02:23.080
238.0, 23570.182749054762, 20608.12957383747, 48460.25835993986, 31854.275686058485, 38381.34269491943, 4460.961158390183, 9873.14550556487, 2068.475135383026, 0.0, 0.0, 15124.84432755045, -14033.095721375434, 9369.448944264524, 1777.4554225749282, -20287.605558348365, -32950.27112368001, 0.064, -0.01, 1.026, 192.0, 0.0, 0.0, 0.0, 0.0, 0.0, 0.0, 0.0, 0.0, 0.0, 1.747688543089258E9, 0.0, 2025-05-19 23:02:23.089
240.0, 23604.358566326926, 20633.677617749887, 48469.98136877792, 31858.008427382523, 38391.9597735357, 4435.658983666776, 9919.81594798755, 2076.633522109213, 0.0, 0.0, 15124.151423472336, -14040.360038323408, 9345.063191063786, 1752.756744951814, -20296.814477063952, -32980.08835078339, 0.056, -0.01, 1.026, 192.0, 0.5, 96.0, 127.5, 88.0, 16.0, 8.0, 0.0, 0.0, 0.0, 1.747688543097246E9, 0.0, 2025-05-19 23:02:23.097
242.0, 23620.138897912373, 20657.482225594787, 48471.233066467415, 31870.570107766405, 38404.25323298612, 4463.576312491455, 9900.280523333613, 2074.1524784746744, 0.0, 0.0, 15135.729627100185, -14024.535003249051, 9373.963996644497, 1782.68573077747, -20271.422895362724, -32954.227382448604, 0.056, -0.01, 1.026, 192.0, 0.0, 0.0, 0.0, 0.0, 0.0, 0.0, 0.0, 0.0, 0.0, 1.747688543104302E9, 0.0, 2025-05-19 23:02:23.104
244.0, 23623.066976436017, 20656.208176160835, 48465.10868848666, 31845.245581298543, 38393.47969215867, 4439.1682075462595, 9878.912255634339, 2068.7210045720344, 0.0, 0.0, 15128.621772363398, -14039.86829994539, 9359.927101126565, 1747.593491982638, -20305.39754693479, -32978.90370832726, 0.056, -0.01, 1.026, 192.0, 0.0, 0.0, 0.0, 0.0, 0.0, 0.0, 0.0, 0.0, 0.0, 1.747688543112336E9, 0.0, 2025-05-19 23:02:23.112
246.0, 23641.68597956729, 20675.85535953705, 48468.93083678852, 31872.022971156, 38405.907262075816, 4460.961158390183, 9920.642962532398, 2069.2350946945066, 0.0, 0.0, 15138.210670734725, -14021.361055536398, 9362.072868594274, 1765.8995706915346, -20285.86212228085, -32969.71714135613, 0.056, -0.01, 1.026, 192.0, 0.0, 0.0, 0.0, 0.0, 0.0, 0.0, 0.0, 0.0, 0.0, 1.747688543121307E9, 0.0, 2025-05-19 23:02:23.121
248.0, 23633.237020163182, 20666.691144310375, 48456.39150814909, 31849.000674367035, 38396.69834336023, 4466.45968752619, 9866.864665372928, 2057.9027602556657, 0.0, 0.0, 15129.627600863887, -14030.34645680743, 9373.606368733212, 1765.787811969258, -20295.36161367436, -32960.57527787391, 0.056, -0.01, 1.026, 192.0, 0.0, 0.0, 0.0, 0.0, 0.0, 0.0, 0.0, 0.0, 0.0, 1.747688543128399E9, 0.0, 2025-05-19 23:02:23.128
250.0, 23659.880299553908, 20690.518103899733, 48472.551819390275, 31861.0706163729, 38403.85090158593, 4444.107943070882, 9908.975351926727, 2076.8570395537663, 0.0, 0.0, 15115.99303674615, -14037.63312549986, 9348.527711454357, 1740.4409337569398, -20310.426689437234, -32987.41972296473, 0.058, -0.01, 1.026, 192.0, 0.5, 104.0, 127.5, 88.0, 16.0, 8.0, 0.0, 0.0, 0.0, 1.747688543136432E9, 0.0, 2025-05-19 23:02:23.136
252.0, 23675.884148583908, 20703.77268836173, 48486.11932827465, 31889.770256253512, 38419.85475061593, 4477.233228353647, 9903.029787901616, 2076.7899843204004, 0.0, 0.0, 15153.611022664432, -14010.498107731119, 9389.386700318659, 1787.0890244351656, -20265.00794470405, -32946.538382355975, 0.058, -0.01, 1.026, 192.0, 0.0, 0.0, 0.0, 0.0, 0.0, 0.0, 0.0, 0.0, 0.0, 1.747688543144396E9, 0.0, 2025-05-19 23:02:23.144
254.0, 23670.07269502553, 20704.845572095583, 48481.98425555042, 31862.00938964002, 38396.22895672667, 4463.397498535812, 9873.369023009423, 2073.347815674283, 0.0, 0.0, 15153.476912197699, -14015.840174655936, 9383.016453148897, 1757.8976461765346, -20296.34509043039, -32966.319676198924, 0.058, -0.01, 1.026, 192.0, 0.0, 0.0, 0.0, 0.0, 0.0, 0.0, 0.0, 0.0, 0.0, 1.747688543154495E9, 0.0, 2025-05-19 23:02:23.154
0.0, 23692.40208773638, 20722.570505448643, 48491.50609868838, 31891.670154532214, 38419.49712270464, 4468.180771849247, 9919.771244498641, 2076.4770598980263, 0.0, 0.0, 15162.417609979822, -14007.257104785098, 9381.652996737123, 1773.9685504399004, -20271.95933722965, -32962.899859297264, 0.058, -0.01, 1.026, 192.0, 0.0, 0.0, 0.0, 0.0, 0.0, 0.0, 0.0, 0.0, 0.0, 1.747688543161483E9, 0.0, 2025-05-19 23:02:23.161
2.0, 23677.806398607067, 20713.18277277741, 48487.862764342164, 31879.533157292983, 38403.381514952365, 4485.3692633353785, 9880.05219460156, 2067.8492865382777, 0.0, 0.0, 15163.445790224767, -14000.90920935979, 9404.630590037179, 1782.9315999664784, -20272.24990990757, -32945.487850366575, 0.058, -0.01, 1.026, 192.0, 0.0, 0.0, 0.0, 0.0, 0.0, 0.0, 0.0, 0.0, 0.0, 1.747688543168522E9, 0.0, 2025-05-19 23:02:23.168
4.0, 23687.484703956212, 20726.05737758367, 48487.393377708606, 31882.84121547237, 38405.817855097994, 4479.446051054722, 9923.10165442248, 2089.061092026364, 0.0, 0.0, 15155.175644776304, -14008.307636774498, 9378.6131594912, 1758.1658671099983, -20294.98163401862, -32969.94065880068, 0.06, -0.004, 1.032, 192.0, 0.5, 112.0, 127.5, 112.0, 16.0, 32.0, 0.0, 0.0, 0.0, 1.747688543176573E9, 0.0, 2025-05-19 23:02:23.176
6.0, 23686.188302777806, 20725.744453161296, 48492.6460376556, 31900.11911393632, 38424.30274776254, 4488.677321514764, 9892.166840096335, 2076.834687809311, 0.0, 0.0, 15173.660537440843, -13989.353357476397, 9407.6704272831, 1801.818824031213, -20258.861214978842, -32931.83093450438, 0.06, -0.004, 1.032, 192.0, 0.0, 0.0, 0.0, 0.0, 0.0, 0.0, 0.0, 0.0, 0.0, 1.747688543184593E9, 0.0, 2025-05-19 23:02:23.184
8.0, 23687.08237255602, 20721.452918225878, 48486.87928758613, 31875.956878180135, 38408.053029543524, 4466.772611948563, 9873.167857309325, 2075.225362208529, 0.0, 0.0, 15154.728609887197, -14006.139517562333, 9388.179706118073, 1769.654663760026, -20291.651224094778, -32955.00969350454, 0.06, -0.004, 1.032, 192.0, 0.0, 0.0, 0.0, 0.0, 0.0, 0.0, 0.0, 0.0, 0.0, 1.747688543192616E9, 0.0, 2025-05-19 23:02:23.192
10.0, 23704.40497450888, 20737.05443585568, 48487.48278468642, 31901.50492209255, 38413.998593568635, 4475.355681819401, 9921.15705265487, 2085.5518681468807, 0.0, 0.0, 15159.66834541182, -13996.125936046355, 9388.537334029357, 1793.459271604928, -20264.627965048312, -32942.71623405412, 0.06, -0.004, 1.032, 192.0, 0.0, 0.0, 0.0, 0.0, 0.0, 0.0, 0.0, 0.0, 0.0, 1.747688543200635E9, 0.0, 2025-05-19 23:02:23.200
12.0, 23691.955052847276, 20725.252714783277, 48490.99200856591, 31887.669192274716, 38417.23959651466, 4476.830896953452, 9879.538104479088, 2077.5946471207913, 0.0, 0.0, 15157.455522710745, -13997.86937211387, 9405.994046448952, 1800.008332730333, -20267.511340083045, -32929.59576005885, 0.06, -0.004, 1.032, 192.0, 0.0, 0.0, 0.0, 0.0, 0.0, 0.0, 0.0, 0.0, 0.0, 1.747688543209665E9, 0.0, 2025-05-19 23:02:23.209
14.0, 23701.16397156286, 20735.512165488264, 48493.808328367275, 31889.256166131043, 38414.55738718002, 4462.905760157795, 9917.647828775385, 2087.7199873590457, 0.0, 0.0, 15152.068752297015, -14005.133689061844, 9380.647168236634, 1778.170678397498, -20277.659032065756, -32954.89793478226, 0.062, -0.008, 1.03, 192.0, 0.5, 120.0, 127.5, 96.0, 16.0, 24.0, 0.0, 0.0, 0.0, 1.747688543216691E9, 0.0, 2025-05-19 23:02:23.216
16.0, 23695.88895987141, 20733.031121853724, 48495.97644757944, 31903.06954420442, 38425.97912859668, 4496.455728585212, 9908.282447848613, 2082.22145822304, 0.0, 0.0, 15165.122171058914, -13990.359185976886, 9406.038749937863, 1817.241527705375, -20245.360761327836, -32920.34213785436, 0.062, -0.008, 1.03, 192.0, 0.0, 0.0, 0.0, 0.0, 0.0, 0.0, 0.0, 0.0, 0.0, 1.747688543224654E9, 0.0, 2025-05-19 23:02:23.224
18.0, 23682.902596342876, 20714.792098378195, 48481.73838636141, 31865.11628211931, 38407.20366325422, 4457.496637999611, 9885.237799315191, 2069.391556905694, 0.0, 0.0, 15142.14457775886, -14015.191974066733, 9377.80849669081, 1774.2144196289087, -20284.565721102445, -32953.84740279286, 0.062, -0.008, 1.03, 192.0, 0.0, 0.0, 0.0, 0.0, 0.0, 0.0, 0.0, 0.0, 0.0, 1.747688543232722E9, 0.0, 2025-05-19 23:02:23.232
20.0, 23699.666404684354, 20733.00877010927, 48490.63438065462, 31894.21825340012, 38423.60984368442, 4465.677376470253, 9932.399980115888, 2082.2438099674955, 0.0, 0.0, 15149.721819129209, -14007.301808274009, 9376.221522834483, 1787.4243006019951, -20263.264508636537, -32951.76869055852, 0.062, -0.008, 1.03, 192.0, 0.0, 0.0, 0.0, 0.0, 0.0, 0.0, 0.0, 0.0, 0.0, 1.747688543240753E9, 0.0, 2025-05-19 23:02:23.240
22.0, 23690.12220980194, 20724.58216244962, 48482.07366252824, 31872.69352348966, 38410.93640457826, 4474.998053908116, 9885.148392337369, 2072.386690662705, 0.0, 0.0, 15153.387505219878, -14007.860601885392, 9397.299217855838, 1789.882992492079, -20269.85827325085, -32939.072899707906, 0.062, -0.008, 1.03, 192.0, 0.0, 0.0, 0.0, 0.0, 0.0, 0.0, 0.0, 0.0, 0.0, 1.747688543248766E9, 0.0, 2025-05-19 23:02:23.248
24.0, 23698.63822443941, 20730.885354386017, 48483.459470684465, 31871.106549633332, 38409.97527956668, 4456.848437410407, 9918.608953786965, 2079.7851180774114, 0.0, 0.0, 15145.251470238147, -14018.276514801564, 9368.107839597207, 1754.1649048524982, -20294.98163401862, -32976.06503678144, 0.056, -0.008, 1.034, 192.0, 0.5, 96.0, 127.5, 96.0, 16.0, 40.0, 0.0, 0.0, 0.0, 1.747688543256796E9, 0.0, 2025-05-19 23:02:23.256
26.0, 23699.77816340663, 20732.606438709074, 48488.153337020085, 31890.038477186976, 38420.301785505035, 4483.357606334402, 9910.651732760874, 2079.159269232663, 0.0, 0.0, 15160.249490767657, -13998.428165725252, 9400.540220801857, 1798.4660623629168, -20255.396694588268, -32937.75414678504, 0.056, -0.008, 1.034, 192.0, 0.0, 0.0, 0.0, 0.0, 0.0, 0.0, 0.0, 0.0, 0.0, 1.747688543264758E9, 0.0, 2025-05-19 23:02:23.264
28.0, 23693.899654614885, 20724.895086871995, 48478.81030783777, 31860.198898339142, 38396.877157315874, 4457.183713577237, 9879.739270179185, 2070.397385406183, 0.0, 0.0, 15141.943412058761, -14020.556392736005, 9379.820153691788, 1758.143515365543, -20295.71924158564, -32967.75018784406, 0.056, -0.008, 1.034, 192.0, 0.0, 0.0, 0.0, 0.0, 0.0, 0.0, 0.0, 0.0, 0.0, 1.747688543271837E9, 0.0, 2025-05-19 23:02:23.271
30.0, 23708.137715832916, 20739.066092856658, 48488.98035156493, 31889.34557310886, 38416.390230225355, 4467.867847426874, 9924.889793978906, 2077.907571543166, 0.0, 0.0, 15152.38167671939, -14006.407738495796, 9379.551932758324, 1772.49333530585, -20276.809665776454, -32965.067978509425, 0.056, -0.008, 1.034, 192.0, 0.0, 0.0, 0.0, 0.0, 0.0, 0.0, 0.0, 0.0, 0.0, 1.747688543280868E9, 0.0, 2025-05-19 23:02:23.280
32.0, 23703.577959964034, 20730.639485197007, 48498.07751155824, 31885.188148640176, 38416.01025056961, 4476.830896953452, 9887.517677249632, 2077.9746267765317, 0.0, 0.0, 15162.015278579627, -13999.322235503465, 9406.15050866014, 1793.1239954380985, -20263.577433058912, -32937.79885027395, 0.056, -0.008, 1.034, 192.0, 0.0, 0.0, 0.0, 0.0, 0.0, 0.0, 0.0, 0.0, 0.0, 1.747688543288892E9, 0.0, 2025-05-19 23:02:23.288
34.0, 23710.417593767357, 20737.85909865607, 48499.30685750328, 31880.829558471392, 38412.00928831212, 4456.759030432586, 9916.06085491906, 2082.132051245219, 0.0, 0.0, 15160.651822167853, -14005.983055351146, 9382.792935704343, 1767.9559311814228, -20280.140075700292, -32965.269144209524, 0.058, -0.004, 1.03, 192.0, 0.5, 104.0, 127.5, 112.0, 16.0, 24.0, 0.0, 0.0, 0.0, 1.747688543296907E9, 0.0, 2025-05-19 23:02:23.296
36.0, 23701.812172152066, 20729.81247065216, 48490.947305076996, 31887.93741320818, 38422.335794250466, 4474.774536463563, 9908.953000182271, 2072.677263340624, 0.0, 0.0, 15167.402048993355, -13997.690558158227, 9404.42942433708, 1799.650704819048, -20255.217880632626, -32939.676396808194, 0.058, -0.004, 1.03, 192.0, 0.0, 0.0, 0.0, 0.0, 0.0, 0.0, 0.0, 0.0, 0.0, 1.747688543303899E9, 0.0, 2025-05-19 23:02:23.303
38.0, 23704.628491953434, 20725.856211883573, 48487.08045328623, 31860.78004369498, 38411.94223307875, 4458.4801147556445, 9876.565322466531, 2071.7831935624117, 0.0, 0.0, 15151.33114472999, -14017.315389789987, 9384.156392116118, 1764.7149282354032, -20290.86891303884, -32965.47030990962, 0.058, -0.004, 1.03, 192.0, 0.0, 0.0, 0.0, 0.0, 0.0, 0.0, 0.0, 0.0, 0.0, 1.747688543312962E9, 0.0, 2025-05-19 23:02:23.312
40.0, 23725.12504161895, 20746.71038946037, 48497.250497013396, 31894.330012122395, 38426.873198374895, 4476.517972531077, 9927.01320970216, 2083.093176256797, 0.0, 0.0, 15165.748019903664, -14004.86546812838, 9386.302159583827, 1780.6740737764924, -20266.863139493842, -32960.15059472926, 0.058, -0.004, 1.03, 192.0, 0.0, 0.0, 0.0, 0.0, 0.0, 0.0, 0.0, 0.0, 0.0, 1.747688543320021E9, 0.0, 2025-05-19 23:02:23.320
42.0, 23702.169800063348, 20729.63365669652, 48491.34963647719, 31879.01906717051, 38413.372744723885, 4478.663739998787, 9883.963749881239, 2069.056280738864, 0.0, 0.0, 15166.776200148608, -13999.210476781187, 9411.313761629315, 1792.9228297380007, -20264.382095859302, -32939.31876889691, 0.058, -0.004, 1.03, 192.0, 0.0, 0.0, 0.0, 0.0, 0.0, 0.0, 0.0, 0.0, 0.0, 1.747688543328078E9, 0.0, 2025-05-19 23:02:23.328
44.0, 23712.18338157933, 20739.669589956953, 48498.3457324917, 31881.522462549507, 38412.389267967854, 4457.608396721887, 9910.472918805233, 2080.165097733152, 0.0, 0.0, 15156.829673865996, -14006.363035006885, 9383.798764204832, 1765.3854805690623, -20284.364555402346, -32967.83959482188, 0.058, 0.0, 1.028, 192.0, 0.5, 104.0, 0.0, 0.0, 16.0, 16.0, 0.0, 0.0, 0.0, 1.747688543337105E9, 0.0, 2025-05-19 23:02:23.337
46.0, 23705.299044287094, 20735.690979443905, 48492.2437062554, 31891.938375465677, 38421.82170412799, 4480.787155722041, 9897.330093065511, 2065.859981281755, 0.0, 0.0, 15166.552682704054, -13995.567142434973, 9406.418729593603, 1800.7012368084477, -20252.5803747869, -32938.223533418604, 0.058, 0.0, 1.028, 192.0, 0.0, 0.0, 0.0, 0.0, 0.0, 0.0, 0.0, 0.0, 0.0, 1.747688543345148E9, 0.0, 2025-05-19 23:02:23.345
48.0, 23708.182419321827, 20735.601572466087, 48488.17568876454, 31868.089064131866, 38404.633212641864, 4470.907684672795, 9875.67125268832, 2069.2350946945066, 0.0, 0.0, 15149.766522618118, -14011.548639720517, 9389.744328229945, 1763.3067683347188, -20292.07590723943, -32963.749225586565, 0.058, 0.0, 1.028, 192.0, 0.0, 0.0, 0.0, 0.0, 0.0, 0.0, 0.0, 0.0, 0.0, 1.747688543352127E9, 0.0, 2025-05-19 23:02:23.352
50.0, 23720.006492138684, 20744.989305137315, 48495.03767431232, 31896.74400052357, 38419.117143048905, 4476.652082997809, 9918.63130553142, 2083.3166937013502, 0.0, 0.0, 15165.211578036737, -13991.856752855392, 9395.466374810503, 1784.853849989635, -20264.002116203563, -32953.75799581504, 0.058, 0.0, 1.028, 192.0, 0.0, 0.0, 0.0, 0.0, 0.0, 0.0, 0.0, 0.0, 0.0, 1.74768854336015E9, 0.0, 2025-05-19 23:02:23.360
52.0, 23703.622663452945, 20727.95727586237, 48484.19707825149, 31877.342686336364, 38409.327078977476, 4476.026234153061, 9873.994871854171, 2067.804583049367, 0.0, 0.0, 15155.309755243035, -14004.574895450462, 9404.451776081536, 1782.4175098440064, -20276.83201752091, -32948.68414982368, 0.058, 0.0, 1.028, 192.0, 0.0, 0.0, 0.0, 0.0, 0.0, 0.0, 0.0, 0.0, 0.0, 1.747688543369207E9, 0.0, 2025-05-19 23:02:23.369
54.0, 23723.806288696087, 20745.10106385959, 48495.23884001242, 31885.568128295916, 38412.23280575667, 4464.582140991944, 9907.00839841466, 2083.0484727678863, 0.0, 0.0, 15155.533272687588, -14004.239619283631, 9385.251627594427, 1758.8364194436574, -20291.91944502824, -32971.52763265701, 0.06, 0.004, 1.024, 192.0, 0.5, 112.0, 0.0, 16.0, 16.0, 0.0, 0.0, 0.0, 0.0, 1.747688543376224E9, 0.0, 2025-05-19 23:02:23.376
56.0, 23719.760622949678, 20745.078712115137, 48494.724749889945, 31898.375677868808, 38421.44172447226, 4487.626789525365, 9899.945247166783, 2077.0805569983195, 0.0, 0.0, 15171.693583928774, -13990.33683423243, 9412.185479663072, 1798.4884141073721, -20257.229537633604, -32937.97766422959, 0.06, 0.004, 1.024, 192.0, 0.0, 0.0, 0.0, 0.0, 0.0, 0.0, 0.0, 0.0, 0.0, 1.747688543384243E9, 0.0, 2025-05-19 23:02:23.384
58.0, 23715.156163591884, 20737.881450400528, 48496.87051735765, 31878.616735770316, 38414.579738924476, 4469.276007327558, 9877.10176433346, 2080.098042499786, 0.0, 0.0, 15158.90838610034, -14005.603075695406, 9395.37696783268, 1767.4418410589508, -20289.460753138155, -32958.40715866174, 0.06, 0.004, 1.024, 192.0, 0.0, 0.0, 0.0, 0.0, 0.0, 0.0, 0.0, 0.0, 0.0, 1.74768854339228E9, 0.0, 2025-05-19 23:02:23.392
60.0, 23726.332035819538, 20751.895994174003, 48497.47401445795, 31901.191997670176, 38423.18516053977, 4477.3226353314685, 9923.660448033865, 2087.65293212568, 0.0, 0.0, 15170.19601705027, -13992.460249955684, 9396.293389355349, 1786.977265712889, -20264.20328190366, -32949.86879227982, 0.06, 0.004, 1.024, 192.0, 0.0, 0.0, 0.0, 0.0, 0.0, 0.0, 0.0, 0.0, 0.0, 1.747688543401305E9, 0.0, 2025-05-19 23:02:23.401
62.0, 23710.88698040092, 20733.545211976198, 48490.96965682145, 31879.93548869318, 38420.860579116415, 4479.580161521454, 9870.552703208054, 2069.8832952837106, 0.0, 0.0, 15169.05607808305, -13994.360148234386, 9415.180613420083, 1793.1016436936432, -20263.979764459105, -32938.648216563255, 0.06, 0.004, 1.024, 192.0, 0.0, 0.0, 0.0, 0.0, 0.0, 0.0, 0.0, 0.0, 0.0, 1.747688543408343E9, 0.0, 2025-05-19 23:02:23.408
64.0, 23721.03467238363, 20744.72108420385, 48495.57411617925, 31883.198843383652, 38416.12200929189, 4460.156495589793, 9902.605104756965, 2086.021254780442, 0.0, 0.0, 15156.04736281006, -14008.285285030042, 9384.75988921641, 1762.7479747233363, -20285.571549602933, -32971.41587393473, 0.062, -0.002, 1.026, 192.0, 0.5, 120.0, 127.5, 120.0, 16.0, 8.0, 0.0, 0.0, 0.0, 1.747688543416379E9, 0.0, 2025-05-19 23:02:23.416
66.0, 23727.337864320027, 20755.40521805349, 48503.30781976078, 31908.679832062702, 38423.05105007304, 4495.2263826401695, 9902.828622201518, 2082.3779204342272, 0.0, 0.0, 15177.370927020424, -13986.313520230475, 9415.359427375726, 1805.3727513996068, -20248.758226485043, -32933.44026010517, 0.062, -0.002, 1.026, 192.0, 0.0, 0.0, 0.0, 0.0, 0.0, 0.0, 0.0, 0.0, 0.0, 1.747688543424404E9, 0.0, 2025-05-19 23:02:23.424
68.0, 23715.714957203265, 20740.563659735162, 48493.33894173372, 31877.63325901428, 38396.877157315874, 4469.432469538745, 9876.945302122273, 2080.925057044632, 0.0, 0.0, 15164.071639069516, -13994.427203467752, 9405.256438881926, 1777.142498152554, -20280.34124140039, -32949.198239946156, 0.062, -0.002, 1.026, 192.0, 0.0, 0.0, 0.0, 0.0, 0.0, 0.0, 0.0, 0.0, 0.0, 1.74768854343244E9, 0.0, 2025-05-19 23:02:23.432
70.0, 23722.711053217776, 20749.19143309491, 48492.35546497768, 31892.296003376963, 38411.27168074509, 4470.997091650616, 9910.29410484959, 2078.3322546878167, 0.0, 0.0, 15161.545891946065, -13997.91407560278, 9391.063081152806, 1780.49525982085, -20271.646412807277, -32957.46838539462, 0.062, -0.002, 1.026, 192.0, 0.0, 0.0, 0.0, 0.0, 0.0, 0.0, 0.0, 0.0, 0.0, 1.747688543440469E9, 0.0, 2025-05-19 23:02:23.440
72.0, 23714.21739032476, 20739.11079634557, 48488.08628178672, 31879.86843345981, 38406.823683598486, 4484.296379601524, 9870.664461930332, 2075.962969775554, 0.0, 0.0, 15160.294194256569, -13999.679863414749, 9409.100938928239, 1788.7654052693135, -20272.54048258549, -32941.62099857581, 0.062, -0.002, 1.026, 192.0, 0.0, 0.0, 0.0, 0.0, 0.0, 0.0, 0.0, 0.0, 0.0, 1.747688543448492E9, 0.0, 2025-05-19 23:02:23.448
74.0, 23712.675119957345, 20737.076787600137, 48484.107671273676, 31875.800415968948, 38404.923785319785, 4461.0058618790945, 9905.175555369326, 2081.3273884448276, 0.0, 0.0, 15145.966726060717, -14014.342607777431, 9376.176819345572, 1761.0045386558222, -20290.243064194092, -32971.706446612654, 0.06, -0.008, 1.03, 192.0, 0.5, 112.0, 127.5, 96.0, 16.0, 24.0, 0.0, 0.0, 0.0, 1.747688543457521E9, 0.0, 2025-05-19 23:02:23.457
76.0, 23713.770355435652, 20740.250735312788, 48492.95896207797, 31898.21921565762, 38421.620538427895, 4489.772556993074, 9901.062834389548, 2080.2768564554285, 0.0, 0.0, 15161.836464623984, -13994.918941845768, 9402.797746991844, 1800.4106641305286, -20255.7319707551, -32938.80467877444, 0.06, -0.008, 1.03, 192.0, 0.0, 0.0, 0.0, 0.0, 0.0, 0.0, 0.0, 0.0, 0.0, 1.747688543463572E9, 0.0, 2025-05-19 23:02:23.463
78.0, 23703.220332052748, 20727.309075273166, 48483.43711894001, 31866.1221106198, 38407.226014998676, 4461.497600257111, 9873.413726498333, 2072.7890220629006, 0.0, 0.0, 15146.391409205367, -14013.560296721495, 9385.631607250167, 1768.1570968815206, -20289.080773482416, -32961.24583020757, 0.06, -0.008, 1.03, 192.0, 0.0, 0.0, 0.0, 0.0, 0.0, 0.0, 0.0, 0.0, 0.0, 1.747688543472593E9, 0.0, 2025-05-19 23:02:23.472
80.0, 23726.287332330627, 20747.515052260766, 48499.70918890348, 31900.70025929216, 38419.96650933821, 4487.827955225463, 9914.38447408491, 2083.9201908016435, 0.0, 0.0, 15159.266014011624, -14000.953912848701, 9383.597598504735, 1785.0550156897327, -20266.304345882458, -32956.66372259423, 0.06, -0.008, 1.03, 192.0, 0.0, 0.0, 0.0, 0.0, 0.0, 0.0, 0.0, 0.0, 0.0, 1.747688543480616E9, 0.0, 2025-05-19 23:02:23.480
82.0, 23707.668329199354, 20733.63461895402, 48483.97356080694, 31879.93548869318, 38403.873253330385, 4484.922228446273, 9869.993909596671, 2063.557751602859, 0.0, 0.0, 15162.082333812992, -13996.081232557444, 9406.843412738253, 1795.7615012838248, -20265.119703426328, -32937.75414678504, 0.06, -0.008, 1.03, 192.0, 0.0, 0.0, 0.0, 0.0, 0.0, 0.0, 0.0, 0.0, 0.0, 1.747688543488654E9, 0.0, 2025-05-19 23:02:23.488
84.0, 23714.954997891786, 20741.748302191296, 48485.918162574555, 31875.956878180135, 38404.432046941765, 4468.270178827069, 9895.474898275721, 2074.4877546415037, 0.0, 0.0, 15147.978383061694, -14012.48741298764, 9373.204037333016, 1758.4787915323725, -20294.020509007038, -32975.14861525877, 0.06, -0.008, 1.033, 192.0, 0.5, 112.0, 127.5, 96.0, 16.0, 48.0, 0.0, 0.0, 0.0, 1.747688543495692E9, 0.0, 2025-05-19 23:02:23.495
86.0, 23712.11632634596, 20740.049569612693, 48486.52165967484, 31892.139541165776, 38411.58460516747, 4478.708443487697, 9897.978293654716, 2068.3633766607495, 0.0, 0.0, 15160.674173912308, -13997.757613391592, 9397.366273089203, 1794.8003762722465, -20260.80581674645, -32945.30903641094, 0.06, -0.008, 1.033, 192.0, 0.0, 0.0, 0.0, 0.0, 0.0, 0.0, 0.0, 0.0, 0.0, 1.747688543504658E9, 0.0, 2025-05-19 23:02:23.504
88.0, 23708.987082122218, 20731.310037530668, 48486.92399107504, 31870.03366589948, 38394.68668635925, 4465.587969492432, 9868.295177018068, 2075.7618040754564, 0.0, 0.0, 15145.206766749236, -14013.806165910502, 9383.597598504735, 1767.1736201254869, -20290.01954674954, -32964.173908731216, 0.06, -0.008, 1.033, 192.0, 0.0, 0.0, 0.0, 0.0, 0.0, 0.0, 0.0, 0.0, 0.0, 1.747688543512764E9, 0.0, 2025-05-19 23:02:23.512
90.0, 23720.31941656106, 20746.218651082356, 48494.12125278965, 31896.78870401248, 38403.716791119194, 4475.288626586035, 9923.34752361149, 2084.099004757286, 0.0, 0.0, 15159.645993667364, -13998.897552358814, 9384.67048223859, 1788.6983500359477, -20265.253813893058, -32951.94750451416, 0.06, -0.008, 1.033, 192.0, 0.0, 0.0, 0.0, 0.0, 0.0, 0.0, 0.0, 0.0, 0.0, 1.747688543519776E9, 0.0, 2025-05-19 23:02:23.519
92.0, 23704.337919275513, 20732.38292126452, 48486.27579048584, 31882.1259596498, 38392.78678808055, 4485.995112180128, 9881.10272659096, 2076.4994116424814, 0.0, 0.0, 15154.214519764724, -14003.859639627892, 9400.830793479776, 1796.588515828671, -20266.237290649093, -32937.77649852949, 0.06, -0.008, 1.033, 192.0, 0.0, 0.0, 0.0, 0.0, 0.0, 0.0, 0.0, 0.0, 0.0, 1.747688543528782E9, 0.0, 2025-05-19 23:02:23.528
94.0, 23709.63528271142, 20735.512165488264, 48489.87442134314, 31877.297982847453, 38397.6147648829, 4466.951425904206, 9903.47682279072, 2082.4002721786824, 0.0, 0.0, 15144.782083604585, -14012.06272984299, 9371.505304754413, 1765.6313497580709, -20291.5394653725, -32967.929001799705, 0.059, -0.008, 1.0325, 192.0, 0.5, 104.0, 127.5, 96.0, 16.0, 32.0, 0.0, 0.0, 0.0, 1.747688543536828E9, 0.0, 2025-05-19 23:02:23.536
96.0, 23710.372890278446, 20737.792043422705, 48490.36615972116, 31897.12398017931, 38411.69636388974, 4493.482946572655, 9901.107537878459, 2080.3886151777047, 0.0, 0.0, 15161.724705901708, -13994.382499978841, 9399.71320625701, 1803.6069635876374, -20253.094464909373, -32938.44705086316, 0.059, -0.008, 1.0325, 192.0, 0.0, 0.0, 0.0, 0.0, 0.0, 0.0, 0.0, 0.0, 0.0, 1.747688543544814E9, 0.0, 2025-05-19 23:02:23.544
98.0, 23701.298082029592, 20729.49954622979, 48482.006607294876, 31867.21734609811, 38396.89950906033, 4467.309053815491, 9880.81215391304, 2074.4877546415037, 0.0, 0.0, 15144.200938248747, -14010.565162964484, 9384.402261305126, 1766.5701230251937, -20294.244026451594, -32962.47517615261, 0.059, -0.008, 1.0325, 192.0, 0.0, 0.0, 0.0, 0.0, 0.0, 0.0, 0.0, 0.0, 0.0, 1.747688543551884E9, 0.0, 2025-05-19 23:02:23.551
100.0, 23715.804364181087, 20741.904764402483, 48490.70143588799, 31893.793570255468, 38409.6176516554, 4483.156440634303, 9928.801349258585, 2089.932810060121, 0.0, 0.0, 15153.007525564139, -14003.479659972152, 9379.171953102583, 1784.4068151005288, -20266.684325538197, -32957.021350505514, 0.059, -0.008, 1.0325, 192.0, 0.0, 0.0, 0.0, 0.0, 0.0, 0.0, 0.0, 0.0, 0.0, 1.747688543561943E9, 0.0, 2025-05-19 23:02:23.561
102.0, 23700.6945849293, 20727.465537484353, 48478.18445899302, 31873.386427567773, 38394.53022414807, 4485.078690657459, 9873.436078242788, 2073.0795947408196, 0.0, 0.0, 15151.912290085827, -14009.000540852612, 9396.762775988911, 1790.6653035480147, -20272.316965140937, -32943.43148987669, 0.059, -0.008, 1.0325, 192.0, 0.0, 0.0, 0.0, 0.0, 0.0, 0.0, 0.0, 0.0, 0.0, 1.747688543568939E9, 0.0, 2025-05-19 23:02:23.568
104.0, 23716.720785703754, 20742.329447547134, 48494.25536325638, 31880.56133753793, 38399.76053235061, 4458.144838588815, 9909.824718216028, 2087.9435048035984, 0.0, 0.0, 15145.542042916066, -14012.666226943282, 9372.868761166186, 1763.7761549682803, -20292.031203750517, -32970.41004543424, 0.0595, -0.006, 1.03225, 192.0, 0.5, 112.0, 127.5, 112.0, 16.0, 32.0, 0.0, 0.0, 0.0, 1.747688543576976E9, 0.0, 2025-05-19 23:02:23.576
106.0, 23713.144506590907, 20737.412063766966, 48489.36033122067, 31893.70416327765, 38403.582680652464, 4477.255580098103, 9906.270790847635, 2081.640312867202, 0.0, 0.0, 15162.797589635562, -13996.72943314665, 9400.361406846216, 1802.109396709132, -20254.01088643204, -32940.43635611968, 0.0595, -0.006, 1.03225, 192.0, 0.0, 0.0, 0.0, 0.0, 0.0, 0.0, 0.0, 0.0, 0.0, 1.74768854358509E9, 0.0, 2025-05-19 23:02:23.585
108.0, 23702.21450355226, 20727.80081365118, 48480.48668867191, 31865.004523397034, 38378.4593198847, 4455.842608909918, 9875.71595617723, 2070.8220685508336, 0.0, 0.0, 15140.669362624809, -14015.571953722472, 9383.016453148897, 1766.078384647177, -20295.652186352276, -32963.41394941973, 0.0595, -0.006, 1.03225, 192.0, 0.0, 0.0, 0.0, 0.0, 0.0, 0.0, 0.0, 0.0, 0.0, 1.747688543592071E9, 0.0, 2025-05-19 23:02:23.592
110.0, 23722.46518402877, 20747.068017371657, 48499.86565111466, 31900.476741847604, 38404.40969519731, 4476.987359164638, 9915.479709563222, 2086.4012344361827, 0.0, 0.0, 15154.102761042448, -14006.363035006885, 9379.753098458421, 1784.6973877784478, -20267.82426450542, -32957.24486795007, 0.0595, -0.006, 1.03225, 192.0, 0.0, 0.0, 0.0, 0.0, 0.0, 0.0, 0.0, 0.0, 0.0, 1.747688543600094E9, 0.0, 2025-05-19 23:02:23.600
112.0, 23707.936550132818, 20735.266296299254, 48494.9482673345, 31888.675020775205, 38400.252270728626, 4493.482946572655, 9872.810229398041, 2072.118469729241, 0.0, 0.0, 15166.865607126429, -13993.846058111914, 9412.163127918617, 1806.9150217670228, -20256.804854488953, -32929.484001336576, 0.0595, -0.006, 1.03225, 192.0, 0.0, 0.0, 0.0, 0.0, 0.0, 0.0, 0.0, 0.0, 0.0, 1.747688543609061E9, 0.0, 2025-05-19 23:02:23.609
114.0, 23711.401070523392, 20738.216726567356, 48495.909392346075, 31883.712933506125, 38395.468997415184, 4463.889236913828, 9904.01326465765, 2083.674321612635, 0.0, 0.0, 15149.90063308485, -14007.72649141866, 9378.52375251338, 1771.5098585498165, -20286.644433336787, -32963.749225586565, 0.06175, -0.005, 1.032125, 192.0, 1.0, 0.0, 127.5, 112.0, 16.0, 32.0, 0.0, 0.0, 0.0, 1.747688543616119E9, 0.0, 2025-05-19 23:02:23.616
116.0, 23714.46325951377, 20739.20020332339, 48497.585773180224, 31901.348459881363, 38410.64583190034, 4485.950408691217, 9906.091976891992, 2082.9814175345205, 0.0, 0.0, 15168.586691449487, -13989.219247009665, 9408.43038659458, 1810.4913008798721, -20251.462787564134, -32930.37807111479, 0.06175, -0.005, 1.032125, 192.0, 0.0, 0.0, 0.0, 0.0, 0.0, 0.0, 0.0, 0.0, 0.0, 1.747688543624155E9, 0.0, 2025-05-19 23:02:23.624
118.0, 23697.78885815011, 20722.749319404284, 48481.581924150225, 31862.948162907145, 38389.054046756515, 4461.40819327929, 9873.994871854171, 2072.967836018543, 0.0, 0.0, 15145.229118493691, -14016.15309907831, 9385.944531672541, 1770.0793469046769, -20291.561817116955, -32959.614152862334, 0.06175, -0.005, 1.032125, 192.0, 0.0, 0.0, 0.0, 0.0, 0.0, 0.0, 0.0, 0.0, 0.0, 1.747688543633178E9, 0.0, 2025-05-19 23:02:23.633
120.0, 23709.009433866675, 20732.248810797788, 48486.25343874138, 31885.366962595817, 38403.76149460811, 4477.993187665127, 9920.508852065666, 2082.735548345512, 0.0, 0.0, 15148.112493528426, -14012.53211647655, 9374.835714678255, 1778.68476851997, -20277.793142532486, -32961.62580986331, 0.06175, -0.005, 1.032125, 192.0, 0.0, 0.0, 0.0, 0.0, 0.0, 0.0, 0.0, 0.0, 0.0, 1.747688543640191E9, 0.0, 2025-05-19 23:02:23.640
122.0, 23691.73153540272, 20710.09823204258, 48477.804479337276, 31864.199860596644, 38404.20852949721, 4463.375146791357, 9875.984177110693, 2061.188466690596, 0.0, 0.0, 15143.463330681721, -14018.902363646313, 9389.051424151829, 1790.1512134255427, -20269.098313939372, -32949.22059169061, 0.06175, -0.005, 1.032125, 192.0, 0.0, 0.0, 0.0, 0.0, 0.0, 0.0, 0.0, 0.0, 0.0, 1.747688543648276E9, 0.0, 2025-05-19 23:02:23.648
124.0, 23703.466201241758, 20721.564676948154, 48484.35354046268, 31867.619677498304, 38398.486482916654, 4439.324669757446, 9897.24068608769, 2073.414870907649, 0.0, 0.0, 15135.863737566917, -14032.469872530684, 9358.451885992514, 1756.690651975948, -20295.071040996438, -32982.65880139575, 0.060875, -0.0035, 1.0310625, 192.0, 0.5, 112.0, 127.5, 120.0, 16.0, 24.0, 0.0, 0.0, 0.0, 1.747688543656262E9, 0.0, 2025-05-19 23:02:23.656
126.0, 23713.21156182427, 20737.72498818934, 48495.484709201424, 31899.35915462484, 38416.814913370006, 4491.2924756160355, 9908.48361354871, 2082.489679156504, 0.0, 0.0, 15157.679040155297, -14000.328064003954, 9394.818174221298, 1804.523385110305, -20251.57454628641, -32941.39748113126, 0.060875, -0.0035, 1.0310625, 192.0, 0.0, 0.0, 0.0, 0.0, 0.0, 0.0, 0.0, 0.0, 0.0, 1.747688543665284E9, 0.0, 2025-05-19 23:02:23.665
128.0, 23712.250436812694, 20729.611304952065, 48493.964790578466, 31872.470006045107, 38396.34071544895, 4469.03013813855, 9870.19507529677, 2083.4061006791712, 0.0, 0.0, 15151.934641830283, -14007.704139674204, 9390.23606660796, 1780.0035214428333, -20280.005965233562, -32953.869754537314, 0.060875, -0.0035, 1.0310625, 192.0, 0.0, 0.0, 0.0, 0.0, 0.0, 0.0, 0.0, 0.0, 0.0, 1.747688543672306E9, 0.0, 2025-05-19 23:02:23.672
130.0, 23717.905428159887, 20741.3459707911, 48495.417653968056, 31893.21242489963, 38400.83341608446, 4480.138955132837, 9922.498157322188, 2108.842385869311, 0.0, 0.0, 15159.869511111918, -14003.278494272054, 9381.764755459399, 1787.6478180465483, -20268.49481683908, -32954.69676908216, 0.060875, -0.0035, 1.0310625, 192.0, 0.0, 0.0, 0.0, 0.0, 0.0, 0.0, 0.0, 0.0, 0.0, 1.747688543680332E9, 0.0, 2025-05-19 23:02:23.680
132.0, 23699.912273873364, 20722.704615915372, 48484.28648522931, 31874.995753168554, 38390.17163397928, 4481.345949333424, 9873.927816620806, 2088.9493333040873, 0.0, 0.0, 15152.560490675032, -14005.826593139958, 9399.444985323547, 1797.1026059511432, -20266.080828437905, -32939.60934157483, 0.060875, -0.0035, 1.0310625, 192.0, 0.0, 0.0, 0.0, 0.0, 0.0, 0.0, 0.0, 0.0, 0.0, 1.747688543688307E9, 0.0, 2025-05-19 23:02:23.688
134.0, 23709.367061777957, 20731.846479397595, 48486.342845719206, 31873.9228694347, 38386.528299633064, 4458.256597311091, 9906.695473992286, 2102.338028232816, 0.0, 0.0, 15139.305906213034, -14017.717721190182, 9369.42659252007, 1763.9549689239227, -20291.360651416857, -32972.35464720186, 0.0584375, -0.00175, 1.02953125, 192.0, 0.5, 96.0, 0.0, 0.0, 16.0, 16.0, 0.0, 0.0, 0.0, 1.74768854369737E9, 0.0, 2025-05-19 23:02:23.697
136.0, 23708.607102466478, 20737.970857378346, 48492.69074114451, 31896.16285516773, 38397.88298581636, 4485.033987168549, 9913.736273495708, 2097.800624108389, 0.0, 0.0, 15154.750961631653, -14000.328064003954, 9395.958113188519, 1806.780911300291, -20251.060456163937, -32935.362510128325, 0.0584375, -0.00175, 1.02953125, 192.0, 0.0, 0.0, 0.0, 0.0, 0.0, 0.0, 0.0, 0.0, 0.0, 1.747688543704449E9, 0.0, 2025-05-19 23:02:23.704
138.0, 23695.6430906824, 20719.754185647274, 48484.82292709624, 31863.86458442981, 38383.86844204288, 4467.353757304401, 9868.786915396086, 2081.7520715894784, 0.0, 0.0, 15138.881223068383, -14016.53307873405, 9381.697700226034, 1777.9918644418556, -20283.24696817958, -32954.20503070415, 0.0584375, -0.00175, 1.02953125, 192.0, 0.0, 0.0, 0.0, 0.0, 0.0, 0.0, 0.0, 0.0, 0.0, 1.747688543712457E9, 0.0, 2025-05-19 23:02:23.712
140.0, 23709.367061777957, 20733.679322442928, 48493.249534755894, 31887.602137041347, 38399.604070139416, 4476.003882408605, 9920.687666021307, 2095.9677810630537, 0.0, 0.0, 15147.687810383775, -14010.073424586466, 9372.913464655097, 1787.7372250243695, -20265.320869126426, -32956.48490863859, 0.0584375, -0.00175, 1.02953125, 192.0, 0.0, 0.0, 0.0, 0.0, 0.0, 0.0, 0.0, 0.0, 0.0, 1.747688543721507E9, 0.0, 2025-05-19 23:02:23.721
142.0, 23693.25145402568, 20714.52387744473, 48480.97842704993, 31869.87720368829, 38391.1104072464, 4479.356644076901, 9871.513828219633, 2073.4595743965597, 0.0, 0.0, 15143.150406259349, -14016.9577618787, 9389.945493930041, 1794.621562316604, -20267.62309880532, -32944.77259454401, 0.0584375, -0.00175, 1.02953125, 192.0, 0.0, 0.0, 0.0, 0.0, 0.0, 0.0, 0.0, 0.0, 0.0, 1.747688543727504E9, 0.0, 2025-05-19 23:02:23.727
144.0, 23699.21936979525, 20721.25175252578, 48480.240819482904, 31859.863622172314, 38381.83443329745, 4458.413059522279, 9896.167802353835, 2074.286588941406, 0.0, 0.0, 15141.630487636387, -14025.965514894191, 9365.336223284748, 1758.2552740878195, -20296.41214566376, -32981.02712405052, 0.05621875, -0.001875, 1.0287656250000001, 192.0, 0.5, 88.0, 127.5, 120.0, 16.0, 16.0, 0.0, 0.0, 0.0, 1.747688543736514E9, 0.0, 2025-05-19 23:02:23.736
146.0, 23699.107611072974, 20722.212877537357, 48482.58775265071, 31877.901479947745, 38407.5165876766, 4471.5111817730885, 9901.44281404529, 2067.536362115903, 0.0, 0.0, 15149.006563306639, -14020.399930524818, 9377.562627501802, 1784.8314982451795, -20269.00890696155, -32961.156423229746, 0.05621875, -0.001875, 1.0287656250000001, 192.0, 0.0, 0.0, 0.0, 0.0, 0.0, 0.0, 0.0, 0.0, 0.0, 1.74768854374454E9, 0.0, 2025-05-19 23:02:23.744
148.0, 23691.105686557974, 20715.842630367595, 48471.434232167514, 31849.9170958897, 38390.68572410175, 4457.809562421985, 9871.223255541714, 2062.4625161245485, 0.0, 0.0, 15138.903574812839, -14028.424206784273, 9373.561665244302, 1764.916093935501, -20289.997195005082, -32971.013542534536, 0.05621875, -0.001875, 1.0287656250000001, 192.0, 0.0, 0.0, 0.0, 0.0, 0.0, 0.0, 0.0, 0.0, 0.0, 1.747688543752585E9, 0.0, 2025-05-19 23:02:23.752
150.0, 23704.53908497561, 20732.360569520068, 48477.26803747035, 31876.06863690241, 38392.607974124905, 4470.93003641725, 9916.4408345748, 2079.740414588501, 0.0, 0.0, 15134.589688132965, -14026.367846294386, 9357.870740636676, 1768.1570968815206, -20282.844636779384, -32976.02033329252, 0.05621875, -0.001875, 1.0287656250000001, 192.0, 0.0, 0.0, 0.0, 0.0, 0.0, 0.0, 0.0, 0.0, 0.0, 1.74768854375961E9, 0.0, 2025-05-19 23:02:23.759
152.0, 23702.169800063348, 20727.331427017623, 48486.09697653019, 31875.934526435678, 38403.89560507484, 4468.538399760532, 9863.958938593738, 2074.711272086057, 0.0, 0.0, 15146.056133038537, -14016.018988611579, 9390.079604396773, 1792.140518682065, -20269.947680228674, -32945.487850366575, 0.05621875, -0.001875, 1.0287656250000001, 192.0, 0.0, 0.0, 0.0, 0.0, 0.0, 0.0, 0.0, 0.0, 0.0, 1.747688543768663E9, 0.0, 2025-05-19 23:02:23.768
154.0, 23717.7489659487, 20739.11079634557, 48492.98131382243, 31874.772235724, 38394.574927636975, 4456.356699032391, 9905.756700725164, 2090.8492315827884, 0.0, 0.0, 15147.106665027937, -14015.840174655936, 9371.8629326657, 1770.012291671311, -20284.386907146803, -32966.85611806585, 0.056109375, -0.0029375, 1.0263828125, 192.0, 0.5, 96.0, 127.5, 112.0, 16.0, 0.0, 0.0, 0.0, 0.0, 1.747688543776681E9, 0.0, 2025-05-19 23:02:23.776
156.0, 23713.904465902386, 20740.787177179718, 48486.58871490821, 31889.859663231335, 38393.14441599183, 4481.390652822334, 9900.72755822272, 2078.0193302654425, 0.0, 0.0, 15156.852025610451, -14004.932523361746, 9393.030034664875, 1800.656533319537, -20258.548290556468, -32943.2750276655, 0.056109375, -0.0029375, 1.0263828125, 192.0, 0.0, 0.0, 0.0, 0.0, 0.0, 0.0, 0.0, 0.0, 0.0, 1.747688543783728E9, 0.0, 2025-05-19 23:02:23.783
158.0, 23697.92296861684, 20732.606438709074, 48482.16306950606, 31864.40102629674, 38381.07447398597, 4469.521876516566, 9867.110534561936, 2071.6043796067693, 0.0, 0.0, 15144.245641737658, -14019.304695046509, 9384.201095605027, 1774.0579574177216, -20285.54919785848, -32960.50822264054, 0.056109375, -0.0029375, 1.0263828125, 192.0, 0.0, 0.0, 0.0, 0.0, 0.0, 0.0, 0.0, 0.0, 0.0, 1.747688543792726E9, 0.0, 2025-05-19 23:02:23.792
160.0, 23707.869494899453, 20740.988342879813, 48484.934685818516, 31887.93741320818, 38384.851918798915, 4481.748280733619, 9935.037485961615, 2091.0951007717968, 0.0, 0.0, 15142.435150436779, -14014.856697899902, 9371.170028587583, 1780.919942965501, -20276.139113442794, -32963.4810046531, 0.056109375, -0.0029375, 1.0263828125, 192.0, 0.0, 0.0, 0.0, 0.0, 0.0, 0.0, 0.0, 0.0, 0.0, 1.747688543800709E9, 0.0, 2025-05-19 23:02:23.800
162.0, 23701.432192496326, 20728.471365984842, 48484.77822360733, 31881.187186382675, 38387.22120371118, 4485.83864996894, 9879.471049245722, 2071.9843592625093, 0.0, 0.0, 15145.922022571805, -14007.570029207473, 9398.752081245433, 1800.365960641618, -20263.979764459105, -32939.38582413028, 0.056109375, -0.0029375, 1.0263828125, 192.0, 0.0, 0.0, 0.0, 0.0, 0.0, 0.0, 0.0, 0.0, 0.0, 1.747688543807767E9, 0.0, 2025-05-19 23:02:23.807
164.0, 23704.382622764424, 20729.47719448533, 48487.75100561989, 31873.855814201335, 38388.78582582305, 4456.624919965854, 9898.112404121448, 2079.7851180774114, 0.0, 0.0, 15141.026990536093, -14015.639008955839, 9372.153505343616, 1768.402966070529, -20287.426744392724, -32970.8347285789, 0.0580546875, -0.00346875, 1.0261914062500002, 192.0, 0.5, 112.0, 127.5, 112.0, 16.0, 8.0, 0.0, 0.0, 0.0, 1.747688543815769E9, 0.0, 2025-05-19 23:02:23.815
166.0, 23695.93366336032, 20722.950485104382, 48481.6936828725, 31885.50107306255, 38397.74887534963, 4476.830896953452, 9897.732424465708, 2074.711272086057, 0.0, 0.0, 15153.611022664432, -14009.045244341523, 9388.492630540446, 1797.5943443291599, -20258.503587067557, -32948.03594923448, 0.0580546875, -0.00346875, 1.0261914062500002, 192.0, 0.0, 0.0, 0.0, 0.0, 0.0, 0.0, 0.0, 0.0, 0.0, 1.747688543824777E9, 0.0, 2025-05-19 23:02:23.824
168.0, 23687.574110934034, 20709.874714598027, 48468.014415265854, 31850.92292439019, 38371.1055959589, 4456.982547877139, 9872.966691609226, 2066.0834987263083, 0.0, 0.0, 15123.547926372043, -14031.978134152669, 9369.985386131453, 1761.1833526114647, -20297.39562241979, -32972.15348150176, 0.0580546875, -0.00346875, 1.0261914062500002, 192.0, 0.0, 0.0, 0.0, 0.0, 0.0, 0.0, 0.0, 0.0, 0.0, 1.747688543833866E9, 0.0, 2025-05-19 23:02:23.833
170.0, 23712.138678090418, 20738.239078311814, 48487.371025964145, 31882.237718372075, 38407.40482895432, 4461.341138045924, 9911.948133939282, 2085.9094960581656, 0.0, 0.0, 15138.389484690368, -14022.948029392724, 9366.006775618407, 1771.4875068053614, -20276.362630887346, -32971.75115010156, 0.0580546875, -0.00346875, 1.0261914062500002, 192.0, 0.0, 0.0, 0.0, 0.0, 0.0, 0.0, 0.0, 0.0, 0.0, 1.747688543839928E9, 0.0, 2025-05-19 23:02:23.839
172.0, 23698.72763141723, 20726.48206072832, 48479.57026714925, 31871.575936266894, 38403.06859052999, 4471.824106195463, 9860.203845525248, 2069.0115772499535, 0.0, 0.0, 15149.587708662477, -14011.213363553688, 9397.679197511578, 1789.748882025347, -20268.80774126145, -32947.4771556231, 0.0580546875, -0.00346875, 1.0261914062500002, 192.0, 0.0, 0.0, 0.0, 0.0, 0.0, 0.0, 0.0, 0.0, 0.0, 1.747688543847933E9, 0.0, 2025-05-19 23:02:23.847
174.0, 23705.611968709465, 20730.706540430372, 48474.094089757695, 31860.467119272605, 38389.970468279185, 4450.053507095994, 9899.162936110848, 2077.4381849096044, 0.0, 0.0, 15135.863737566917, -14022.67980845926, 9368.37606053067, 1752.8685036740906, -20300.368404432345, -32981.429455450714, 0.05802734375, -0.003734375, 1.0260957031250002, 192.0, 0.5, 104.0, 127.5, 112.0, 16.0, 8.0, 0.0, 0.0, 0.0, 1.747688543856875E9, 0.0, 2025-05-19 23:02:23.856
176.0, 23699.375832006437, 20727.264371784255, 48474.943456046996, 31876.58272702488, 38400.40873293981, 4470.147725361315, 9891.853915673963, 2068.162210960652, 0.0, 0.0, 15140.937583558272, -14018.410625268296, 9381.652996737123, 1785.4573470899281, -20270.05943895095, -32957.26721969452, 0.05802734375, -0.003734375, 1.0260957031250002, 192.0, 0.0, 0.0, 0.0, 0.0, 0.0, 0.0, 0.0, 0.0, 0.0, 1.747688543863931E9, 0.0, 2025-05-19 23:02:23.863
178.0, 23695.374869748935, 20723.53163046022, 48473.93762754651, 31855.236811070063, 38383.68962808724, 4465.967949148172, 9858.460409457733, 2061.8366672798, 0.0, 0.0, 15127.034798507071, -14032.201651597221, 9372.37702278817, 1762.7032712344255, -20294.087564240406, -32973.09225476888, 0.05802734375, -0.003734375, 1.0260957031250002, 192.0, 0.0, 0.0, 0.0, 0.0, 0.0, 0.0, 0.0, 0.0, 0.0, 1.747688543871935E9, 0.0, 2025-05-19 23:02:23.871
180.0, 23712.272788557148, 20743.156462091978, 48482.7442148619, 31885.70223876265, 38392.92089854728, 4471.086498628438, 9920.240631132201, 2081.9532372895765, 0.0, 0.0, 15138.18831899027, -14016.667189200782, 9369.180723331061, 1775.7119865074144, -20274.86506400884, -32968.26427796653, 0.05802734375, -0.003734375, 1.0260957031250002, 192.0, 0.0, 0.0, 0.0, 0.0, 0.0, 0.0, 0.0, 0.0, 0.0, 1.747688543880033E9, 0.0, 2025-05-19 23:02:23.880
182.0, 23690.83746562451, 20728.04668284019, 48475.61400838065, 31877.521500292005, 38382.92966877576, 4488.453804070211, 9878.509924234144, 2071.671434840135, 0.0, 0.0, 15142.502205670144, -14007.324160018465, 9397.075700411284, 1795.8956117505566, -20265.186758659693, -32941.03985321997, 0.05802734375, -0.003734375, 1.0260957031250002, 192.0, 0.0, 0.0, 0.0, 0.0, 0.0, 0.0, 0.0, 0.0, 0.0, 1.747688543889125E9, 0.0, 2025-05-19 23:02:23.889
184.0, 23694.056116826072, 20728.896049129493, 48474.11644150215, 31866.92677342019, 38369.80919478049, 4464.313920058479, 9903.588581512999, 2090.60336239378, 0.0, 0.0, 15125.17960371728, -14021.830442169958, 9363.592787217234, 1760.5128002778056, -20295.875703796828, -32973.53928965799, 0.058013671875000006, -0.0048671875, 1.0280478515625, 192.0, 0.5, 104.0, 127.5, 104.0, 16.0, 24.0, 0.0, 0.0, 0.0, 1.747688543896077E9, 0.0, 2025-05-19 23:02:23.896
186.0, 23697.811209894564, 20734.305171287677, 48481.96190380596, 31892.810093499436, 38394.82079682598, 4488.207934881203, 9905.019093158138, 2084.680150113124, 0.0, 0.0, 15136.444882922755, -14010.58751470894, 9383.731708971467, 1796.3873501285734, -20263.30921212545, -32947.6783213232, 0.058013671875000006, -0.0048671875, 1.0280478515625, 192.0, 0.0, 0.0, 0.0, 0.0, 0.0, 0.0, 0.0, 0.0, 0.0, 1.747688543904163E9, 0.0, 2025-05-19 23:02:23.904
188.0, 23701.745116918697, 20739.468424256855, 48484.15237476258, 31873.96757292361, 38389.99282002364, 4485.525725546566, 9867.445810728766, 2081.3720919337384, 0.0, 0.0, 15140.423493435801, -14012.040378098534, 9388.157354373618, 1781.5234400657941, -20279.87185476683, -32951.94750451416, 0.058013671875000006, -0.0048671875, 1.0280478515625, 192.0, 0.0, 0.0, 0.0, 0.0, 0.0, 0.0, 0.0, 0.0, 0.0, 1.747688543912169E9, 0.0, 2025-05-19 23:02:23.912
190.0, 23717.860724670976, 20750.979572651337, 48483.12419451764, 31888.049171930455, 38399.827587583975, 4483.044681912027, 9900.861668689451, 2081.7297198450233, 0.0, 0.0, 15147.196072005758, -14004.932523361746, 9379.529581013869, 1783.8033180002355, -20271.333488384902, -32958.58597261739, 0.058013671875000006, -0.0048671875, 1.0280478515625, 192.0, 0.0, 0.0, 0.0, 0.0, 0.0, 0.0, 0.0, 0.0, 0.0, 1.74768854392019E9, 0.0, 2025-05-19 23:02:23.920
192.0, 23696.201884293783, 20728.940752618404, 48471.18836297851, 31868.178471109688, 38395.53605264855, 4487.135051147348, 9860.628528669899, 2058.260388166951, 0.0, 0.0, 15141.049342280548, -14009.693444930726, 9396.919238200098, 1790.553544825738, -20272.942813985686, -32949.3770539018, 0.058013671875000006, -0.0048671875, 1.0280478515625, 192.0, 0.0, 0.0, 0.0, 0.0, 0.0, 0.0, 0.0, 0.0, 0.0, 1.747688543928187E9, 0.0, 2025-05-19 23:02:23.928
194.0, 23698.146486061396, 20724.58216244962, 48474.943456046996, 31857.024950626488, 38389.50108164562, 4447.304242527991, 9887.115345849437, 2067.0222719934313, 0.0, 0.0, 15127.682999096276, -14032.268706830588, 9359.211845303995, 1750.0745356171772, -20303.989387034107, -32989.85606311036, 0.061006835937500004, -0.00543359375, 1.03002392578125, 192.0, 1.0, 0.0, 127.5, 104.0, 16.0, 32.0, 0.0, 0.0, 0.0, 1.747688543936241E9, 0.0, 2025-05-19 23:02:23.936
196.0, 23695.844256382497, 20723.419871737944, 48474.96580779145, 31877.00741016953, 38397.95004104973, 4491.9406762052395, 9898.268866332635, 2059.355623645261, 0.0, 0.0, 15141.786949847574, -14020.668151458283, 9376.37798504567, 1785.144422667554, -20268.763037772544, -32962.47517615261, 0.061006835937500004, -0.00543359375, 1.03002392578125, 192.0, 0.0, 0.0, 0.0, 0.0, 0.0, 0.0, 0.0, 0.0, 0.0, 1.747688543945255E9, 0.0, 2025-05-19 23:02:23.945
198.0, 23683.21552076525, 20710.031176809214, 48463.72288033043, 31847.503107488526, 38379.062816984995, 4459.150667089304, 9873.681947431796, 2054.840571265289, 0.0, 0.0, 15129.538193886066, -14034.97326790968, 9370.387717531648, 1758.657605488015, -20298.535561387012, -32978.94841181617, 0.061006835937500004, -0.00543359375, 1.03002392578125, 192.0, 0.0, 0.0, 0.0, 0.0, 0.0, 0.0, 0.0, 0.0, 0.0, 1.747688543951255E9, 0.0, 2025-05-19 23:02:23.951
200.0, 23698.571169206047, 20726.61617119505, 48478.45267992648, 31880.829558471392, 38391.9597735357, 4469.253655583102, 9907.500136792676, 2073.2137052075514, 0.0, 0.0, 15130.253449708636, -14026.30079106102, 9359.681231937557, 1762.2562363453194, -20292.21001770616, -32980.04364729448, 0.061006835937500004, -0.00543359375, 1.03002392578125, 192.0, 0.0, 0.0, 0.0, 0.0, 0.0, 0.0, 0.0, 0.0, 0.0, 1.747688543960275E9, 0.0, 2025-05-19 23:02:23.960
202.0, 23688.602291178977, 20717.76488039075, 48479.5926188937, 31876.15804388023, 38397.39124743835, 4482.821164467474, 9872.877284631406, 2066.0834987263083, 0.0, 0.0, 15139.641182379864, -14016.622485711872, 9392.582999775768, 1792.1852221709755, -20268.114837183337, -32946.247809678054, 0.061006835937500004, -0.00543359375, 1.03002392578125, 192.0, 0.0, 0.0, 0.0, 0.0, 0.0, 0.0, 0.0, 0.0, 0.0, 1.74768854396834E9, 0.0, 2025-05-19 23:02:23.968
204.0, 23704.002643108684, 20730.72889217483, 48484.085319529215, 31873.341724078862, 38388.65171535632, 4465.1185828588705, 9895.474898275721, 2084.389577435205, 0.0, 0.0, 15132.063941009515, -14022.366884036886, 9367.705508197012, 1763.172657867987, -20292.344128172892, -32972.42170243522, 0.061006835937500004, -0.00543359375, 1.03002392578125, 192.0, 0.0, 0.0, 0.0, 0.0, 0.0, 0.0, 0.0, 0.0, 0.0, 1.747688543977366E9, 0.0, 2025-05-19 23:02:23.977
206.0, 23697.677099427834, 20726.906743872973, 48486.36519746366, 31894.285308633487, 38391.89271830234, 4485.615132524387, 9898.872363432929, 2080.9921122779983, 0.0, 0.0, 15147.844272594963, -14005.603075695406, 9392.493592797946, 1798.0637309627214, -20260.15761615725, -32944.07969046589, 0.06, -0.008, 1.038, 192.0, 0.5, 112.0, 127.5, 96.0, 16.0, 56.0, 0.0, 0.0, 0.0, 1.747688543984386E9, 0.0, 2025-05-19 23:02:23.984
208.0, 23694.54785520409, 20720.87177287004, 48487.728653875434, 31874.615773512814, 38379.487500129646, 4477.9708359206725, 9872.251435786657, 2082.735548345512, 0.0, 0.0, 15143.642144637364, -14011.503936231606, 9394.169973632095, 1777.142498152554, -20283.425782135222, -32956.261391194035, 0.06, -0.008, 1.038, 192.0, 0.0, 0.0, 0.0, 0.0, 0.0, 0.0, 0.0, 0.0, 0.0, 1.747688543992435E9, 0.0, 2025-05-19 23:02:23.992
210.0, 23710.417593767357, 20736.696807944394, 48495.015322567866, 31895.98404121209, 38393.8596718144, 4481.815335966985, 9911.948133939282, 2097.733568875023, 0.0, 0.0, 15152.493435441665, -14002.965569849679, 9384.916351427597, 1783.4903935778611, -20271.48995059609, -32958.54126912847, 0.06, -0.008, 1.038, 192.0, 0.0, 0.0, 0.0, 0.0, 0.0, 0.0, 0.0, 0.0, 0.0, 1.747688544000511E9, 0.0, 2025-05-19 23:02:24.000
212.0, 23693.542026703602, 20718.94952284688, 48484.66646488506, 31879.376695081795, 38392.31740144699, 4484.229324368158, 9885.10368884846, 2078.3322546878167, 0.0, 0.0, 15155.3768104764, -14004.843116383925, 9405.43525283757, 1801.6847135644812, -20260.694058024175, -32936.390690373264, 0.06, -0.008, 1.038, 192.0, 0.0, 0.0, 0.0, 0.0, 0.0, 0.0, 0.0, 0.0, 0.0, 1.747688544007515E9, 0.0, 2025-05-19 23:02:24.007
214.0, 23693.430267981323, 20719.91064785846, 48478.698549115485, 31869.40781705473, 38382.616744353385, 4459.083611855938, 9893.485593019199, 2089.7539961044786, 0.0, 0.0, 15132.622734620898, -14025.451424771718, 9366.498513996425, 1762.1221258785877, -20294.556950873968, -32972.62286813532, 0.06, -0.008, 1.038, 192.0, 0.0, 0.0, 0.0, 0.0, 0.0, 0.0, 0.0, 0.0, 0.0, 1.747688544016551E9, 0.0, 2025-05-19 23:02:24.016
216.0, 23696.53716046061, 20721.989360092804, 48483.884153829116, 31889.658497531236, 38397.83828232745, 4482.731757489652, 9903.72269197973, 2088.6587606261683, 0.0, 0.0, 15139.261202724125, -14013.739110677137, 9383.307025826816, 1798.0637309627214, -20259.129435912306, -32944.10204221035, 0.058, -0.01, 1.038, 192.0, 0.5, 104.0, 127.5, 88.0, 16.0, 56.0, 0.0, 0.0, 0.0, 1.747688544024551E9, 0.0, 2025-05-19 23:02:24.024
218.0, 23676.800570106578, 20701.693976127386, 48465.0416332533, 31853.694540702647, 38372.066720970484, 4452.579254219443, 9860.80734262554, 2070.9561790175653, 0.0, 0.0, 15127.682999096276, -14032.58163125296, 9373.293444310839, 1766.7265852363807, -20296.613311363853, -32964.799757575965, 0.058, -0.01, 1.038, 192.0, 0.0, 0.0, 0.0, 0.0, 0.0, 0.0, 0.0, 0.0, 0.0, 1.747688544032602E9, 0.0, 2025-05-19 23:02:24.032
220.0, 23693.094991814494, 20714.255656511268, 48481.4925171724, 31879.667267759716, 38398.2629654721, 4458.144838588815, 9897.173630854324, 2073.8842575412104, 0.0, 0.0, 15131.482795653677, -14027.083102116956, 9360.217673804484, 1765.7654602248026, -20289.617215349343, -32974.656876880756, 0.058, -0.01, 1.038, 192.0, 0.0, 0.0, 0.0, 0.0, 0.0, 0.0, 0.0, 0.0, 0.0, 1.747688544039669E9, 0.0, 2025-05-19 23:02:24.039
222.0, 23686.590634178, 20714.85915361156, 48485.20290675198, 31879.48845380407, 38400.20756723971, 4476.629731253353, 9863.914235104829, 2073.727795330023, 0.0, 0.0, 15140.982287047183, -14019.036474113045, 9390.90661894162, 1789.0559779472326, -20270.81939826243, -32950.13701321328, 0.058, -0.01, 1.038, 192.0, 0.0, 0.0, 0.0, 0.0, 0.0, 0.0, 0.0, 0.0, 0.0, 1.74768854404864E9, 0.0, 2025-05-19 23:02:24.048
224.0, 23694.793724393097, 20723.73279616032, 48484.30883697377, 31872.179433367186, 38380.247459441125, 4461.1846758347365, 9894.267904075135, 2078.4216616656377, 0.0, 0.0, 15135.975496289195, -14022.143366592332, 9371.348842543226, 1759.104640377121, -20295.78629681901, -32978.546080415974, 0.058, -0.01, 1.038, 192.0, 0.0, 0.0, 0.0, 0.0, 0.0, 0.0, 0.0, 0.0, 0.0, 1.747688544056648E9, 0.0, 2025-05-19 23:02:24.056
226.0, 23705.388451264913, 20732.494679986798, 48491.50609868838, 31900.45439010315, 38391.64684911333, 4488.252638370113, 9899.833488444507, 2076.544115131392, 0.0, 0.0, 15154.460388953734, -14001.490354715628, 9399.556744045824, 1798.9578007409336, -20260.358781857347, -32946.60543758934, 0.058, -0.01, 1.034, 192.0, 0.5, 104.0, 127.5, 88.0, 16.0, 40.0, 0.0, 0.0, 0.0, 1.747688544063686E9, 0.0, 2025-05-19 23:02:24.063
228.0, 23698.034727339116, 20723.464575226855, 48487.795709108796, 31875.39808456875, 38386.41654091079, 4473.925170174261, 9846.23400524068, 2062.2389986799953, 0.0, 0.0, 15145.720856871709, -14010.498107731119, 9398.014473678408, 1778.8635824756125, -20284.230444935616, -32957.06605399443, 0.058, -0.01, 1.034, 192.0, 0.0, 0.0, 0.0, 0.0, 0.0, 0.0, 0.0, 0.0, 0.0, 1.747688544071741E9, 0.0, 2025-05-19 23:02:24.071
230.0, 23710.88698040092, 20737.85909865607, 48497.74223539141, 31899.8285412584, 38391.557442135505, 4480.898914444318, 9900.794613456084, 2083.428452423627, 0.0, 0.0, 15151.465255196723, -14003.479659972152, 9386.548028772835, 1780.428204587484, -20275.289747153492, -32964.39742617577, 0.058, -0.01, 1.034, 192.0, 0.0, 0.0, 0.0, 0.0, 0.0, 0.0, 0.0, 0.0, 0.0, 1.747688544082746E9, 0.0, 2025-05-19 23:02:24.082
232.0, 23707.35540477698, 20738.90963064547, 48502.92784010504, 31900.968480225623, 38393.524395647575, 4497.618019296887, 9890.825735429018, 2077.348777931783, 0.0, 0.0, 15163.132865802392, -13992.594360422418, 9418.399264621648, 1810.9606875134334, -20252.781540486998, -32930.400422859246, 0.058, -0.01, 1.034, 192.0, 0.0, 0.0, 0.0, 0.0, 0.0, 0.0, 0.0, 0.0, 0.0, 1.747688544089809E9, 0.0, 2025-05-19 23:02:24.089
234.0, 23707.22129431025, 20740.943639390905, 48504.98420059493, 31895.51465457853, 38390.730427590664, 4478.2614085985915, 9897.039520387592, 2091.586839149814, 0.0, 0.0, 15153.767484875618, -13998.76344189208, 9394.371139332192, 1783.5798005556824, -20274.01569771954, -32954.76382431553, 0.058, -0.01, 1.034, 192.0, 0.0, 0.0, 0.0, 0.0, 0.0, 0.0, 0.0, 0.0, 0.0, 1.747688544095809E9, 0.0, 2025-05-19 23:02:24.095
236.0, 23705.097878586996, 20734.95337187688, 48499.73154064793, 31909.059811718445, 38402.57685215198, 4486.285684858047, 9900.861668689451, 2081.282684955917, 0.0, 0.0, 15168.09495307147, -13986.179409763743, 9411.604334307234, 1813.844062548168, -20247.28301135099, -32929.72987052559, 0.058, -0.004, 1.034, 192.0, 0.5, 104.0, 127.5, 112.0, 16.0, 40.0, 0.0, 0.0, 0.0, 1.747688544104859E9, 0.0, 2025-05-19 23:02:24.104
238.0, 23696.06777382705, 20722.883429871017, 48486.320493974745, 31872.671171745205, 38376.3582559059, 4463.151629346804, 9859.265072258124, 2069.480963883515, 0.0, 0.0, 15146.816092350018, -14008.799375152514, 9398.439156823059, 1779.6011900426377, -20286.957357759162, -32954.20503070415, 0.058, -0.004, 1.034, 192.0, 0.0, 0.0, 0.0, 0.0, 0.0, 0.0, 0.0, 0.0, 0.0, 1.747688544113029E9, 0.0, 2025-05-19 23:02:24.113
240.0, 23705.187285564814, 20733.165232320458, 48488.08628178672, 31889.300869619954, 38389.09875024542, 4472.204085851203, 9912.417520572844, 2082.9367140456097, 0.0, 0.0, 15149.006563306639, -14007.972360607668, 9381.541238014846, 1781.076405176688, -20275.848540764873, -32962.31871394142, 0.058, -0.004, 1.034, 192.0, 0.0, 0.0, 0.0, 0.0, 0.0, 0.0, 0.0, 0.0, 0.0, 1.747688544120072E9, 0.0, 2025-05-19 23:02:24.120
242.0, 23696.425401738335, 20723.933961860414, 48481.6936828725, 31885.277555618, 38391.80331132452, 4487.604437780909, 9869.4798194742, 2071.425565651127, 0.0, 0.0, 15145.653801638342, -14008.35234026341, 9401.121366157695, 1796.7896815287688, -20270.23825290659, -32940.43635611968, 0.058, -0.004, 1.034, 192.0, 0.0, 0.0, 0.0, 0.0, 0.0, 0.0, 0.0, 0.0, 0.0, 1.747688544127913E9, 0.0, 2025-05-19 23:02:24.127
244.0, 23701.342785518504, 20729.3430840186, 48485.71699687446, 31880.40487532674, 38382.43793039774, 4466.5043910151, 9877.52644747811, 2078.511068643459, 0.0, 0.0, 15139.75294110214, -14012.912096132291, 9378.456697280013, 1767.9559311814228, -20292.478238639622, -32966.92317329922, 0.058, -0.004, 1.034, 192.0, 0.0, 0.0, 0.0, 0.0, 0.0, 0.0, 0.0, 0.0, 0.0, 1.74768854413701E9, 0.0, 2025-05-19 23:02:24.137
246.0, 23700.292253529104, 20731.622961953042, 48492.064892299764, 31904.18713142719, 38397.860634071905, 4488.319693603479, 9901.174593111826, 2082.199106478585, 0.0, 0.0, 15156.71791514372, -13996.371805235363, 9401.05431092433, 1805.1492339550537, -20255.10612191035, -32938.96114098563, 0.056, -0.006, 1.034, 192.0, 0.5, 96.0, 127.5, 104.0, 16.0, 40.0, 0.0, 0.0, 0.0, 1.747688544144066E9, 0.0, 2025-05-19 23:02:24.144
248.0, 23691.932701102818, 20720.80471763667, 48485.71699687446, 31875.129863635288, 38388.3611426784, 4477.2108766091915, 9852.604252410443, 2073.5266296299255, 0.0, 0.0, 15142.681019625787, -14010.609866453395, 9394.617008521202, 1780.49525982085, -20283.381078646315, -32954.74147257108, 0.056, -0.006, 1.034, 192.0, 0.0, 0.0, 0.0, 0.0, 0.0, 0.0, 0.0, 0.0, 0.0, 1.747688544152043E9, 0.0, 2025-05-19 23:02:24.152
250.0, 23703.421497752846, 20735.15453757698, 48493.78597662282, 31893.167721410722, 38397.07832301597, 4475.400385308312, 9904.683816991308, 2092.324446716839, 0.0, 0.0, 15148.961859817728, -14002.943218105223, 9383.28467408236, 1781.7022540214366, -20271.177026173715, -32961.42464416321, 0.056, -0.006, 1.034, 192.0, 0.0, 0.0, 0.0, 0.0, 0.0, 0.0, 0.0, 0.0, 0.0, 1.747688544160177E9, 0.0, 2025-05-19 23:02:24.160
252.0, 23690.032802824117, 20719.329502502624, 48484.73352011842, 31885.791645740468, 38388.1599769783, 4492.767690750085, 9876.922950377817, 2076.1641354756516, 0.0, 0.0, 15150.794702863062, -14002.496183216117, 9407.089281927263, 1799.6060013301376, -20259.82233999042, -32939.49758285256, 0.056, -0.006, 1.034, 192.0, 0.0, 0.0, 0.0, 0.0, 0.0, 0.0, 0.0, 0.0, 0.0, 1.747688544169104E9, 0.0, 2025-05-19 23:02:24.169
254.0, 23698.906445372875, 20726.370302006042, 48489.4944416874, 31880.337820093373, 38387.69059034474, 4490.55486804901, 9882.913217891839, 2079.963932033054, 0.0, 0.0, 15138.277725968092, -14013.96262812169, 9377.607330990711, 1761.1162973780988, -20295.49572414109, -32971.90761231275, 0.056, -0.006, 1.034, 192.0, 0.0, 0.0, 0.0, 0.0, 0.0, 0.0, 0.0, 0.0, 0.0, 1.747688544176077E9, 0.0, 2025-05-19 23:02:24.176
0.0, 23712.652768212887, 20738.596706223096, 48495.17178477905, 31908.32220415142, 38400.721657362184, 4489.549039548521, 9905.62259025843, 2078.891048299199, 0.0, 0.0, 15164.228101280702, -13991.923808088757, 9404.228258636984, 1799.9859809858779, -20257.207185889147, -32941.97862648709, 0.058, -0.004, 1.034, 192.0, 0.5, 104.0, 127.5, 112.0, 16.0, 40.0, 0.0, 0.0, 0.0, 1.747688544184107E9, 0.0, 2025-05-19 23:02:24.184
2.0, 23701.476895985234, 20726.48206072832, 48484.35354046268, 31878.974363681602, 38371.03854072554, 4467.4655160266775, 9869.770392152119, 2074.577161619325, 0.0, 0.0, 15153.208691264235, -14000.842154126425, 9403.803575492331, 1779.0647481757103, -20286.264453681048, -32952.483946381086, 0.058, -0.004, 1.034, 192.0, 0.0, 0.0, 0.0, 0.0, 0.0, 0.0, 0.0, 0.0, 0.0, 1.747688544192197E9, 0.0, 2025-05-19 23:02:24.192
4.0, 23719.60416073849, 20745.145767348502, 48498.3457324917, 31903.06954420442, 38401.72748586267, 4473.992225407627, 9903.700340235275, 2088.2117257370624, 0.0, 0.0, 15160.294194256569, -13996.282398257543, 9391.443060808548, 1780.7411290098585, -20276.92142449873, -32959.547097628965, 0.058, -0.004, 1.034, 192.0, 0.0, 0.0, 0.0, 0.0, 0.0, 0.0, 0.0, 0.0, 0.0, 1.747688544200266E9, 0.0, 2025-05-19 23:02:24.200
6.0, 23702.013337852164, 20728.80664215167, 48490.656732399075, 31891.40193359875, 38401.705134118216, 4485.168097635281, 9869.993909596671, 2078.3099029433615, 0.0, 0.0, 15161.85881636844, -13993.019043567068, 9416.968752976509, 1804.2775159212968, -20258.213014389636, -32935.071937450404, 0.058, -0.004, 1.034, 192.0, 0.0, 0.0, 0.0, 0.0, 0.0, 0.0, 0.0, 0.0, 0.0, 1.747688544208252E9, 0.0, 2025-05-19 23:02:24.208
8.0, 23711.289311801116, 20739.133148090023, 48489.74031087641, 31883.668230017214, 38396.20660498221, 4473.142859118326, 9888.612912727942, 2091.7209496165456, 0.0, 0.0, 15151.3758482189, -14008.978189108157, 9384.893999683143, 1771.6439690165485, -20286.10799146986, -32965.403254676254, 0.058, -0.004, 1.034, 192.0, 0.0, 0.0, 0.0, 0.0, 0.0, 0.0, 0.0, 0.0, 0.0, 1.747688544216302E9, 0.0, 2025-05-19 23:02:24.216
10.0, 23713.36802403546, 20737.881450400528, 48490.43321495452, 31904.678869805204, 38399.89464281734, 4487.827955225463, 9906.427253058822, 2086.088310013808, 0.0, 0.0, 15159.355420989445, -13993.86840985637, 9400.517869057401, 1800.589478086171, -20260.045857434972, -32942.827992776394, 0.06, -0.002, 1.036, 192.0, 0.5, 112.0, 127.5, 120.0, 16.0, 48.0, 0.0, 0.0, 0.0, 1.74768854422534E9, 0.0, 2025-05-19 23:02:24.225
12.0, 23691.999756336183, 20718.971874591338, 48476.463374669955, 31869.430168799183, 38375.64300008333, 4461.721117701664, 9845.965784307216, 2072.7219668295347, 0.0, 0.0, 15142.14457775886, -14011.39217750933, 9394.929932943574, 1773.946198695445, -20291.360651416857, -32959.882373795794, 0.06, -0.002, 1.036, 192.0, 0.0, 0.0, 0.0, 0.0, 0.0, 0.0, 0.0, 0.0, 0.0, 1.747688544231341E9, 0.0, 2025-05-19 23:02:24.231
14.0, 23707.243646054703, 20737.456767255877, 48492.8472033557, 31897.59336681287, 38393.18911948075, 4474.752184719108, 9909.57884902702, 2084.2331152240176, 0.0, 0.0, 15149.85592959594, -14004.217267539176, 9384.514020027402, 1773.1191841505986, -20285.616253091845, -32967.57137388842, 0.06, -0.002, 1.036, 192.0, 0.0, 0.0, 0.0, 0.0, 0.0, 0.0, 0.0, 0.0, 0.0, 1.747688544240473E9, 0.0, 2025-05-19 23:02:24.240
16.0, 23703.577959964034, 20731.71236893086, 48494.300066745294, 31893.63710804428, 38399.78288409506, 4493.550001806021, 9868.228121784703, 2071.9173040291435, 0.0, 0.0, 15163.021107080116, -13997.265875013576, 9413.638343052668, 1799.0025042298441, -20261.319906868925, -32940.391652630766, 0.06, -0.002, 1.036, 192.0, 0.0, 0.0, 0.0, 0.0, 0.0, 0.0, 0.0, 0.0, 0.0, 1.747688544248434E9, 0.0, 2025-05-19 23:02:24.248
18.0, 23708.07066059955, 20734.931020132426, 48489.58384866522, 31878.527328792494, 38388.85288105642, 4476.137992875337, 9880.901560890861, 2075.8288593088223, 0.0, 0.0, 15148.671287139809, -14006.988883851634, 9388.09029914025, 1761.786849711758, -20292.25472119507, -32974.67922862521, 0.06, -0.002, 1.036, 192.0, 0.0, 0.0, 0.0, 0.0, 0.0, 0.0, 0.0, 0.0, 0.0, 1.747688544256404E9, 0.0, 2025-05-19 23:02:24.256
20.0, 23705.388451264913, 20737.032084111226, 48492.57898242224, 31900.722611036614, 38402.50979691861, 4486.643312769332, 9903.454471046267, 2074.5101063859593, 0.0, 0.0, 15158.975441333705, -13995.455383712697, 9404.272962125893, 1796.588515828671, -20258.01184868954, -32950.248771935556, 0.064, -0.002, 1.028, 192.0, 1.0, 0.0, 127.5, 120.0, 16.0, 16.0, 0.0, 0.0, 0.0, 1.747688544263492E9, 0.0, 2025-05-19 23:02:24.263
22.0, 23694.100820314983, 20721.363511248055, 48482.341883461704, 31873.855814201335, 38377.34173266193, 4479.043719654527, 9861.544950192565, 2062.93190275811, 0.0, 0.0, 15142.591612647966, -14010.833383897947, 9397.254514366927, 1773.1638876395093, -20289.885436282806, -32962.76574883053, 0.064, -0.002, 1.028, 192.0, 0.0, 0.0, 0.0, 0.0, 0.0, 0.0, 0.0, 0.0, 0.0, 1.747688544272462E9, 0.0, 2025-05-19 23:02:24.272
24.0, 23716.8995996594, 20743.715255703362, 48495.93174409053, 31899.873244747312, 38395.24547997063, 4480.250713855114, 9903.543878024087, 2089.731644360023, 0.0, 0.0, 15152.918118586316, -14000.663340170782, 9386.95036017303, 1780.4058528430287, -20273.903938997264, -32962.98926627508, 0.064, -0.002, 1.028, 192.0, 0.0, 0.0, 0.0, 0.0, 0.0, 0.0, 0.0, 0.0, 0.0, 1.747688544280539E9, 0.0, 2025-05-19 23:02:24.280
26.0, 23701.63335819642, 20731.421796252944, 48485.06879628525, 31889.658497531236, 38387.310610689, 4489.884315715351, 9864.830656627495, 2072.699615085079, 0.0, 0.0, 15155.108589542937, -13995.924770346257, 9411.894906985153, 1802.779949042791, -20260.96227895764, -32937.19535317366, 0.064, -0.002, 1.028, 192.0, 0.0, 0.0, 0.0, 0.0, 0.0, 0.0, 0.0, 0.0, 0.0, 1.747688544287556E9, 0.0, 2025-05-19 23:02:24.287
28.0, 23705.053175098084, 20732.33821777561, 48492.57898242224, 31885.434017829186, 38385.03073275456, 4473.656949240798, 9881.438002757788, 2087.7870425924116, 0.0, 0.0, 15146.324353972, -14008.82172689697, 9384.737537471956, 1766.6371782585595, -20290.6900990832, -32970.11947275633, 0.064, -0.002, 1.028, 192.0, 0.0, 0.0, 0.0, 0.0, 0.0, 0.0, 0.0, 0.0, 0.0, 1.747688544296644E9, 0.0, 2025-05-19 23:02:24.296
30.0, 23706.059003598573, 20733.18758406491, 48492.26605799986, 31906.064677961433, 38396.69834336023, 4494.756996006608, 9898.313569821545, 2089.8881065712103, 0.0, 0.0, 15159.914214600829, -13989.62157840986, 9403.155374903128, 1801.9752862424, -20256.33546785539, -32942.693882309664, 0.062, -0.002, 1.034, 192.0, 0.5, 120.0, 127.5, 120.0, 16.0, 40.0, 0.0, 0.0, 0.0, 1.747688544304703E9, 0.0, 2025-05-19 23:02:24.304
32.0, 23696.6936226718, 20720.603551936576, 48481.35840670567, 31872.179433367186, 38377.02880823956, 4471.846457939918, 9868.384583995889, 2079.4051384216714, 0.0, 0.0, 15144.80443534904, -14006.63125594035, 9397.34392134475, 1779.8694109761013, -20284.49866586908, -32953.91445802623, 0.062, -0.002, 1.034, 192.0, 0.0, 0.0, 0.0, 0.0, 0.0, 0.0, 0.0, 0.0, 0.0, 1.747688544311649E9, 0.0, 2025-05-19 23:02:24.311
34.0, 23710.417593767357, 20734.685150943416, 48488.779185864834, 31889.479683575595, 38395.17842473727, 4468.717213716175, 9901.62162800093, 2084.546039646392, 0.0, 0.0, 15148.626583650897, -14005.714834417682, 9380.580113003269, 1776.4719458188947, -20279.044840221984, -32967.236097721594, 0.062, -0.002, 1.034, 192.0, 0.0, 0.0, 0.0, 0.0, 0.0, 0.0, 0.0, 0.0, 0.0, 1.74768854431968E9, 0.0, 2025-05-19 23:02:24.319
36.0, 23697.49828547219, 20719.553019947176, 48481.73838636141, 31879.823729970904, 38397.07832301597, 4480.9659696776835, 9865.23298802769, 2068.4304318941154, 0.0, 0.0, 15146.972554561205, -14007.860601885392, 9400.964903946508, 1794.8450797611572, -20266.974898216118, -32948.59474284587, 0.062, -0.002, 1.034, 192.0, 0.0, 0.0, 0.0, 0.0, 0.0, 0.0, 0.0, 0.0, 0.0, 1.747688544328724E9, 0.0, 2025-05-19 23:02:24.328
38.0, 23697.900616872386, 20718.77070889124, 48476.50807815887, 31865.31744781941, 38379.44279664073, 4462.570483990966, 9869.748040407663, 2063.803620791867, 0.0, 0.0, 15135.99784803365, -14023.886802659847, 9371.438249521047, 1756.4894862758501, -20300.278997454527, -32981.67532463972, 0.062, -0.002, 1.034, 192.0, 0.0, 0.0, 0.0, 0.0, 0.0, 0.0, 0.0, 0.0, 0.0, 1.747688544337771E9, 0.0, 2025-05-19 23:02:24.337
40.0, 23709.27765480014, 20727.756110162274, 48481.559572405764, 31893.21242489963, 38388.271735700575, 4496.701597774219, 9880.879209146406, 2074.621865108236, 0.0, 0.0, 15146.324353972, -14004.887819872836, 9390.437232308059, 1789.4136058585175, -20273.054572707963, -32956.328446427404, 0.058, -0.002, 1.034, 192.0, 0.5, 104.0, 127.5, 120.0, 16.0, 40.0, 0.0, 0.0, 0.0, 1.74768854434378E9, 0.0, 2025-05-19 23:02:24.343
42.0, 23694.860779626462, 20719.061281569157, 48484.30883697377, 31875.01810491301, 38380.53803211904, 4464.1798095917475, 9856.471104201211, 2076.633522109213, 0.0, 0.0, 15145.60909814943, -14014.074386843968, 9395.62283702169, 1775.5108208073166, -20292.232369450616, -32960.37411217381, 0.058, -0.002, 1.034, 192.0, 0.0, 0.0, 0.0, 0.0, 0.0, 0.0, 0.0, 0.0, 0.0, 1.747688544351809E9, 0.0, 2025-05-19 23:02:24.351
44.0, 23714.03857636912, 20736.540345733207, 48499.195098781005, 31903.78480002699, 38395.35723869291, 4475.534495775044, 9902.67215999033, 2088.4352431816155, 0.0, 0.0, 15152.940470330772, -14002.67499717176, 9387.598560762235, 1781.5234400657941, -20277.92725299922, -32960.932905785194, 0.058, -0.002, 1.034, 192.0, 0.0, 0.0, 0.0, 0.0, 0.0, 0.0, 0.0, 0.0, 0.0, 1.747688544360836E9, 0.0, 2025-05-19 23:02:24.360
