%OpenBCI Raw EXG Data
%Number of channels = 16
%Sample Rate = 125 Hz
%Board = OpenBCI_GUI$BoardCytonSerialDaisy
Sample Index, EXG Channel 0, EXG Channel 1, EXG Channel 2, EXG Channel 3, EXG Channel 4, EXG Channel 5, EXG Channel 6, EXG Channel 7, EXG Channel 8, EXG Channel 9, EXG Channel 10, EXG Channel 11, EXG Channel 12, EXG Channel 13, EXG Channel 14, EXG Channel 15, Accel Channel 0, Accel Channel 1, Accel Channel 2, Not Used, Digital Channel 0 (D11), Digital Channel 1 (D12), Digital Channel 2 (D13), Digital Channel 3 (D17), Not Used, Digital Channel 4 (D18), Analog Channel 0, Analog Channel 1, Analog Channel 2, Timestamp, Marker Channel, Timestamp (Formatted)
0.0, 22629.10725225297, 18918.136527316157, 48531.493369518925, 33623.37155620713, 44018.38559131451, 2271.339568059393, 7856.0793824290495, 3618.792130803124, 0.0, 0.0, 0.0, 0.0, 0.0, 0.0, 0.0, 0.0, 0.0, 0.0, 0.0, 192.0, 0.0, 0.0, 0.0, 0.0, 0.0, 0.0, 0.0, 0.0, 0.0, 1.747690448509666E9, 0.0, 2025-05-19 23:34:08.509
0.0, 11325.986543415374, 9404.027092936885, 23844.192784332372, 16440.624468401013, 22450.561517543974, 1670.502325356284, 3774.203810000874, 1627.8104934466473, 0.0, 0.0, 4920.110692991101, -11555.024868848905, 7341.966908212532, 2167.672177275679, -6294.877087459217, -16220.30332330505, 0.03, -0.006, 0.517, 192.0, 0.5, 112.0, 127.5, 80.0, 16.0, 40.0, 0.0, 0.0, 0.0, 1.747690448610237E9, 0.0, 2025-05-19 23:34:08.610
2.0, 22652.688342653317, 18807.62950272912, 47692.721807089074, 32866.16150929469, 44888.56135470407, 3331.2369383855985, 7520.780863854989, 3259.4654869396077, 0.0, 0.0, 8995.370149060505, -23971.240099816336, 14291.884218678979, 3889.9187910459987, -12312.883116350546, -32944.526725355, 0.03, -0.006, 0.517, 192.0, 0.0, 0.0, 0.0, 0.0, 0.0, 0.0, 0.0, 0.0, 0.0, 1.747690448617241E9, 0.0, 2025-05-19 23:34:08.617
4.0, 22657.158691544377, 18812.457479531466, 47691.00072276601, 32865.91564010568, 44898.01614260866, 3308.326400318909, 7533.342544238872, 3256.805629349426, 0.0, 0.0, 8982.9202273989, -23983.84648368913, 14265.084477077065, 3861.107392443108, -12326.316514768187, -32970.56650764543, 0.03, -0.006, 0.517, 192.0, 0.0, 0.0, 0.0, 0.0, 0.0, 0.0, 0.0, 0.0, 0.0, 1.74769044862426E9, 0.0, 2025-05-19 23:34:08.624
6.0, 22662.836034636028, 18818.224229600935, 47692.230068711055, 32880.73484667955, 44903.17939557784, 3343.3068803914643, 7529.989782570575, 3257.6102921498173, 0.0, 0.0, 8999.527573529193, -23964.713390435387, 14291.057204134131, 3890.9469712909427, -12305.887020336035, -32943.02915847649, 0.03, -0.006, 0.517, 192.0, 0.0, 0.0, 0.0, 0.0, 0.0, 0.0, 0.0, 0.0, 0.0, 1.747690448632456E9, 0.0, 2025-05-19 23:34:08.632
8.0, 22640.506641925174, 18796.498333990377, 47676.986178992534, 32848.36952070827, 44884.180412790825, 3309.9580776641465, 7500.396072911749, 3267.556818432429, 0.0, 0.0, 8979.522762241693, -23983.89118717804, 14269.644232945948, 3861.3756133765714, -12336.53126198426, -32966.92317329922, 0.06, -0.012, 1.036, 192.0, 0.5, 112.0, 127.5, 80.0, 16.0, 48.0, 0.0, 0.0, 0.0, 1.747690448640327E9, 0.0, 2025-05-19 23:34:08.640
10.0, 22645.91576408336, 18799.76168868085, 47683.82581279586, 32868.32962850686, 44902.55354673309, 3318.8317202129033, 7548.117047323829, 3261.365385218309, 0.0, 0.0, 8979.321596541595, -23983.5112075223, 14262.558729953615, 3870.0480902252307, -12315.34180824063, -32964.218612220124, 0.06, -0.012, 1.036, 192.0, 0.0, 0.0, 0.0, 0.0, 0.0, 0.0, 0.0, 0.0, 0.0, 1.747690448648365E9, 0.0, 2025-05-19 23:34:08.648
12.0, 22641.06543553656, 18797.548865979777, 47683.75875756249, 32861.28882900343, 44887.466119225755, 3327.8618249728474, 7503.234744457573, 3255.26335898201, 0.0, 0.0, 8985.982416389277, -23983.64531798903, 14278.942558639355, 3883.5708956206913, -12319.633343176049, -32951.12048996931, 0.06, -0.012, 1.036, 192.0, 0.0, 0.0, 0.0, 0.0, 0.0, 0.0, 0.0, 0.0, 0.0, 1.74769044865639E9, 0.0, 2025-05-19 23:34:08.656
14.0, 22648.62032516245, 18805.10375560567, 47692.4088826667, 32863.009913326496, 44895.021008851654, 3298.6927984586714, 7548.362916512838, 3265.0534230534345, 0.0, 0.0, 8979.545113986149, -23985.411105801002, 14261.195273541842, 3866.8964942570324, -12320.862689121092, -32970.4323971787, 0.06, -0.012, 1.036, 192.0, 0.0, 0.0, 0.0, 0.0, 0.0, 0.0, 0.0, 0.0, 0.0, 1.747690448664452E9, 0.0, 2025-05-19 23:34:08.664
16.0, 22647.033351306123, 18805.48373526141, 47685.61395235228, 32874.118730320784, 44892.8975931284, 3333.248595386576, 7531.39794247126, 3250.0330507794683, 0.0, 0.0, 8986.831782678579, -23974.749323695818, 14281.602416229536, 3893.67388411449, -12304.411805201986, -32947.164231200724, 0.06, -0.012, 1.036, 192.0, 0.0, 0.0, 0.0, 0.0, 0.0, 0.0, 0.0, 0.0, 0.0, 1.747690448672518E9, 0.0, 2025-05-19 23:34:08.672
18.0, 22634.762243600162, 18795.403098512066, 47675.801536536404, 32848.3024654749, 44880.000636577686, 3303.1407956052776, 7509.269715460506, 3256.068021782401, 0.0, 0.0, 8980.997977375744, -23988.98738491385, 14268.280776534175, 3863.4096221220047, -12337.023000362278, -32970.09712101187, 0.058, -0.006, 1.028, 192.0, 0.5, 104.0, 127.5, 104.0, 16.0, 16.0, 0.0, 0.0, 0.0, 1.747690448680507E9, 0.0, 2025-05-19 23:34:08.680
20.0, 22642.361836714965, 18803.382671282612, 47679.48957437153, 32867.88259361775, 44895.19982280729, 3309.421635797219, 7541.366820498326, 3249.876588568281, 0.0, 0.0, 8973.800715661135, -23983.08652437765, 14262.469322975794, 3869.1316687025633, -12320.996799587823, -32966.94552504367, 0.058, -0.006, 1.028, 192.0, 0.0, 0.0, 0.0, 0.0, 0.0, 0.0, 0.0, 0.0, 0.0, 1.747690448689554E9, 0.0, 2025-05-19 23:34:08.689
22.0, 22646.988647817212, 18803.24856081588, 47686.53037387495, 32862.4064162262, 44880.80529937807, 3329.6052610403613, 7504.464090402615, 3246.1661989887, 0.0, 0.0, 8990.408061791428, -23977.587995241644, 14283.926997652889, 3880.262837441306, -12325.087168823144, -32954.160327215235, 0.058, -0.006, 1.028, 192.0, 0.0, 0.0, 0.0, 0.0, 0.0, 0.0, 0.0, 0.0, 0.0, 1.747690448695498E9, 0.0, 2025-05-19 23:34:08.695
24.0, 22652.48717695322, 18810.177601597024, 47695.73929259054, 32868.5084424625, 44896.58563096352, 3301.7326357045936, 7538.394038485771, 3262.237103252066, 0.0, 0.0, 8986.898837911946, -23980.31490806519, 14267.54316896715, 3862.1802761769627, -12326.540032212739, -32972.399350690765, 0.058, -0.006, 1.028, 192.0, 0.0, 0.0, 0.0, 0.0, 0.0, 0.0, 0.0, 0.0, 0.0, 1.747690448705582E9, 0.0, 2025-05-19 23:34:08.705
26.0, 22647.25686875068, 18805.95312189497, 47690.03959775443, 32878.70083793412, 44897.36794201946, 3329.717019762638, 7538.706962908145, 3249.4519054236303, 0.0, 0.0, 9000.622809007504, -23965.294535791225, 14292.68888147937, 3895.685541115468, -12302.042520289722, -32941.59864683136, 0.058, -0.006, 1.028, 192.0, 0.0, 0.0, 0.0, 0.0, 0.0, 0.0, 0.0, 0.0, 0.0, 1.747690448713594E9, 0.0, 2025-05-19 23:34:08.713
28.0, 22649.42498796284, 18804.924941650028, 47697.79565308042, 32867.4579104731, 44896.339761774514, 3305.9794671511017, 7538.818721630421, 3274.5305627024845, 0.0, 0.0, 8986.407099533928, -23979.018506886783, 14274.427506259384, 3872.3056164152167, -12326.987067101845, -32960.55292612945, 0.058, -0.008, 1.028, 192.0, 0.5, 104.0, 127.5, 96.0, 16.0, 16.0, 0.0, 0.0, 0.0, 1.747690448720618E9, 0.0, 2025-05-19 23:34:08.720
30.0, 22661.226709035243, 18814.737357465907, 47702.847147327324, 32887.84270141634, 44909.147311347406, 3308.3711038078195, 7568.971224900631, 3275.9834260920798, 0.0, 0.0, 9003.30501834214, -23962.589974712133, 14285.044584875654, 3893.8526980701326, -12294.509982408284, -32941.777460786994, 0.058, -0.008, 1.028, 192.0, 0.0, 0.0, 0.0, 0.0, 0.0, 0.0, 0.0, 0.0, 0.0, 1.747690448728651E9, 0.0, 2025-05-19 23:34:08.728
32.0, 22647.592144917508, 18801.750993937374, 47694.48759490104, 32870.43069248566, 44885.05213082459, 3316.1718626227216, 7517.875137075799, 3266.260417254021, 0.0, 0.0, 9005.562544532126, -23968.669649203977, 14297.405099559439, 3897.4513289274373, -12306.736386625336, -32937.70944329613, 0.058, -0.008, 1.028, 192.0, 0.0, 0.0, 0.0, 0.0, 0.0, 0.0, 0.0, 0.0, 0.0, 1.747690448736745E9, 0.0, 2025-05-19 23:34:08.736
34.0, 22648.06153155107, 18805.10375560567, 47691.06777799938, 32865.20038428311, 44895.155119318384, 3276.0281295809905, 7550.441628747181, 3276.519867959007, 0.0, 0.0, 8977.10877384052, -23986.88632093505, 14262.53637820916, 3863.9907674778424, -12323.254325777809, -32970.14182450078, 0.058, -0.008, 1.028, 192.0, 0.0, 0.0, 0.0, 0.0, 0.0, 0.0, 0.0, 0.0, 0.0, 1.74769044874472E9, 0.0, 2025-05-19 23:34:08.744
36.0, 22647.525089684143, 18802.779174182317, 47689.637266354235, 32877.11386407779, 44898.306715286584, 3303.878403172303, 7527.687552891679, 3253.005832792024, 0.0, 0.0, 8998.231172350785, -23973.050591117215, 14288.330291310585, 3894.5679538927025, -12299.33795921063, -32942.15744044274, 0.058, -0.008, 1.028, 192.0, 0.0, 0.0, 0.0, 0.0, 0.0, 0.0, 0.0, 0.0, 0.0, 1.747690448751778E9, 0.0, 2025-05-19 23:34:08.751
38.0, 22639.411406446863, 18791.67035718803, 47689.01141750949, 32860.26064875849, 44883.57691569054, 3283.225391295599, 7508.621514871302, 3255.8892078267586, 0.0, 0.0, 8971.587892960059, -23986.55104476822, 14266.246767788742, 3863.7001947999233, -12333.737293927348, -32967.90665005525, 0.06, -0.006, 1.026, 192.0, 0.5, 112.0, 127.5, 104.0, 16.0, 8.0, 0.0, 0.0, 0.0, 1.747690448760725E9, 0.0, 2025-05-19 23:34:08.760
40.0, 22647.81566236206, 18800.074613103225, 47700.902545559715, 32885.04873335943, 44902.598250222, 3288.8356791538813, 7550.866311891832, 3263.712318386116, 0.0, 0.0, 8991.883276925479, -23972.78237018375, 14273.600491714536, 3882.9897502648537, -12304.165936012976, -32952.819222547914, 0.06, -0.006, 1.026, 192.0, 0.0, 0.0, 0.0, 0.0, 0.0, 0.0, 0.0, 0.0, 0.0, 1.747690448768844E9, 0.0, 2025-05-19 23:34:08.768
42.0, 22638.33852271301, 18798.018252613336, 47695.53812689044, 32875.81746289939, 44882.92871510133, 3307.4323305406965, 7507.906259048732, 3253.1846467476666, 0.0, 0.0, 8997.806489206134, -23966.501529991812, 14291.750108212247, 3897.227811482884, -12307.585752914638, -32936.79302177346, 0.06, -0.006, 1.026, 192.0, 0.0, 0.0, 0.0, 0.0, 0.0, 0.0, 0.0, 0.0, 0.0, 1.747690448775858E9, 0.0, 2025-05-19 23:34:08.775
44.0, 22644.641714649406, 18797.504162490866, 47697.66154261369, 32870.65420993021, 44899.80428216509, 3271.1778010341886, 7546.418314745226, 3273.681196413183, 0.0, 0.0, 8977.511105240716, -23983.377097055567, 14262.223453786786, 3869.4222413804823, -12321.130910054555, -32963.01161801954, 0.06, -0.006, 1.026, 192.0, 0.0, 0.0, 0.0, 0.0, 0.0, 0.0, 0.0, 0.0, 0.0, 1.747690448783816E9, 0.0, 2025-05-19 23:34:08.783
46.0, 22651.48134845273, 18807.540095751297, 47699.53908914794, 32887.93210839416, 44907.47093051326, 3309.8910224307806, 7535.376552984304, 3259.5101904285184, 0.0, 0.0, 8991.749166458747, -23977.07390511917, 14282.071802863098, 3895.752596348834, -12300.902581322502, -32940.90574275324, 0.06, -0.006, 1.026, 192.0, 0.0, 0.0, 0.0, 0.0, 0.0, 0.0, 0.0, 0.0, 0.0, 1.74769044879294E9, 0.0, 2025-05-19 23:34:08.792
48.0, 22652.040142064114, 18808.523572507333, 47705.238783984045, 32877.5608989669, 44902.03945661062, 3291.808461166437, 7521.071436532908, 3271.2448562675545, 0.0, 0.0, 8993.604361248537, -23967.194434069927, 14282.898817407944, 3884.554372376725, -12317.174651285965, -32945.8231265334, 0.056, -0.006, 1.03, 192.0, 0.5, 96.0, 127.5, 104.0, 16.0, 24.0, 0.0, 0.0, 0.0, 1.747690448800955E9, 0.0, 2025-05-19 23:34:08.800
50.0, 22667.865177138472, 18823.25337210338, 47717.10756028981, 32900.00205040003, 44912.298907315606, 3300.458586270641, 7553.302652037461, 3275.581094691884, 0.0, 0.0, 9006.25544861024, -23954.2527740303, 14287.100945365542, 3897.2501632273393, -12291.872476562557, -32937.888257251776, 0.056, -0.006, 1.03, 192.0, 0.0, 0.0, 0.0, 0.0, 0.0, 0.0, 0.0, 0.0, 0.0, 1.747690448807966E9, 0.0, 2025-05-19 23:34:08.807
52.0, 22659.39386598991, 18813.753880709875, 47708.90447007471, 32889.67554446167, 44902.75471243319, 3312.5732317654174, 7512.778939339989, 3262.304158485432, 0.0, 0.0, 9007.283628855184, -23955.25860253079, 14301.920151939412, 3905.4979569313477, -12300.880229578046, -32926.4218123462, 0.056, -0.006, 1.03, 192.0, 0.0, 0.0, 0.0, 0.0, 0.0, 0.0, 0.0, 0.0, 0.0, 1.747690448816007E9, 0.0, 2025-05-19 23:34:08.816
54.0, 22672.827264407548, 18820.928790680027, 47720.683839402656, 32892.17893984067, 44915.428151539345, 3284.9017721297473, 7560.432858518703, 3276.1398883032666, 0.0, 0.0, 9002.276838097196, -23959.773654910765, 14284.374032541995, 3889.739977090356, -12301.170802255965, -32941.24101892007, 0.056, -0.006, 1.03, 192.0, 0.0, 0.0, 0.0, 0.0, 0.0, 0.0, 0.0, 0.0, 0.0, 1.74769044882501E9, 0.0, 2025-05-19 23:34:08.825
56.0, 22649.33558098502, 18802.4886015044, 47700.544917648425, 32882.36652402479, 44903.55937523358, 3291.875516399803, 7541.545634453969, 3251.821190335893, 0.0, 0.0, 9008.557678289137, -23961.87471888956, 14294.991111158266, 3909.8341953556774, -12287.066851504667, -32925.773611756995, 0.056, -0.006, 1.03, 192.0, 0.0, 0.0, 0.0, 0.0, 0.0, 0.0, 0.0, 0.0, 0.0, 1.747690448832033E9, 0.0, 2025-05-19 23:34:08.832
58.0, 22618.065490492045, 18772.24669125637, 47693.92880128966, 32864.59688718282, 44881.92288660084, 3274.8881906137694, 7525.58648891288, 3270.5743039338954, 0.0, 0.0, 8975.9688348733, -23993.211864615903, 14261.68701191986, 3872.5738373486806, -12326.24945953482, -32959.07771099541, 0.054, -0.008, 1.03, 192.0, 0.5, 88.0, 127.5, 96.0, 16.0, 24.0, 0.0, 0.0, 0.0, 1.747690448840078E9, 0.0, 2025-05-19 23:34:08.840
60.0, 22655.884642110424, 18815.474965032932, 47713.50892943251, 32900.22556784458, 44901.79358742161, 3300.1456618482666, 7560.723431196622, 3274.5752661913953, 0.0, 0.0, 8992.285608325674, -23962.567622967676, 14278.45082026134, 3894.456195170426, -12293.302988207697, -32938.916437496715, 0.054, -0.008, 1.03, 192.0, 0.0, 0.0, 0.0, 0.0, 0.0, 0.0, 0.0, 0.0, 0.0, 1.747690448848106E9, 0.0, 2025-05-19 23:34:08.848
62.0, 22638.673798879838, 18797.012424112847, 47703.897679316724, 32882.52298623598, 44886.9967325922, 3301.330304304398, 7522.747817367055, 3268.9649783331133, 0.0, 0.0, 9004.377902075996, -23957.73964616533, 14299.036776904677, 3903.3074859747276, -12299.382662699541, -32926.77944025749, 0.054, -0.008, 1.03, 192.0, 0.0, 0.0, 0.0, 0.0, 0.0, 0.0, 0.0, 0.0, 0.0, 1.747690448857136E9, 0.0, 2025-05-19 23:34:08.857
64.0, 22639.970200058247, 18797.57121772423, 47702.73538860505, 32877.85147164482, 44899.46900599826, 3272.7647748905156, 7553.794390415477, 3274.9552458471353, 0.0, 0.0, 8988.441108279361, -23969.49666374882, 14271.365317269006, 3877.9606077624094, -12311.385549472041, -32952.685112081184, 0.054, -0.008, 1.03, 192.0, 0.0, 0.0, 0.0, 0.0, 0.0, 0.0, 0.0, 0.0, 0.0, 1.747690448867193E9, 0.0, 2025-05-19 23:34:08.867
66.0, 22639.1431855134, 18797.705328190965, 47705.14937700622, 32892.53656775195, 44896.94325887481, 3296.0552926129453, 7539.131646052796, 3263.1088212858226, 0.0, 0.0, 8994.319617071107, -23962.79114041223, 14287.816201188112, 3903.5980586526466, -12295.381700442042, -32930.84745774835, 0.054, -0.008, 1.03, 192.0, 0.0, 0.0, 0.0, 0.0, 0.0, 0.0, 0.0, 0.0, 0.0, 1.747690448873211E9, 0.0, 2025-05-19 23:34:08.873
68.0, 22638.919668068847, 18793.05616534426, 47707.13868226275, 32877.62795420027, 44890.50595647168, 3271.423670223197, 7523.798349356455, 3272.809478379426, 0.0, 0.0, 8989.335178057574, -23976.44805627442, 14276.439163260362, 3886.0295875107754, -12315.900601852012, -32945.10787071084, 0.054, -0.006, 1.03, 192.0, 0.5, 88.0, 127.5, 104.0, 16.0, 24.0, 0.0, 0.0, 0.0, 1.747690448881236E9, 0.0, 2025-05-19 23:34:08.881
70.0, 22649.357932729476, 18806.713081206453, 47713.888909088244, 32900.337326566856, 44907.62739272445, 3287.8298506533924, 7562.668032964234, 3274.687024913672, 0.0, 0.0, 9005.428434065394, -23959.326620021657, 14285.871599420501, 3902.2793057297836, -12287.357424182586, -32931.04862344845, 0.054, -0.006, 1.03, 192.0, 0.0, 0.0, 0.0, 0.0, 0.0, 0.0, 0.0, 0.0, 0.0, 1.747690448888333E9, 0.0, 2025-05-19 23:34:08.888
72.0, 22644.239383249213, 18797.504162490866, 47700.88019381526, 32876.778587910965, 44894.12693907344, 3295.3847402792862, 7500.977218267587, 3260.8289433513814, 0.0, 0.0, 9000.913381685423, -23964.154596824003, 14296.645140247958, 3901.7652156073113, -12304.38945345753, -32929.39459435875, 0.054, -0.006, 1.03, 192.0, 0.0, 0.0, 0.0, 0.0, 0.0, 0.0, 0.0, 0.0, 0.0, 1.747690448896274E9, 0.0, 2025-05-19 23:34:08.896
74.0, 22640.707807625273, 18789.122258320127, 47700.94724904862, 32869.51427096299, 44906.37569503495, 3260.5160189290073, 7563.584454486901, 3278.777394148993, 0.0, 0.0, 8988.463460023817, -23980.40431504301, 14266.58204395557, 3870.1598489475073, -12317.509927452795, -32962.78810057499, 0.054, -0.006, 1.03, 192.0, 0.0, 0.0, 0.0, 0.0, 0.0, 0.0, 0.0, 0.0, 0.0, 1.74769044890434E9, 0.0, 2025-05-19 23:34:08.904
76.0, 22642.2947814816, 18796.632444457107, 47706.9598683071, 32891.21781482909, 44903.17939557784, 3296.479975757596, 7547.535901967991, 3269.2555510110324, 0.0, 0.0, 8993.134974614975, -23974.4587510179, 14279.791924928657, 3898.2783434722837, -12294.934665552935, -32935.13899268377, 0.054, -0.006, 1.03, 192.0, 0.0, 0.0, 0.0, 0.0, 0.0, 0.0, 0.0, 0.0, 0.0, 1.747690448913368E9, 0.0, 2025-05-19 23:34:08.913
78.0, 22636.259810478667, 18789.256368786857, 47700.50021415952, 32868.03905582894, 44886.706159914276, 3274.418803980208, 7524.178329012196, 3272.9212371017024, 0.0, 0.0, 8984.574256488593, -23980.828998187662, 14267.766686411702, 3878.2511804403284, -12316.794671630225, -32950.56169635793, 0.06, -0.006, 1.032, 192.0, 0.5, 112.0, 127.5, 104.0, 16.0, 32.0, 0.0, 0.0, 0.0, 1.747690448919397E9, 0.0, 2025-05-19 23:34:08.919
80.0, 22654.454130465285, 18808.88120041862, 47715.69940038912, 32898.929166666174, 44909.08025611404, 3280.8561063833367, 7567.87598942232, 3272.8541818683366, 0.0, 0.0, 8999.63933225147, -23965.16042532449, 14275.768610926702, 3897.0937010161524, -12287.133906738032, -32935.74248978406, 0.06, -0.006, 1.032, 192.0, 0.0, 0.0, 0.0, 0.0, 0.0, 0.0, 0.0, 0.0, 0.0, 1.747690448928417E9, 0.0, 2025-05-19 23:34:08.928
82.0, 22633.37643544393, 18789.56929320923, 47702.5565746494, 32879.97488736807, 44884.85096512449, 3290.869687899314, 7521.652581888746, 3258.9290450726803, 0.0, 0.0, 9001.15925087443, -23964.31105903519, 14292.152439612442, 3905.073273786697, -12296.454584175895, -32929.819277503404, 0.06, -0.006, 1.032, 192.0, 0.0, 0.0, 0.0, 0.0, 0.0, 0.0, 0.0, 0.0, 0.0, 1.747690448936434E9, 0.0, 2025-05-19 23:34:08.936
84.0, 22641.378359958933, 18795.447802000977, 47706.08815027335, 32877.11386407779, 44901.63712521042, 3258.683175883672, 7554.35318402686, 3271.334263245376, 0.0, 0.0, 8988.977550146288, -23980.046687131726, 14264.168055554397, 3877.8712007845884, -12309.552706426706, -32955.32261792691, 0.06, -0.006, 1.032, 192.0, 0.0, 0.0, 0.0, 0.0, 0.0, 0.0, 0.0, 0.0, 0.0, 1.747690448945444E9, 0.0, 2025-05-19 23:34:08.945
86.0, 22640.730159369727, 18795.134877578603, 47700.50021415952, 32892.24599507404, 44895.55745071858, 3288.5674582204174, 7540.249233275561, 3257.07385028289, 0.0, 0.0, 8987.614093734515, -23977.185663841447, 14275.925073137889, 3900.7370353623674, -12294.375871941553, -32934.46844035011, 0.06, -0.006, 1.032, 192.0, 0.0, 0.0, 0.0, 0.0, 0.0, 0.0, 0.0, 0.0, 0.0, 1.747690448952518E9, 0.0, 2025-05-19 23:34:08.952
88.0, 22629.28606620861, 18780.405077982556, 47691.44775765512, 32867.6590761732, 44876.31259874256, 3265.9251410871916, 7518.322171964905, 3261.0971642848453, 0.0, 0.0, 8992.777346703691, -23971.821245172174, 14277.534398738671, 3882.4980118868366, -12317.1075960526, -32945.46549862212, 0.057999999999999996, -0.006, 1.033, 192.0, 0.5, 96.0, 127.5, 104.0, 16.0, 40.0, 0.0, 0.0, 0.0, 1.747690448961495E9, 0.0, 2025-05-19 23:34:08.961
90.0, 22641.937153570314, 18788.29524377528, 47693.32530418936, 32878.2090995561, 44899.58076472054, 3266.394527720753, 7554.39788751577, 3268.584998677373, 0.0, 0.0, 8975.25357905073, -23986.97572791287, 14253.752142638225, 3873.512610615803, -12310.022093060266, -32956.61901910532, 0.057999999999999996, -0.006, 1.033, 192.0, 0.0, 0.0, 0.0, 0.0, 0.0, 0.0, 0.0, 0.0, 0.0, 1.747690448968519E9, 0.0, 2025-05-19 23:34:08.968
92.0, 22628.459051663765, 18780.986223338394, 47689.54785937642, 32872.17412855317, 44882.079348812025, 3283.9853506070795, 7523.641887145268, 3283.8512401403477, 0.0, 0.0, 8989.581047246582, -23978.347954553123, 14277.512046994216, 3891.5728201356915, -12308.748043626314, -32935.340158383864, 0.057999999999999996, -0.006, 1.033, 192.0, 0.0, 0.0, 0.0, 0.0, 0.0, 0.0, 0.0, 0.0, 0.0, 1.747690448977494E9, 0.0, 2025-05-19 23:34:08.977
94.0, 22630.470708664743, 18781.500313460867, 47689.704321587604, 32867.12263430627, 44896.205651307784, 3253.5646264034067, 7550.128704324807, 3282.9795221065906, 0.0, 0.0, 8972.101983082532, -23994.08358264966, 14247.516005935195, 3867.656453568513, -12317.420520474974, -32957.98247551709, 0.057999999999999996, -0.006, 1.033, 192.0, 0.0, 0.0, 0.0, 0.0, 0.0, 0.0, 0.0, 0.0, 0.0, 1.747690448984587E9, 0.0, 2025-05-19 23:34:08.984
96.0, 22622.53583938311, 18775.063011057737, 47687.267981441975, 32879.281983289955, 44894.05988384008, 3276.6316266812837, 7540.6292129313015, 3277.6374551817726, 0.0, 0.0, 8979.58981747506, -23986.17106511248, 14262.849302631534, 3893.360959692116, -12300.008511544289, -32934.446088605655, 0.057999999999999996, -0.006, 1.033, 192.0, 0.0, 0.0, 0.0, 0.0, 0.0, 0.0, 0.0, 0.0, 0.0, 1.747690448992633E9, 0.0, 2025-05-19 23:34:08.992
98.0, 22620.345368426486, 18773.207816267946, 47686.709187830595, 32858.74073013553, 44880.335912744515, 3258.057327038923, 7526.860538346832, 3282.9795221065906, 0.0, 0.0, 8968.190427802852, -23997.83867571815, 14251.896947848434, 3871.2774361702727, -12325.489500223339, -32953.892106281775, 0.056999999999999995, -0.002, 1.0345, 192.0, 0.5, 96.0, 0.0, 8.0, 16.0, 48.0, 0.0, 0.0, 0.0, 1.747690449000626E9, 0.0, 2025-05-19 23:34:09.000
100.0, 22635.030464533625, 18790.932749621006, 47701.23782172654, 32886.23337581556, 44901.391256021416, 3272.2059812791326, 7561.30457655246, 3279.6714639272054, 0.0, 0.0, 8988.195239090353, -23977.766809197285, 14263.497503220739, 3883.7497095763338, -12301.841354589624, -32946.672492822705, 0.056999999999999995, -0.002, 1.0345, 192.0, 0.0, 0.0, 0.0, 0.0, 0.0, 0.0, 0.0, 0.0, 0.0, 1.747690449008719E9, 0.0, 2025-05-19 23:34:09.008
102.0, 22617.886676536404, 18772.961947078937, 47681.00949299449, 32867.30144826191, 44886.639104680915, 3284.164164562722, 7508.621514871302, 3263.354690474831, 0.0, 0.0, 8986.004768133733, -23978.683230719955, 14274.673375448392, 3890.879916057577, -12310.782052371747, -32937.28476015148, 0.056999999999999995, -0.002, 1.0345, 192.0, 0.0, 0.0, 0.0, 0.0, 0.0, 0.0, 0.0, 0.0, 0.0, 1.747690449016756E9, 0.0, 2025-05-19 23:34:09.016
104.0, 22622.446432405286, 18776.71704014743, 47687.44679539762, 32865.78152963895, 44888.33783725952, 3253.5422746589516, 7536.963526840631, 3270.55195218944, 0.0, 0.0, 8963.228340533775, -23995.22352161688, 14240.698723876325, 3857.1511336745184, -12328.10465432461, -32968.688961111184, 0.056999999999999995, -0.002, 1.0345, 192.0, 0.0, 0.0, 0.0, 0.0, 0.0, 0.0, 0.0, 0.0, 0.0, 1.747690449024757E9, 0.0, 2025-05-19 23:34:09.024
106.0, 22631.588295887508, 18788.92109262003, 47690.48663264354, 32884.3111257924, 44896.85385189699, 3293.0154553670236, 7529.63215465929, 3258.683175883672, 0.0, 0.0, 8985.848305922545, -23972.22357657237, 14273.242863803252, 3892.19866898044, -12300.097918522111, -32936.99418747356, 0.056999999999999995, -0.002, 1.0345, 192.0, 0.0, 0.0, 0.0, 0.0, 0.0, 0.0, 0.0, 0.0, 0.0, 1.747690449032783E9, 0.0, 2025-05-19 23:34:09.032
108.0, 22627.52027839664, 18788.116429819638, 47674.81805978037, 32847.16252650768, 44881.07352031154, 3268.517943444007, 7500.954866523131, 3256.0233182934903, 0.0, 0.0, 8962.088401566554, -24000.61029203061, 14249.795883869636, 3855.4076976070046, -12339.280526552264, -32969.15834774475, 0.058499999999999996, 0.0, 1.03125, 192.0, 0.5, 112.0, 0.0, 8.0, 16.0, 16.0, 0.0, 0.0, 0.0, 1.747690449040772E9, 0.0, 2025-05-19 23:34:09.040
110.0, 22637.600915145984, 18787.49058097489, 47695.71694084608, 32882.54533798043, 44901.92769788834, 3262.7735451189933, 7546.664183934234, 3260.068984039901, 0.0, 0.0, 8984.887180910968, -23979.063210375694, 14261.239977030753, 3873.3337966601607, -12309.865630849079, -32956.77548131651, 0.058499999999999996, 0.0, 1.03125, 192.0, 0.0, 0.0, 0.0, 0.0, 0.0, 0.0, 0.0, 0.0, 0.0, 1.747690449048817E9, 0.0, 2025-05-19 23:34:09.048
112.0, 22632.884697065914, 18780.29331926028, 47683.87051628477, 32863.903983104705, 44886.281476769625, 3268.070908554901, 7498.652636844235, 3247.0826205113676, 0.0, 0.0, 8988.575218746093, -23981.074867376672, 14274.382802770473, 3886.878953800077, -12313.665427406482, -32944.50437361054, 0.058499999999999996, 0.0, 1.03125, 192.0, 0.0, 0.0, 0.0, 0.0, 0.0, 0.0, 0.0, 0.0, 0.0, 1.747690449055777E9, 0.0, 2025-05-19 23:34:09.055
114.0, 22654.699999654295, 18797.437107257498, 47692.18536522214, 32865.80388138341, 44906.88978515742, 3247.1049722558228, 7526.122930779807, 3258.102030527834, 0.0, 0.0, 8972.213741804808, -23996.117591395094, 14245.236128000752, 3858.0004999638204, -12327.188232801942, -32970.99119079008, 0.058499999999999996, 0.0, 1.03125, 192.0, 0.0, 0.0, 0.0, 0.0, 0.0, 0.0, 0.0, 0.0, 0.0, 1.74769044906386E9, 0.0, 2025-05-19 23:34:09.063
116.0, 22664.825339892548, 18799.940502636495, 47696.76747283548, 32881.98654436905, 44910.64487822591, 3273.748251646549, 7525.340619723871, 3255.3751177042864, 0.0, 0.0, 8999.482870040283, -23974.59286148463, 14278.249654561241, 3892.3104277027164, -12301.081395278145, -32939.676396808194, 0.058499999999999996, 0.0, 1.03125, 192.0, 0.0, 0.0, 0.0, 0.0, 0.0, 0.0, 0.0, 0.0, 0.0, 1.747690449073865E9, 0.0, 2025-05-19 23:34:09.073
118.0, 22659.48327296773, 18790.061031587247, 47695.73929259054, 32859.34422723582, 44899.53606123162, 3243.5510448874293, 7519.417407443215, 3265.9921963205575, 0.0, 0.0, 8982.361433787517, -23998.08454490716, 14259.29537526314, 3869.601055336125, -12325.757721156802, -32960.038836006985, 0.06125, 0.001, 1.029625, 192.0, 1.0, 0.0, 0.0, 8.0, 16.0, 16.0, 0.0, 0.0, 0.0, 1.747690449080928E9, 0.0, 2025-05-19 23:34:09.080
120.0, 22677.744648187716, 18811.362244053154, 47711.43021719816, 32883.93114613666, 44917.32804981805, 3252.4023356917305, 7550.30751828045, 3275.290522013965, 0.0, 0.0, 9004.176736375897, -23981.27603307677, 14269.10779107902, 3888.9576660344205, -12294.152354496999, -32944.70553931064, 0.06125, 0.001, 1.029625, 192.0, 0.0, 0.0, 0.0, 0.0, 0.0, 0.0, 0.0, 0.0, 0.0, 1.747690449087951E9, 0.0, 2025-05-19 23:34:09.087
122.0, 22661.047895079602, 18799.42641251402, 47698.667371114185, 32870.69891341912, 44899.80428216509, 3257.319719471898, 7527.575794169402, 3262.1253445297893, 0.0, 0.0, 9004.02027416471, -23979.666707475986, 14284.217570330808, 3897.7642533498115, -12300.612008644583, -32936.27893165099, 0.06125, 0.001, 1.029625, 192.0, 0.0, 0.0, 0.0, 0.0, 0.0, 0.0, 0.0, 0.0, 0.0, 1.747690449098032E9, 0.0, 2025-05-19 23:34:09.098
124.0, 22678.526959243653, 18817.173697611535, 47708.32332471888, 32875.0575035879, 44911.89657591541, 3240.7347250860603, 7557.683593950701, 3280.096147071856, 0.0, 0.0, 8994.632541493482, -23984.09235287814, 14262.424619486883, 3869.0199099802867, -12313.91129659549, -32963.033969763994, 0.06125, 0.001, 1.029625, 192.0, 0.0, 0.0, 0.0, 0.0, 0.0, 0.0, 0.0, 0.0, 0.0, 1.74769044910502E9, 0.0, 2025-05-19 23:34:09.105
126.0, 22676.358840031487, 18815.094985377193, 47708.2115659966, 32890.99429738454, 44912.74594220471, 3273.368271990809, 7540.115122808829, 3267.3780044767864, 0.0, 0.0, 9012.469233568816, -23965.830977658152, 14291.079555878587, 3904.0897970306632, -12287.871514305058, -32930.19925715915, 0.06125, 0.001, 1.029625, 192.0, 0.0, 0.0, 0.0, 0.0, 0.0, 0.0, 0.0, 0.0, 0.0, 1.747690449112084E9, 0.0, 2025-05-19 23:34:09.112
128.0, 22667.306383527088, 18804.746127694383, 47700.76843509298, 32863.009913326496, 44900.45248275429, 3247.7755245894823, 7523.507776678536, 3269.166144033211, 0.0, 0.0, 8994.25256183774, -23989.143847125037, 14270.851227146535, 3877.2453519398396, -12317.62168617507, -32952.01455974753, 0.059625, 0.0035, 1.0298125, 192.0, 0.5, 104.0, 0.0, 24.0, 16.0, 24.0, 0.0, 0.0, 0.0, 1.74769044912008E9, 0.0, 2025-05-19 23:34:09.120
130.0, 22684.606633735497, 18821.353473824678, 47709.68678113065, 32879.572555967876, 44927.96748017878, 3243.9533762876245, 7565.439649276692, 3268.6073504218284, 0.0, 0.0, 9003.93086718689, -23979.443190031434, 14269.845398646046, 3885.649607855035, -12296.85691557609, -32946.94071375617, 0.059625, 0.0035, 1.0298125, 192.0, 0.0, 0.0, 0.0, 0.0, 0.0, 0.0, 0.0, 0.0, 0.0, 1.747690449128108E9, 0.0, 2025-05-19 23:34:09.128
132.0, 22664.601822447996, 18806.44486027299, 47685.34573141882, 32855.90205858971, 44902.151215332895, 3260.627777651284, 7516.355218452838, 3249.6977746126386, 0.0, 0.0, 8987.479983267784, -23993.301271593726, 14273.533436481172, 3885.716663088401, -12310.446776204917, -32948.46063237913, 0.059625, 0.0035, 1.0298125, 192.0, 0.0, 0.0, 0.0, 0.0, 0.0, 0.0, 0.0, 0.0, 0.0, 1.747690449137141E9, 0.0, 2025-05-19 23:34:09.137
134.0, 22678.951642388303, 18814.603246999177, 47701.036656026445, 32864.12750054926, 44921.82075045357, 3229.9611842586023, 7544.5631199554355, 3268.227370766088, 0.0, 0.0, 8990.095137369053, -23990.686117492452, 14255.495578705739, 3857.1287819300633, -12324.237802533842, -32972.57816464641, 0.059625, 0.0035, 1.0298125, 192.0, 0.0, 0.0, 0.0, 0.0, 0.0, 0.0, 0.0, 0.0, 0.0, 1.747690449144161E9, 0.0, 2025-05-19 23:34:09.144
136.0, 22678.05757261009, 18817.397215056088, 47700.50021415952, 32876.84564314433, 44918.89267192992, 3258.6384723947613, 7531.867329104821, 3247.842579822848, 0.0, 0.0, 9004.64612300946, -23975.59868998512, 14280.68599470687, 3883.950875276432, -12303.048348790211, -32948.75120505705, 0.059625, 0.0035, 1.0298125, 192.0, 0.0, 0.0, 0.0, 0.0, 0.0, 0.0, 0.0, 0.0, 0.0, 1.747690449152215E9, 0.0, 2025-05-19 23:34:09.152
138.0, 22665.205319548288, 18802.66741546004, 47696.208679224095, 32850.001198053506, 44893.07640708404, 3236.0855622393565, 7514.455320174136, 3255.844504337848, 0.0, 0.0, 8987.032948378677, -23994.12828613857, 14266.693802677848, 3858.805162764211, -12328.417578746985, -32973.85221408036, 0.058812500000000004, 0.00275, 1.02990625, 192.0, 0.5, 104.0, 0.0, 8.0, 16.0, 24.0, 0.0, 0.0, 0.0, 1.747690449160243E9, 0.0, 2025-05-19 23:34:09.160
140.0, 22690.194569849322, 18826.74024423841, 47713.15130152122, 32888.312088049905, 44918.020953896164, 3251.7094316136163, 7555.336660782893, 3263.220580008099, 0.0, 0.0, 8997.06888163911, -23978.727934208862, 14270.29243353515, 3875.077232727675, -12301.841354589624, -32960.61998136282, 0.058812500000000004, 0.00275, 1.02990625, 192.0, 0.0, 0.0, 0.0, 0.0, 0.0, 0.0, 0.0, 0.0, 0.0, 1.747690449167224E9, 0.0, 2025-05-19 23:34:09.167
142.0, 22667.48519748273, 18810.512877763853, 47694.91227804569, 32873.64934368722, 44895.6468576964, 3267.109783543323, 7504.933477036176, 3251.217693235599, 0.0, 0.0, 9001.226306107797, -23971.485969005345, 14289.313768066619, 3892.1763172359847, -12306.892848836524, -32939.408175874734, 0.058812500000000004, 0.00275, 1.02990625, 192.0, 0.0, 0.0, 0.0, 0.0, 0.0, 0.0, 0.0, 0.0, 0.0, 1.747690449176328E9, 0.0, 2025-05-19 23:34:09.176
144.0, 22683.131418601446, 18817.48662203391, 47706.065798528885, 32872.88938437574, 44914.71289571678, 3247.97669028958, 7547.982936857097, 3271.378966734286, 0.0, 0.0, 8987.927018156888, -23983.89118717804, 14261.44114273085, 3866.4047558790157, -12320.594468187628, -32962.65399010825, 0.058812500000000004, 0.00275, 1.02990625, 192.0, 0.0, 0.0, 0.0, 0.0, 0.0, 0.0, 0.0, 0.0, 0.0, 1.74769044918431E9, 0.0, 2025-05-19 23:34:09.184
146.0, 22685.92538665836, 18817.91130517856, 47708.92682181917, 32885.428713015164, 44918.49034052972, 3270.842524867359, 7530.079189548396, 3250.301271712932, 0.0, 0.0, 9010.59168703457, -23971.5083207498, 14288.196180843852, 3899.172413250496, -12295.985197542333, -32935.31780663941, 0.058812500000000004, 0.00275, 1.02990625, 192.0, 0.0, 0.0, 0.0, 0.0, 0.0, 0.0, 0.0, 0.0, 0.0, 1.74769044919235E9, 0.0, 2025-05-19 23:34:09.192
148.0, 22673.9001481414, 18804.187334083002, 47698.98029553656, 32860.39475922522, 44904.43109326733, 3236.0632104949013, 7510.9237445501985, 3252.223521736088, 0.0, 0.0, 8995.057224638133, -23994.37415532758, 14271.72294518029, 3873.8925902715437, -12324.036636833745, -32957.49073713908, 0.06340625, 0.001375, 1.0289531250000001, 192.0, 1.0, 16.0, 0.0, 0.0, 16.0, 16.0, 0.0, 0.0, 0.0, 1.747690449200383E9, 0.0, 2025-05-19 23:34:09.200
150.0, 22689.188741348833, 18819.028892401326, 47702.86949907178, 32882.858262402806, 44923.16185512088, 3243.6628036097054, 7546.7312391676005, 3249.876588568281, 0.0, 0.0, 8999.438166551372, -23977.297422563723, 14270.314785279606, 3878.9664362628982, -12307.228125003354, -32953.44507139266, 0.06340625, 0.001375, 1.0289531250000001, 192.0, 0.0, 0.0, 0.0, 0.0, 0.0, 0.0, 0.0, 0.0, 0.0, 1.747690449208426E9, 0.0, 2025-05-19 23:34:09.208
152.0, 22673.16254057438, 18804.81318292775, 47689.436100654144, 32863.52400344897, 44906.24158456822, 3255.4421729376522, 7502.564192123913, 3243.059306509412, 0.0, 0.0, 8997.895896183956, -23976.582166741155, 14284.508143008727, 3885.3590351771163, -12319.007494331301, -32945.53255385549, 0.06340625, 0.001375, 1.0289531250000001, 192.0, 0.0, 0.0, 0.0, 0.0, 0.0, 0.0, 0.0, 0.0, 0.0, 1.747690449216448E9, 0.0, 2025-05-19 23:34:09.216
154.0, 22685.791276191627, 18817.2407528449, 47697.16980423568, 32858.76308187999, 44919.764389963675, 3229.9611842586023, 7534.661297161734, 3261.030109051479, 0.0, 0.0, 8985.043643122155, -23997.168123384494, 14253.238052515753, 3855.944139473932, -12330.496290981328, -32974.925097814215, 0.06340625, 0.001375, 1.0289531250000001, 192.0, 0.0, 0.0, 0.0, 0.0, 0.0, 0.0, 0.0, 0.0, 0.0, 1.747690449223481E9, 0.0, 2025-05-19 23:34:09.223
156.0, 22680.91859590037, 18810.646988230586, 47694.97933327906, 32868.82136688488, 44916.36692480647, 3263.354690474831, 7524.826529601399, 3244.35570768782, 0.0, 0.0, 9005.741358487769, -23984.44998078942, 14275.612148715514, 3888.868259056599, -12302.19898250091, -32945.5772573444, 0.06340625, 0.001375, 1.0289531250000001, 192.0, 0.0, 0.0, 0.0, 0.0, 0.0, 0.0, 0.0, 0.0, 0.0, 1.747690449232517E9, 0.0, 2025-05-19 23:34:09.232
158.0, 22665.317078270564, 18793.525551977822, 47679.17664994916, 32835.76313683548, 44904.65461071189, 3238.2536814515215, 7498.272657188494, 3248.1108007563116, 0.0, 0.0, 8977.175829073885, -24010.914446224506, 14249.125331535975, 3857.5758168191696, -12335.994820117334, -32972.71227511314, 0.064703125, -3.1250000000000006E-4, 1.0294765625000002, 192.0, 1.0, 8.0, 127.5, 120.0, 16.0, 24.0, 0.0, 0.0, 0.0, 1.74769044924054E9, 0.0, 2025-05-19 23:34:09.240
160.0, 22679.465732510776, 18810.24465683039, 47688.47497564256, 32861.57940168135, 44919.8537969415, 3239.9524140301246, 7536.0471053179635, 3253.6093298923174, 0.0, 0.0, 8980.707404697825, -23998.665690263, 14245.839625101045, 3856.815857507689, -12324.237802533842, -32973.42753093571, 0.064703125, -3.1250000000000006E-4, 1.0294765625000002, 192.0, 0.0, 0.0, 0.0, 0.0, 0.0, 0.0, 0.0, 0.0, 0.0, 1.747690449247581E9, 0.0, 2025-05-19 23:34:09.247
162.0, 22666.702886426796, 18794.978415367415, 47681.79180405042, 32852.61635215478, 44900.16191007637, 3263.287635241465, 7487.588523338858, 3238.54425412944, 0.0, 0.0, 8985.960064644822, -23992.116629137592, 14268.05725908962, 3871.9926919928425, -12326.62943919056, -32956.64137084978, 0.064703125, -3.1250000000000006E-4, 1.0294765625000002, 192.0, 0.0, 0.0, 0.0, 0.0, 0.0, 0.0, 0.0, 0.0, 0.0, 1.747690449255611E9, 0.0, 2025-05-19 23:34:09.255
164.0, 22665.518243970662, 18799.873447403126, 47683.132908717744, 32845.5532009069, 44902.844119411006, 3232.263413937499, 7523.910108078731, 3254.771620603993, 0.0, 0.0, 8972.504314482727, -24006.958187455915, 14242.352752966019, 3842.935424200943, -12340.331058541664, -32984.82692060792, 0.064703125, -3.1250000000000006E-4, 1.0294765625000002, 192.0, 0.0, 0.0, 0.0, 0.0, 0.0, 0.0, 0.0, 0.0, 0.0, 1.74769044926464E9, 0.0, 2025-05-19 23:34:09.264
166.0, 22673.453113252297, 18808.367110296145, 47691.5595163774, 32868.68725641814, 44912.45536952679, 3261.678309640683, 7535.39890472876, 3247.395544933742, 0.0, 0.0, 8990.363358302517, -23991.624890759576, 14267.431410244872, 3876.552447861725, -12311.385549472041, -32956.97664701661, 0.064703125, -3.1250000000000006E-4, 1.0294765625000002, 192.0, 0.0, 0.0, 0.0, 0.0, 0.0, 0.0, 0.0, 0.0, 0.0, 1.747690449272677E9, 0.0, 2025-05-19 23:34:09.272
168.0, 22656.599897932996, 18787.557636208254, 47682.372949406265, 32843.0498055279, 44896.004485607686, 3239.0806959963675, 7505.134642736273, 3253.296405469943, 0.0, 0.0, 8975.052413350631, -24003.247797876335, 14253.0145350712, 3857.62052030808, -12333.983163116356, -32969.895955311775, 0.0643515625, 8.4375E-4, 1.02773828125, 192.0, 1.0, 0.0, 0.0, 8.0, 16.0, 8.0, 0.0, 0.0, 0.0, 1.747690449279719E9, 0.0, 2025-05-19 23:34:09.279
170.0, 22677.118799342967, 18806.266046317345, 47695.69458910163, 32868.866070373784, 44921.17254986436, 3243.908672798714, 7545.390134500281, 3259.353728217331, 0.0, 0.0, 8981.579122731582, -23997.346937340135, 14248.745351880236, 3865.264816911795, -12313.598372173115, -32964.66564710923, 0.0643515625, 8.4375E-4, 1.02773828125, 192.0, 0.0, 0.0, 0.0, 0.0, 0.0, 0.0, 0.0, 0.0, 0.0, 1.747690449287766E9, 0.0, 2025-05-19 23:34:09.287
172.0, 22660.53380495713, 18790.57512170972, 47691.738330333035, 32859.724206891566, 44911.76246544868, 3252.424687436186, 7501.357197923327, 3249.138981001256, 0.0, 0.0, 8991.9726839033, -23990.440248303446, 14273.354622525529, 3883.7050060874235, -12311.832584361147, -32945.063167221924, 0.0643515625, 8.4375E-4, 1.02773828125, 192.0, 0.0, 0.0, 0.0, 0.0, 0.0, 0.0, 0.0, 0.0, 0.0, 1.747690449296742E9, 0.0, 2025-05-19 23:34:09.296
174.0, 22668.58043296104, 18799.471116002933, 47697.30391470241, 32857.466680701575, 44919.54087251912, 3228.910652269203, 7527.866366847321, 3261.6336061517727, 0.0, 0.0, 8980.886218653468, -24002.75605949832, 14245.929032078868, 3852.7925435057336, -12328.551689213717, -32972.66757162423, 0.0643515625, 8.4375E-4, 1.02773828125, 192.0, 0.0, 0.0, 0.0, 0.0, 0.0, 0.0, 0.0, 0.0, 0.0, 1.747690449303816E9, 0.0, 2025-05-19 23:34:09.303
176.0, 22668.669839938862, 18799.493467747387, 47691.78303382195, 32870.341285507835, 44926.8051894671, 3248.557835645418, 7526.1899860131725, 3248.781353089971, 0.0, 0.0, 8998.991131662266, -23982.21480634389, 14272.281738791675, 3882.9897502648537, -12304.367101713075, -32946.15840270024, 0.0643515625, 8.4375E-4, 1.02773828125, 192.0, 0.0, 0.0, 0.0, 0.0, 0.0, 0.0, 0.0, 0.0, 0.0, 1.747690449311814E9, 0.0, 2025-05-19 23:34:09.311
178.0, 22664.06538058107, 18790.39630775408, 47685.9045250302, 32842.2004392386, 44906.46510201277, 3232.8669110377923, 7497.758567066022, 3255.3527659598312, 0.0, 0.0, 8978.829858163579, -24006.958187455915, 14253.170997282386, 3854.33481387315, -12336.10657883961, -32970.25358322306, 0.06417578125000001, 4.21875E-4, 1.0268691406250001, 192.0, 1.0, 0.0, 0.0, 0.0, 16.0, 8.0, 0.0, 0.0, 0.0, 1.74769044931981E9, 0.0, 2025-05-19 23:34:09.319
180.0, 22681.320927300567, 18809.73056670792, 47699.1591094922, 32867.748483151016, 44927.542797034126, 3241.137056486256, 7543.333774010393, 3259.26432123951, 0.0, 0.0, 8996.331274072085, -23997.816323973697, 14255.562633939104, 3864.5719128336805, -12315.162994284987, -32964.59859187587, 0.06417578125000001, 4.21875E-4, 1.0268691406250001, 192.0, 0.0, 0.0, 0.0, 0.0, 0.0, 0.0, 0.0, 0.0, 0.0, 1.747690449328821E9, 0.0, 2025-05-19 23:34:09.328
182.0, 22680.985651133735, 18813.083328376215, 47686.351559919305, 32856.572610923366, 44909.281421814136, 3262.4606206966187, 7505.91695379221, 3249.4519054236303, 0.0, 0.0, 8999.415814806916, -23990.395544814535, 14275.701555693337, 3879.4805263853705, -12315.587677429638, -32948.41592889022, 0.06417578125000001, 4.21875E-4, 1.0268691406250001, 192.0, 0.0, 0.0, 0.0, 0.0, 0.0, 0.0, 0.0, 0.0, 0.0, 1.747690449335872E9, 0.0, 2025-05-19 23:34:09.335
184.0, 22676.291784798123, 18801.080441603714, 47694.28642920094, 32853.95745682209, 44913.39414279391, 3223.6356405777506, 7532.4708262051145, 3261.901827085236, 0.0, 0.0, 8986.16123034492, -24001.593768786643, 14250.689953647847, 3848.165732403485, -12333.983163116356, -32978.52372867152, 0.06417578125000001, 4.21875E-4, 1.0268691406250001, 192.0, 0.0, 0.0, 0.0, 0.0, 0.0, 0.0, 0.0, 0.0, 0.0, 1.747690449343924E9, 0.0, 2025-05-19 23:34:09.343
186.0, 22665.518243970662, 18791.111563576647, 47694.53229838995, 32873.15760530921, 44920.5019975307, 3253.139943258756, 7536.024753573508, 3249.496608912541, 0.0, 0.0, 8996.420681049905, -23994.105934394116, 14267.00672710022, 3880.419299652493, -12307.786918614736, -32949.533516112984, 0.06417578125000001, 4.21875E-4, 1.0268691406250001, 192.0, 0.0, 0.0, 0.0, 0.0, 0.0, 0.0, 0.0, 0.0, 0.0, 1.747690449352956E9, 0.0, 2025-05-19 23:34:09.352
188.0, 22642.92063032635, 18765.89879583106, 47689.88313554325, 32848.72714861955, 44907.828558424546, 3229.9164807696916, 7506.7216165926, 3258.102030527834, 0.0, 0.0, 8985.44597452235, -24000.386774586055, 14258.021325829188, 3865.4436308674376, -12326.204756045909, -32959.815318562425, 0.065087890625, 0.0022109375000000002, 1.0274345703125, 192.0, 1.0, 8.0, 0.0, 16.0, 16.0, 16.0, 0.0, 0.0, 0.0, 1.747690449359972E9, 0.0, 2025-05-19 23:34:09.359
190.0, 22663.171310802856, 18786.127124563114, 47703.18242349415, 32875.07985533236, 44930.85085521351, 3236.1079139838116, 7552.699154937167, 3265.4110509647194, 0.0, 0.0, 8995.817183949612, -23995.447039061433, 14255.026192072177, 3870.7633460478005, -12307.295180236719, -32958.72008308412, 0.065087890625, 0.0022109375000000002, 1.0274345703125, 192.0, 0.0, 0.0, 0.0, 0.0, 0.0, 0.0, 0.0, 0.0, 0.0, 1.747690449367995E9, 0.0, 2025-05-19 23:34:09.367
192.0, 22646.094578039003, 18765.787037108785, 47701.662504871194, 32865.870936616775, 44916.81395969557, 3241.047649508435, 7503.033578757475, 3251.26239672451, 0.0, 0.0, 8999.706387484835, -23990.08262039216, 14276.930901638378, 3891.326950946683, -12305.618799402571, -32937.240056662566, 0.065087890625, 0.0022109375000000002, 1.0274345703125, 192.0, 0.0, 0.0, 0.0, 0.0, 0.0, 0.0, 0.0, 0.0, 0.0, 1.747690449376022E9, 0.0, 2025-05-19 23:34:09.376
194.0, 22652.48717695322, 18770.61501391113, 47698.53326064745, 32853.17514576616, 44930.046192413116, 3214.8961084957255, 7524.446549945659, 3258.996100306046, 0.0, 0.0, 8990.765689702714, -24005.818248488697, 14246.510177434706, 3860.2803778982616, -12322.315552510687, -32968.644257622276, 0.065087890625, 0.0022109375000000002, 1.0274345703125, 192.0, 0.0, 0.0, 0.0, 0.0, 0.0, 0.0, 0.0, 0.0, 0.0, 1.747690449385071E9, 0.0, 2025-05-19 23:34:09.385
196.0, 22658.656258422885, 18779.645118671076, 47700.276696714966, 32876.06333208839, 44934.69535525982, 3246.7249926000827, 7523.574831911902, 3250.0777542683786, 0.0, 0.0, 9006.769538732713, -23993.435382060456, 14269.890102134956, 3888.398872423038, -12301.170802255965, -32942.87269626531, 0.065087890625, 0.0022109375000000002, 1.0274345703125, 192.0, 0.0, 0.0, 0.0, 0.0, 0.0, 0.0, 0.0, 0.0, 0.0, 1.747690449392062E9, 0.0, 2025-05-19 23:34:09.392
198.0, 22652.263659508666, 18773.163112779035, 47689.860783798795, 32845.97788405155, 44913.14827360491, 3225.7367045565493, 7514.477671918592, 3252.6258531362837, 0.0, 0.0, 8992.442070536861, -24008.165181656503, 14258.602471185026, 3863.2531599108174, -12329.19988980292, -32964.71035059814, 0.065087890625, 0.0022109375000000002, 1.0274345703125, 192.0, 0.0, 0.0, 0.0, 0.0, 0.0, 0.0, 0.0, 0.0, 0.0, 1.747690449400115E9, 0.0, 2025-05-19 23:34:09.400
200.0, 22676.82822666505, 18796.632444457107, 47702.15424324921, 32870.25187853001, 44938.361041350494, 3237.8289983068703, 7554.39788751577, 3254.838675837359, 0.0, 0.0, 9001.740396230269, -23996.117591395094, 14256.43435197286, 3864.728375044868, -12312.39137797253, -32965.42560642071, 0.062, 0.0, 1.032, 192.0, 0.5, 120.0, 0.0, 0.0, 16.0, 32.0, 0.0, 0.0, 0.0, 1.747690449408079E9, 0.0, 2025-05-19 23:34:09.408
202.0, 22656.331676999533, 18777.275833758813, 47684.38460640724, 32848.21305849708, 44927.878073200955, 3240.5335593859627, 7495.210468198117, 3241.0252977639793, 0.0, 0.0, 9003.93086718689, -23998.28571060726, 14272.617014958503, 3874.4066803940154, -12321.220317032376, -32955.00969350454, 0.062, 0.0, 1.032, 192.0, 0.0, 0.0, 0.0, 0.0, 0.0, 0.0, 0.0, 0.0, 0.0, 1.747690449416136E9, 0.0, 2025-05-19 23:34:09.416
204.0, 22663.171310802856, 18780.42742972701, 47692.34182743333, 32846.581381151846, 44935.52236980467, 3208.548213070418, 7532.515529694025, 3266.0592515539233, 0.0, 0.0, 8986.094175111553, -24016.79295501625, 14238.374142452973, 3844.3435841016276, -12335.436026505951, -32982.70350488467, 0.062, 0.0, 1.032, 192.0, 0.0, 0.0, 0.0, 0.0, 0.0, 0.0, 0.0, 0.0, 0.0, 1.747690449424165E9, 0.0, 2025-05-19 23:34:09.424
206.0, 22666.367610259964, 18784.651909429063, 47695.381664679255, 32875.61629719929, 44935.32120410457, 3237.493722140041, 7528.87219534781, 3254.3469374593424, 0.0, 0.0, 9005.406082320938, -23996.3634605841, 14264.592738699048, 3874.652549583024, -12309.217430259876, -32955.30026618246, 0.062, 0.0, 1.032, 192.0, 0.0, 0.0, 0.0, 0.0, 0.0, 0.0, 0.0, 0.0, 0.0, 1.747690449432208E9, 0.0, 2025-05-19 23:34:09.432
208.0, 22650.54257518561, 18774.817141868727, 47682.86468778428, 32849.93414282014, 44915.11522711697, 3229.000059247024, 7502.6535991017345, 3253.9222543146916, 0.0, 0.0, 8988.284646068174, -24001.50436180882, 14256.702572906324, 3857.5981685636248, -12332.10561658211, -32964.88916455378, 0.062, 0.0, 1.032, 192.0, 0.0, 0.0, 0.0, 0.0, 0.0, 0.0, 0.0, 0.0, 0.0, 1.74769044944024E9, 0.0, 2025-05-19 23:34:09.440
210.0, 22672.469636496262, 18800.164020081047, 47702.42246418267, 32875.92922162166, 44932.72840174776, 3239.3712686742865, 7541.8585588763435, 3260.0466322954458, 0.0, 0.0, 8997.739433972769, -23995.022355916783, 14255.517930450194, 3864.1919331779404, -12314.693607651427, -32961.223478463115, 0.064, -0.006, 1.028, 192.0, 1.0, 0.0, 127.5, 104.0, 16.0, 16.0, 0.0, 0.0, 0.0, 1.747690449447322E9, 0.0, 2025-05-19 23:34:09.447
212.0, 22651.86132810847, 18779.131028548603, 47688.67614134266, 32861.28882900343, 44916.36692480647, 3253.095239769845, 7490.941285007154, 3248.781353089971, 0.0, 0.0, 9001.963913674821, -23993.658899505008, 14276.506218493727, 3878.8993810295324, -12318.359293742096, -32946.672492822705, 0.064, -0.006, 1.028, 192.0, 0.0, 0.0, 0.0, 0.0, 0.0, 0.0, 0.0, 0.0, 0.0, 1.747690449456265E9, 0.0, 2025-05-19 23:34:09.456
214.0, 22664.132435814434, 18790.239845542892, 47698.89088855874, 32867.972000595575, 44924.03357315464, 3217.9582974861023, 7527.665201147223, 3268.8532196108367, 0.0, 0.0, 8991.659759480925, -24000.65499551952, 14249.684125147358, 3857.039374952242, -12329.758683414304, -32966.27497271001, 0.064, -0.006, 1.028, 192.0, 0.0, 0.0, 0.0, 0.0, 0.0, 0.0, 0.0, 0.0, 0.0, 1.747690449464282E9, 0.0, 2025-05-19 23:34:09.464
216.0, 22665.227671292745, 18792.720889177428, 47703.271830471975, 32890.92724215117, 44924.27944234365, 3255.8221525933927, 7522.278430733494, 3261.4547921961303, 0.0, 0.0, 9010.546983545659, -23977.051553374717, 14277.601453972036, 3896.1325760045743, -12300.924933066957, -32930.35571937033, 0.064, -0.006, 1.028, 192.0, 0.0, 0.0, 0.0, 0.0, 0.0, 0.0, 0.0, 0.0, 0.0, 1.747690449473315E9, 0.0, 2025-05-19 23:34:09.473
218.0, 22648.15093852889, 18774.459513957445, 47689.704321587604, 32853.80099461091, 44910.51076775918, 3218.0253527194686, 7488.124965205785, 3255.844504337848, 0.0, 0.0, 8997.15828861693, -23993.614196016097, 14266.49263697775, 3875.3231019166833, -12326.897660124025, -32948.30417016795, 0.064, -0.006, 1.028, 192.0, 0.0, 0.0, 0.0, 0.0, 0.0, 0.0, 0.0, 0.0, 0.0, 1.747690449479318E9, 0.0, 2025-05-19 23:34:09.479
220.0, 22661.070246824056, 18784.853075129162, 47698.42150192517, 32867.70377966211, 44935.32120410457, 3219.813492275893, 7535.041276817475, 3253.78814384796, 0.0, 0.0, 8998.566448517615, -23998.2633588628, 14253.483921704761, 3871.500953614826, -12316.369988485574, -32957.513088883534, 0.062, -0.002, 1.03, 192.0, 0.5, 120.0, 127.5, 120.0, 16.0, 24.0, 0.0, 0.0, 0.0, 1.747690449489372E9, 0.0, 2025-05-19 23:34:09.489
222.0, 22637.086825023514, 18761.026115539804, 47679.60133309381, 32844.323854961855, 44911.89657591541, 3231.0564197369126, 7491.902410018732, 3238.5666058738957, 0.0, 0.0, 8996.30892232763, -24011.160315413515, 14262.9163578649, 3878.809974051711, -12322.404959488507, -32952.43924289218, 0.062, -0.002, 1.03, 192.0, 0.0, 0.0, 0.0, 0.0, 0.0, 0.0, 0.0, 0.0, 0.0, 1.747690449496401E9, 0.0, 2025-05-19 23:34:09.496
224.0, 22649.42498796284, 18771.86671160063, 47693.79469082293, 32856.416148712175, 44929.44269531283, 3207.6317915477507, 7527.531090680492, 3262.527675929985, 0.0, 0.0, 8982.070861109598, -24018.75990852832, 14233.479110417262, 3855.0500696957197, -12331.949154370923, -32974.41100769174, 0.062, -0.002, 1.03, 192.0, 0.0, 0.0, 0.0, 0.0, 0.0, 0.0, 0.0, 0.0, 0.0, 1.747690449503424E9, 0.0, 2025-05-19 23:34:09.503
226.0, 22649.983781574225, 18770.592662166677, 47692.29712394442, 32871.57063145288, 44926.1569888779, 3233.7386290715494, 7527.464035447126, 3248.9825187900688, 0.0, 0.0, 8998.49939328425, -23991.379021570567, 14262.022288086688, 3886.543677633247, -12306.53522092524, -32941.75510904254, 0.062, -0.002, 1.03, 192.0, 0.0, 0.0, 0.0, 0.0, 0.0, 0.0, 0.0, 0.0, 0.0, 1.747690449512437E9, 0.0, 2025-05-19 23:34:09.512
228.0, 22637.220935490244, 18755.23701372588, 47681.255362183496, 32835.33845369083, 44909.19201483631, 3208.257640392499, 7497.937381021665, 3252.5364461584627, 0.0, 0.0, 8984.261332066219, -24013.79782125924, 14246.130197778964, 3858.201665663918, -12334.407846261007, -32967.77253958852, 0.062, -0.002, 1.03, 192.0, 0.0, 0.0, 0.0, 0.0, 0.0, 0.0, 0.0, 0.0, 0.0, 1.747690449520467E9, 0.0, 2025-05-19 23:34:09.520
230.0, 22652.15190078639, 18770.592662166677, 47692.073606499864, 32855.16445102268, 44935.142390148925, 3219.7240852980717, 7544.451361233158, 3256.090373526856, 0.0, 0.0, 8984.462497766317, -24016.971768971893, 14230.86395631599, 3856.5699883186808, -12324.170747300477, -32971.371170445826, 0.058, -0.006, 1.038, 192.0, 0.5, 104.0, 127.5, 104.0, 16.0, 56.0, 0.0, 0.0, 0.0, 1.747690449527512E9, 0.0, 2025-05-19 23:34:09.527
232.0, 22650.76609263016, 18768.223377254413, 47689.95019077661, 32850.85056434281, 44922.46895104277, 3239.5724343743846, 7500.10550023383, 3252.938777558658, 0.0, 0.0, 8992.442070536861, -24009.662748535007, 14255.137950794453, 3879.949913018932, -12316.77231988577, -32947.94654225666, 0.058, -0.006, 1.038, 192.0, 0.0, 0.0, 0.0, 0.0, 0.0, 0.0, 0.0, 0.0, 0.0, 1.747690449535575E9, 0.0, 2025-05-19 23:34:09.535
234.0, 22660.287935768123, 18784.24957802887, 47694.82287106787, 32851.11878527627, 44925.88876794443, 3224.261489422499, 7526.637020902279, 3269.83669636687, 0.0, 0.0, 8981.132087842476, -24018.715205039407, 14232.33917145004, 3855.608863307102, -12329.982200858856, -32969.739493100584, 0.058, -0.006, 1.038, 192.0, 0.0, 0.0, 0.0, 0.0, 0.0, 0.0, 0.0, 0.0, 0.0, 1.747690449544597E9, 0.0, 2025-05-19 23:34:09.544
236.0, 22658.43274097833, 18784.406040240054, 47694.15231873421, 32869.916602363184, 44930.046192413116, 3252.3799839472754, 7523.10544527834, 3257.967920061102, 0.0, 0.0, 8999.773442718202, -23996.02818441727, 14259.943575852345, 3885.6049043661246, -12305.931723824946, -32940.19048693067, 0.058, -0.006, 1.038, 192.0, 0.0, 0.0, 0.0, 0.0, 0.0, 0.0, 0.0, 0.0, 0.0, 1.747690449552663E9, 0.0, 2025-05-19 23:34:09.552
238.0, 22644.932287327327, 18770.19033076648, 47681.881211028245, 32833.61736936776, 44906.73332294623, 3223.188605688644, 7499.367892666804, 3250.2789199684767, 0.0, 0.0, 8982.652006465436, -24012.724937525385, 14246.130197778964, 3856.882912741055, -12338.319401540686, -32965.71617909863, 0.058, -0.006, 1.038, 192.0, 0.0, 0.0, 0.0, 0.0, 0.0, 0.0, 0.0, 0.0, 0.0, 1.747690449559602E9, 0.0, 2025-05-19 23:34:09.559
240.0, 22641.534822170117, 18763.842435341172, 47690.754853577004, 32855.4550237006, 44923.4524277988, 3218.360628886298, 7538.639907674779, 3247.8202280783926, 0.0, 0.0, 8987.547038501149, -24014.4683735929, 14234.082607517554, 3853.1278196725634, -12326.24945953482, -32973.56164140244, 0.062, -0.006, 1.034, 192.0, 0.5, 120.0, 127.5, 104.0, 16.0, 40.0, 0.0, 0.0, 0.0, 1.747690449567752E9, 0.0, 2025-05-19 23:34:09.567
242.0, 22637.846784334994, 18761.361391706632, 47682.082376728344, 32847.2519334855, 44910.30960205908, 3224.3732481447755, 7495.366930409305, 3237.0466872509346, 0.0, 0.0, 8989.11166061302, -24010.333300868668, 14253.908604849412, 3865.2201134228844, -12328.775206658269, -32961.67051335222, 0.062, -0.006, 1.034, 192.0, 0.0, 0.0, 0.0, 0.0, 0.0, 0.0, 0.0, 0.0, 0.0, 1.747690449576725E9, 0.0, 2025-05-19 23:34:09.576
244.0, 22642.026560548136, 18766.837569098185, 47684.474013385065, 32843.58624739483, 44916.612793995475, 3202.714407767583, 7518.724503365101, 3255.4421729376522, 0.0, 0.0, 8978.44987850784, -24018.916370739506, 14229.76872083768, 3841.3931538335273, -12340.308706797208, -32982.56939441793, 0.062, -0.006, 1.034, 192.0, 0.0, 0.0, 0.0, 0.0, 0.0, 0.0, 0.0, 0.0, 0.0, 1.747690449583676E9, 0.0, 2025-05-19 23:34:09.583
246.0, 22647.56979317305, 18774.10188604616, 47694.42053966768, 32869.60367794081, 44923.810055710084, 3233.202187204622, 7537.276451263006, 3252.5364461584627, 0.0, 0.0, 8989.759861202225, -24005.058289177214, 14249.862939103, 3870.0257384807755, -12319.700398409415, -32954.38384465979, 0.062, -0.006, 1.034, 192.0, 0.0, 0.0, 0.0, 0.0, 0.0, 0.0, 0.0, 0.0, 0.0, 1.747690449591699E9, 0.0, 2025-05-19 23:34:09.591
248.0, 22639.81373784706, 18764.66944988602, 47694.398187923216, 32848.7047968751, 44913.59530849401, 3215.1196259402786, 7514.701189363145, 3257.096202027345, 0.0, 0.0, 8988.619922235004, -24009.08160317917, 14248.253613502218, 3869.1316687025633, -12323.947229855923, -32955.635542349286, 0.062, -0.006, 1.034, 192.0, 0.0, 0.0, 0.0, 0.0, 0.0, 0.0, 0.0, 0.0, 0.0, 1.747690449599791E9, 0.0, 2025-05-19 23:34:09.599
250.0, 22652.420121719853, 18779.086325059692, 47697.39332168023, 32864.93216334965, 44932.79545698112, 3217.913593997192, 7536.829416373899, 3253.430515936675, 0.0, 0.0, 8987.122355356498, -24006.93583571146, 14237.658886630403, 3867.276473912773, -12315.498270451817, -32960.24000170708, 0.056, -0.01, 1.03, 192.0, 0.5, 96.0, 127.5, 88.0, 16.0, 24.0, 0.0, 0.0, 0.0, 1.747690449608763E9, 0.0, 2025-05-19 23:34:09.608
252.0, 22641.735987870215, 18768.044563298772, 47685.233972696544, 32852.21402075458, 44911.40483753739, 3235.303251183421, 7495.948075765143, 3231.5481581149293, 0.0, 0.0, 8991.548000758648, -24007.852257234128, 14257.127256050975, 3877.848849040133, -12320.43800597644, -32950.248771935556, 0.056, -0.01, 1.03, 192.0, 0.0, 0.0, 0.0, 0.0, 0.0, 0.0, 0.0, 0.0, 0.0, 1.747690449615832E9, 0.0, 2025-05-19 23:34:09.615
254.0, 22643.635886148917, 18771.151455778057, 47688.005589009, 32844.86029682878, 44920.189073108326, 3208.883489237248, 7533.141378538773, 3254.525751414985, 0.0, 0.0, 8975.611206962014, -24021.777394029785, 14226.930049291856, 3849.417430092982, -12335.190157316943, -32977.27203098202, 0.056, -0.01, 1.03, 192.0, 0.0, 0.0, 0.0, 0.0, 0.0, 0.0, 0.0, 0.0, 0.0, 1.747690449623865E9, 0.0, 2025-05-19 23:34:09.623
0.0, 22644.73112162723, 18773.90072034606, 47686.999760508515, 32863.59105868233, 44924.592366766024, 3222.0263149769685, 7527.151111024751, 3246.7920478334486, 0.0, 0.0, 8988.284646068174, -24006.913483967008, 14248.030096057666, 3876.2171716948956, -12313.084282050644, -32952.57335335891, 0.056, -0.01, 1.03, 192.0, 0.0, 0.0, 0.0, 0.0, 0.0, 0.0, 0.0, 0.0, 0.0, 1.747690449632904E9, 0.0, 2025-05-19 23:34:09.632
2.0, 22638.42792969083, 18766.90462433155, 47681.50123137251, 32842.04397702742, 44904.319334545056, 3211.3868846162422, 7494.428157142182, 3258.660824139217, 0.0, 0.0, 8978.271064552197, -24017.32939688318, 14240.765779109692, 3858.71575578639, -12335.927764883967, -32966.85611806585, 0.056, -0.01, 1.03, 192.0, 0.0, 0.0, 0.0, 0.0, 0.0, 0.0, 0.0, 0.0, 0.0, 1.747690449639924E9, 0.0, 2025-05-19 23:34:09.639
4.0, 22651.81662461956, 18782.81906638373, 47690.86661229928, 32863.43459647115, 44921.77604696465, 3215.58901257384, 7537.522320452013, 3265.3886992202642, 0.0, 0.0, 8982.853172165534, -24007.628739789576, 14235.468415673784, 3860.8615232540997, -12322.96375309989, -32965.202088976155, 0.06, -0.002, 1.03, 192.0, 0.5, 112.0, 127.5, 120.0, 16.0, 24.0, 0.0, 0.0, 0.0, 1.747690449647931E9, 0.0, 2025-05-19 23:34:09.647
6.0, 22639.076130280035, 18771.017345311328, 47688.877307042756, 32856.52790743446, 44907.71679970226, 3248.289614711954, 7506.363988681315, 3251.0612310244123, 0.0, 0.0, 8985.44597452235, -24002.621949031585, 14256.166131039397, 3880.2181339523954, -12317.91225885299, -32947.23128643409, 0.06, -0.002, 1.03, 192.0, 0.0, 0.0, 0.0, 0.0, 0.0, 0.0, 0.0, 0.0, 0.0, 1.747690449655967E9, 0.0, 2025-05-19 23:34:09.655
8.0, 22649.06736005156, 18784.495447217876, 47700.03082752596, 32857.489032446036, 44913.88588117193, 3207.3859223587424, 7531.353238982349, 3268.9873300775685, 0.0, 0.0, 8977.242884307252, -24012.680234036474, 14235.557822651605, 3860.101563942619, -12326.87530837957, -32966.6326006213, 0.06, -0.002, 1.03, 192.0, 0.0, 0.0, 0.0, 0.0, 0.0, 0.0, 0.0, 0.0, 0.0, 1.747690449665011E9, 0.0, 2025-05-19 23:34:09.665
10.0, 22647.882717595425, 18781.880293116606, 47698.242687969534, 32875.07985533236, 44921.574881264554, 3232.978669760069, 7526.815834857922, 3256.716222371605, 0.0, 0.0, 8997.247695594751, -23994.37415532758, 14261.351735753029, 3892.5339451472696, -12301.036691789233, -32937.08359445138, 0.06, -0.002, 1.03, 192.0, 0.0, 0.0, 0.0, 0.0, 0.0, 0.0, 0.0, 0.0, 0.0, 1.747690449672018E9, 0.0, 2025-05-19 23:34:09.672
12.0, 22641.691284381304, 18773.163112779035, 47693.77233907847, 32851.34230272083, 44911.04720962611, 3220.4169893761864, 7497.8926775327545, 3263.712318386116, 0.0, 0.0, 8980.573294231093, -24009.685100279465, 14247.58306116856, 3873.0432239822417, -12327.657619435504, -32953.42271964821, 0.06, -0.002, 1.03, 192.0, 0.0, 0.0, 0.0, 0.0, 0.0, 0.0, 0.0, 0.0, 0.0, 1.747690449680027E9, 0.0, 2025-05-19 23:34:09.680
14.0, 22650.877851352438, 18782.975528594914, 47698.667371114185, 32871.88355587525, 44927.20752086729, 3220.8640242652923, 7529.609802914835, 3260.918350329203, 0.0, 0.0, 8992.419718792406, -23997.503399551322, 14243.604450655515, 3872.171505948485, -12317.331113497152, -32952.349835914356, 0.062, -0.006, 1.028, 192.0, 0.5, 120.0, 127.5, 104.0, 16.0, 16.0, 0.0, 0.0, 0.0, 1.747690449688044E9, 0.0, 2025-05-19 23:34:09.688
16.0, 22640.685455880815, 18770.302089488756, 47690.64309485473, 32858.91954409117, 44918.75856146319, 3232.35282091532, 7499.546706622447, 3248.848408323337, 0.0, 0.0, 8990.765689702714, -24001.347899597633, 14258.602471185026, 3881.7604043198116, -12320.840337376636, -32943.94557999916, 0.062, -0.006, 1.028, 192.0, 0.0, 0.0, 0.0, 0.0, 0.0, 0.0, 0.0, 0.0, 0.0, 1.747690449696083E9, 0.0, 2025-05-19 23:34:09.696
18.0, 22646.80983386157, 18774.839493613184, 47697.08039725786, 32853.95745682209, 44917.37275330696, 3206.782425258449, 7527.218166258117, 3266.461582954119, 0.0, 0.0, 8983.188448332363, -24012.769641014296, 14236.161319751898, 3857.531113330259, -12333.089093338143, -32966.6326006213, 0.062, -0.006, 1.028, 192.0, 0.0, 0.0, 0.0, 0.0, 0.0, 0.0, 0.0, 0.0, 0.0, 1.747690449704138E9, 0.0, 2025-05-19 23:34:09.704
20.0, 22650.587278674517, 18778.706345403953, 47695.29225770143, 32870.050712829914, 44923.56418652108, 3232.1293034707674, 7528.179291269696, 3254.034013036968, 0.0, 0.0, 8993.514954270715, -24004.566550799198, 14253.170997282386, 3885.426090410482, -12308.680988392949, -32943.43148987669, 0.062, -0.006, 1.028, 192.0, 0.0, 0.0, 0.0, 0.0, 0.0, 0.0, 0.0, 0.0, 0.0, 1.747690449712175E9, 0.0, 2025-05-19 23:34:09.712
22.0, 22637.936191312816, 18764.155359763547, 47681.85885928379, 32842.245142727515, 44912.902404415894, 3217.8018352749154, 7490.918933262698, 3251.6647281247056, 0.0, 0.0, 8977.578160474082, -24017.485859094366, 14241.0116482987, 3866.8517907681216, -12331.636229948548, -32958.205992961644, 0.062, -0.006, 1.028, 192.0, 0.0, 0.0, 0.0, 0.0, 0.0, 0.0, 0.0, 0.0, 0.0, 1.747690449720261E9, 0.0, 2025-05-19 23:34:09.720
24.0, 22653.090674053514, 18782.14851405007, 47692.2077169666, 32864.61923892728, 44926.402858066904, 3229.044762735935, 7532.426122716203, 3242.9251960426805, 0.0, 0.0, 8976.326462784584, -24015.60831256012, 14227.399435925417, 3860.883874998555, -12326.316514768187, -32966.118510498825, 0.06, -0.01, 1.03, 192.0, 0.5, 112.0, 127.5, 88.0, 16.0, 24.0, 0.0, 0.0, 0.0, 1.747690449727378E9, 0.0, 2025-05-19 23:34:09.727
26.0, 22638.852612835482, 18768.178673765502, 47689.59256286533, 32855.90205858971, 44910.10843635898, 3238.3654401737977, 7508.375645682293, 3246.9261583001803, 0.0, 0.0, 8988.664625723914, -24004.097164165636, 14256.166131039397, 3883.4367851539596, -12314.850069862614, -32945.93488525568, 0.06, -0.01, 1.03, 192.0, 0.0, 0.0, 0.0, 0.0, 0.0, 0.0, 0.0, 0.0, 0.0, 1.747690449736289E9, 0.0, 2025-05-19 23:34:09.736
28.0, 22647.39097921741, 18775.979432580403, 47695.98516177954, 32854.337436477836, 44913.66236372738, 3205.4189688466754, 7530.079189548396, 3262.527675929985, 0.0, 0.0, 8975.141820328454, -24018.55874282822, 14227.779415581157, 3855.005366206809, -12329.892793881036, -32971.19235649018, 0.06, -0.01, 1.03, 192.0, 0.0, 0.0, 0.0, 0.0, 0.0, 0.0, 0.0, 0.0, 0.0, 1.747690449744286E9, 0.0, 2025-05-19 23:34:09.744
30.0, 22638.15970875737, 18770.99499356687, 47688.92201053167, 32862.69698890412, 44914.91406141687, 3228.2400999355436, 7524.535956923481, 3241.6734983531833, 0.0, 0.0, 8986.697672211847, -24001.102030408627, 14247.605412913015, 3879.6369885965573, -12309.887982593535, -32948.5276876125, 0.06, -0.01, 1.03, 192.0, 0.0, 0.0, 0.0, 0.0, 0.0, 0.0, 0.0, 0.0, 0.0, 1.747690449751326E9, 0.0, 2025-05-19 23:34:09.751
32.0, 22635.991589545203, 18763.90949057454, 47684.71988257407, 32841.90986656069, 44900.474834498746, 3213.555003828407, 7490.717767562601, 3259.4654869396077, 0.0, 0.0, 8973.91247438341, -24020.123364940093, 14236.049561029622, 3860.682709298457, -12334.094921838632, -32965.09033025388, 0.06, -0.01, 1.03, 192.0, 0.0, 0.0, 0.0, 0.0, 0.0, 0.0, 0.0, 0.0, 0.0, 1.747690449759347E9, 0.0, 2025-05-19 23:34:09.759
34.0, 22649.737912385215, 18778.751048892864, 47699.1591094922, 32866.31797150588, 44924.7041254883, 3214.2926113954322, 7542.417352487726, 3258.5714171613954, 0.0, 0.0, 8985.065994866609, -24006.309986866712, 14235.401360440417, 3865.1754099339737, -12320.01332283179, -32961.31288544094, 0.056, -0.006, 1.032, 192.0, 0.5, 96.0, 127.5, 104.0, 16.0, 32.0, 0.0, 0.0, 0.0, 1.747690449768399E9, 0.0, 2025-05-19 23:34:09.768
36.0, 22645.15580477188, 18772.827836612207, 47698.242687969534, 32862.160547037194, 44924.5029597882, 3235.5714721168843, 7491.0306919849745, 3242.2769954534765, 0.0, 0.0, 8996.331274072085, -24000.811457730706, 14262.20110204233, 3882.654474098024, -12314.827718118158, -32947.9241905122, 0.056, -0.006, 1.032, 192.0, 0.0, 0.0, 0.0, 0.0, 0.0, 0.0, 0.0, 0.0, 0.0, 1.747690449775373E9, 0.0, 2025-05-19 23:34:09.775
38.0, 22642.92063032635, 18771.307917989245, 47700.0084757815, 32858.114881290785, 44919.98790740823, 3210.6716287936724, 7521.026733043997, 3256.2915392269542, 0.0, 0.0, 8987.189410589865, -24009.528638068277, 14236.29543021863, 3858.0228517082755, -12329.758683414304, -32967.70548435515, 0.056, -0.006, 1.032, 192.0, 0.0, 0.0, 0.0, 0.0, 0.0, 0.0, 0.0, 0.0, 0.0, 1.747690449783419E9, 0.0, 2025-05-19 23:34:09.783
40.0, 22651.43664496382, 18777.074668058714, 47706.132853762254, 32880.24310830153, 44933.98009943725, 3245.4509431661304, 7522.814872600422, 3246.5685303888954, 0.0, 0.0, 8998.477041539794, -23994.4635623054, 14254.15447403842, 3885.8284218106774, -12306.334055225141, -32941.151611942245, 0.056, -0.006, 1.032, 192.0, 0.0, 0.0, 0.0, 0.0, 0.0, 0.0, 0.0, 0.0, 0.0, 1.747690449791503E9, 0.0, 2025-05-19 23:34:09.791
42.0, 22637.176232001333, 18759.059162027737, 47690.66544659918, 32843.38508169473, 44920.99373590872, 3210.068131693379, 7488.706110561623, 3242.7016785981273, 0.0, 0.0, 8985.758898944725, -24013.619007303598, 14240.162282009398, 3866.3824041345606, -12329.065779336188, -32959.882373795794, 0.056, -0.006, 1.032, 192.0, 0.0, 0.0, 0.0, 0.0, 0.0, 0.0, 0.0, 0.0, 0.0, 1.747690449800556E9, 0.0, 2025-05-19 23:34:09.800
44.0, 22650.810796119073, 18769.56448192173, 47699.76260659249, 32858.2042882686, 44937.48932331674, 3207.1847566586443, 7527.240518002573, 3241.7629053310047, 0.0, 0.0, 8985.44597452235, -24018.290521894756, 14225.09720624652, 3859.743936031334, -12323.410787988996, -32969.09129251138, 0.058, -0.004, 1.034, 192.0, 0.5, 104.0, 127.5, 112.0, 16.0, 40.0, 0.0, 0.0, 0.0, 1.747690449809611E9, 0.0, 2025-05-19 23:34:09.809
46.0, 22642.205374503777, 18760.735542861887, 47692.11830998878, 32845.28497997343, 44921.999564409205, 3219.4335126201527, 7485.19688668214, 3224.753227800516, 0.0, 0.0, 8996.264218838718, -24012.143792169547, 14251.695782148336, 3875.09958447213, -12319.521584453772, -32955.90376328275, 0.058, -0.004, 1.034, 192.0, 0.0, 0.0, 0.0, 0.0, 0.0, 0.0, 0.0, 0.0, 0.0, 1.747690449815558E9, 0.0, 2025-05-19 23:34:09.815
48.0, 22650.319057741053, 18771.978470322905, 47695.76164433499, 32845.82142184036, 44927.386334822935, 3199.8980879662145, 7514.500023663048, 3245.4732949105855, 0.0, 0.0, 8982.093212854053, -24025.353673142636, 14224.560764379594, 3842.466037567382, -12340.509872497305, -32986.81622586444, 0.058, -0.004, 1.034, 192.0, 0.0, 0.0, 0.0, 0.0, 0.0, 0.0, 0.0, 0.0, 0.0, 1.747690449823574E9, 0.0, 2025-05-19 23:34:09.823
50.0, 22641.534822170117, 18767.418714454023, 47687.20092620861, 32858.6066196688, 44923.2512620987, 3226.0496289789235, 7510.968448039109, 3230.810550547904, 0.0, 0.0, 8993.514954270715, -24001.169085641992, 14246.420770456883, 3875.4125088945043, -12315.721787896371, -32952.126318469804, 0.058, -0.004, 1.034, 192.0, 0.0, 0.0, 0.0, 0.0, 0.0, 0.0, 0.0, 0.0, 0.0, 1.747690449831613E9, 0.0, 2025-05-19 23:34:09.831
52.0, 22631.1412609984, 18753.203004980445, 47677.88024877074, 32832.2986164449, 44901.57006997705, 3206.268335135977, 7485.845087271344, 3240.69002159715, 0.0, 0.0, 8970.023270848187, -24028.125289455093, 14225.700703346814, 3853.5748545616693, -12342.476826009373, -32971.281763468, 0.058, -0.004, 1.034, 192.0, 0.0, 0.0, 0.0, 0.0, 0.0, 0.0, 0.0, 0.0, 0.0, 1.747690449839643E9, 0.0, 2025-05-19 23:34:09.839
54.0, 22640.05960703607, 18769.85505459965, 47693.19119372263, 32860.37240748077, 44918.37858180745, 3214.069093950879, 7539.0422390749745, 3252.4470391806412, 0.0, 0.0, 8974.650081950436, -24020.61510331811, 14219.777491066157, 3856.257063896306, -12327.232936290853, -32967.95135354416, 0.06, 0.0, 1.034, 192.0, 0.5, 112.0, 0.0, 0.0, 16.0, 40.0, 0.0, 0.0, 0.0, 1.747690449847724E9, 0.0, 2025-05-19 23:34:09.847
56.0, 22632.14708949889, 18763.216586496423, 47687.93853377563, 32857.91371559069, 44906.73332294623, 3234.655050594217, 7494.875192031288, 3245.8979780552363, 0.0, 0.0, 8986.027119878188, -24010.199190401938, 14248.521834435682, 3880.7322240748676, -12317.599334430615, -32945.04081547747, 0.06, 0.0, 1.034, 192.0, 0.0, 0.0, 0.0, 0.0, 0.0, 0.0, 0.0, 0.0, 0.0, 1.747690449856715E9, 0.0, 2025-05-19 23:34:09.856
58.0, 22633.756415099673, 18766.055258042248, 47687.71501633108, 32849.33064571985, 44904.878128156444, 3203.630829290251, 7518.411578942726, 3252.0447077804456, 0.0, 0.0, 8973.06310809411, -24019.162239928515, 14222.19147946733, 3849.082153926153, -12338.028828862767, -32971.080597767905, 0.06, 0.0, 1.034, 192.0, 0.0, 0.0, 0.0, 0.0, 0.0, 0.0, 0.0, 0.0, 0.0, 1.747690449863691E9, 0.0, 2025-05-19 23:34:09.863
60.0, 22633.19762148829, 18767.3293074762, 47690.1066529878, 32868.93312560715, 44913.327087560545, 3233.1127802268006, 7522.569003411413, 3244.646280365739, 0.0, 0.0, 8986.16123034492, -24003.04663217624, 14242.933898321857, 3874.809011794211, -12315.073587307166, -32947.723024812105, 0.06, 0.0, 1.034, 192.0, 0.0, 0.0, 0.0, 0.0, 0.0, 0.0, 0.0, 0.0, 0.0, 1.747690449871763E9, 0.0, 2025-05-19 23:34:09.871
62.0, 22623.3405021835, 18754.924089303506, 47683.04350173992, 32845.106166017795, 44895.62450595194, 3224.3061929114097, 7492.505907119025, 3250.3459752018425, 0.0, 0.0, 8970.135029570465, -24018.961074228417, 14231.199232482819, 3862.359090132605, -12333.24555554933, -32959.547097628965, 0.06, 0.0, 1.034, 192.0, 0.0, 0.0, 0.0, 0.0, 0.0, 0.0, 0.0, 0.0, 0.0, 1.747690449880761E9, 0.0, 2025-05-19 23:34:09.880
64.0, 22639.61257214696, 18773.163112779035, 47697.683894358146, 32868.106111062305, 44919.02678239665, 3224.909690011703, 7535.018925073019, 3256.3809462047752, 0.0, 0.0, 8981.0203291202, -24011.56264681371, 14225.879517302457, 3863.521380844281, -12319.946267598423, -32957.84836505036, 0.057999999999999996, -0.002, 1.036, 192.0, 0.5, 96.0, 127.5, 112.0, 16.0, 56.0, 0.0, 0.0, 0.0, 1.747690449888796E9, 0.0, 2025-05-19 23:34:09.888
66.0, 22629.308417953067, 18762.4789789294, 47686.79859480842, 32859.34422723582, 44907.69444795781, 3230.2070534476106, 7491.589485596358, 3243.618100120795, 0.0, 0.0, 8991.123317613998, -24004.03010893227, 14251.338154237052, 3881.693349086446, -12316.459395463395, -32940.61517007532, 0.057999999999999996, -0.002, 1.036, 192.0, 0.0, 0.0, 0.0, 0.0, 0.0, 0.0, 0.0, 0.0, 0.0, 1.747690449896857E9, 0.0, 2025-05-19 23:34:09.896
68.0, 22635.701016867282, 18770.771476122318, 47688.72084483157, 32849.17418350866, 44912.88005267144, 3208.324695625865, 7512.175442239695, 3257.5655886609065, 0.0, 0.0, 8976.415869762406, -24015.69771953794, 14221.856203300502, 3847.3387178586386, -12338.609974218605, -32970.18652798969, 0.057999999999999996, -0.002, 1.036, 192.0, 0.0, 0.0, 0.0, 0.0, 0.0, 0.0, 0.0, 0.0, 0.0, 1.74769044990479E9, 0.0, 2025-05-19 23:34:09.904
70.0, 22634.85165057798, 18768.33513597669, 47688.29616168692, 32865.82623312786, 44925.41938131087, 3234.565643616396, 7530.168596526218, 3242.7910855759487, 0.0, 0.0, 8985.44597452235, -24006.51115256681, 14236.809520341101, 3874.2949216717393, -12314.715959395882, -32948.706501568144, 0.057999999999999996, -0.002, 1.036, 192.0, 0.0, 0.0, 0.0, 0.0, 0.0, 0.0, 0.0, 0.0, 0.0, 1.747690449911882E9, 0.0, 2025-05-19 23:34:09.911
72.0, 22625.016883017648, 18756.399304437557, 47677.09793771481, 32838.91473280367, 44906.08512235703, 3214.337314884343, 7495.813965298411, 3255.8668560823035, 0.0, 0.0, 8972.39255576045, -24022.067966707706, 14226.86299405849, 3860.816819765189, -12332.82087240468, -32961.33523718539, 0.057999999999999996, -0.002, 1.036, 192.0, 0.0, 0.0, 0.0, 0.0, 0.0, 0.0, 0.0, 0.0, 0.0, 1.747690449919916E9, 0.0, 2025-05-19 23:34:09.919
74.0, 22630.828336576025, 18763.551862663255, 47673.0522719684, 32846.93900906313, 44912.79064569362, 3216.2148614185885, 7523.865404589821, 3238.901882040725, 0.0, 0.0, 8971.118506326498, -24021.866801007607, 14213.317836918573, 3850.9373487159432, -12331.233898548353, -32969.31480995593, 0.06, -0.003, 1.037, 192.0, 0.5, 120.0, 127.5, 112.0, 16.0, 56.0, 0.0, 0.0, 0.0, 1.747690449927926E9, 0.0, 2025-05-19 23:34:09.927
76.0, 22617.95373176977, 18750.833720068185, 47666.61496956527, 32835.71843334656, 44895.289229785114, 3223.4791783665632, 7485.95684599362, 3231.1234749702785, 0.0, 0.0, 8967.184599302363, -24026.65007432104, 14227.086511503043, 3860.3250813871723, -12333.916107882991, -32962.117548241324, 0.06, -0.003, 1.037, 192.0, 0.0, 0.0, 0.0, 0.0, 0.0, 0.0, 0.0, 0.0, 0.0, 1.747690449935999E9, 0.0, 2025-05-19 23:34:09.935
78.0, 22633.86817382195, 18764.512987674832, 47678.84137378233, 32839.652340370696, 44903.02293336665, 3208.30234388141, 7511.214317228118, 3248.580187389873, 0.0, 0.0, 8960.501427710227, -24033.04267323526, 14206.209982181786, 3837.5039502983036, -12345.58371848866, -32983.35170547387, 0.06, -0.003, 1.037, 192.0, 0.0, 0.0, 0.0, 0.0, 0.0, 0.0, 0.0, 0.0, 0.0, 1.747690449943969E9, 0.0, 2025-05-19 23:34:09.943
80.0, 22630.180135986822, 18763.328345218702, 47682.931743017645, 32865.62506742776, 44907.672096213355, 3239.617137863295, 7520.53499466598, 3245.003908277024, 0.0, 0.0, 8979.388651774962, -24010.62387354659, 14232.652095872414, 3870.6739390699795, -12318.940439097934, -32950.33817891338, 0.06, -0.003, 1.037, 192.0, 0.0, 0.0, 0.0, 0.0, 0.0, 0.0, 0.0, 0.0, 0.0, 1.747690449950985E9, 0.0, 2025-05-19 23:34:09.950
82.0, 22620.85945854896, 18756.488711415375, 47684.272847684966, 32847.54250616342, 44894.28340128463, 3231.458751137108, 7501.804232812433, 3253.8551990813257, 0.0, 0.0, 8974.560674972616, -24016.547085827242, 14231.176880738365, 3862.3814418770603, -12331.993857859834, -32957.40133016126, 0.06, -0.003, 1.037, 192.0, 0.0, 0.0, 0.0, 0.0, 0.0, 0.0, 0.0, 0.0, 0.0, 1.747690449960046E9, 0.0, 2025-05-19 23:34:09.960
84.0, 22633.06351102156, 18771.889063345083, 47694.956981534604, 32867.23439302855, 44911.96363114878, 3227.837768535348, 7534.147207039262, 3261.275978240488, 0.0, 0.0, 8983.456669265828, -24009.08160317917, 14225.0077992687, 3866.00242447882, -12315.721787896371, -32955.88141153829, 0.063, -0.0045000000000000005, 1.0345, 192.0, 1.0, 8.0, 127.5, 104.0, 16.0, 32.0, 0.0, 0.0, 0.0, 1.747690449968013E9, 0.0, 2025-05-19 23:34:09.968
86.0, 22621.306493438067, 18755.28171721479, 47685.949228519115, 32856.21498301208, 44900.74305543221, 3236.554948872918, 7505.872250303299, 3248.244911223044, 0.0, 0.0, 8982.808468676623, -24009.953321212928, 14243.313877977596, 3885.6049043661246, -12308.412767459486, -32939.87756250829, 0.063, -0.0045000000000000005, 1.0345, 192.0, 0.0, 0.0, 0.0, 0.0, 0.0, 0.0, 0.0, 0.0, 0.0, 1.747690449975026E9, 0.0, 2025-05-19 23:34:09.975
88.0, 22626.87207780744, 18758.165092249525, 47686.86565004178, 32841.59694213831, 44904.811072923076, 3200.1886606441335, 7510.990799783564, 3245.8309228218704, 0.0, 0.0, 8971.25261679323, -24024.839583020163, 14216.357674164496, 3850.6691277824793, -12331.949154370923, -32975.215670492136, 0.063, -0.0045000000000000005, 1.0345, 192.0, 0.0, 0.0, 0.0, 0.0, 0.0, 0.0, 0.0, 0.0, 0.0, 1.74769044998405E9, 0.0, 2025-05-19 23:34:09.984
90.0, 22636.14805175639, 18770.100923788657, 47690.687798343635, 32862.56287843739, 44909.92962240334, 3233.3139459268987, 7520.110311521329, 3233.5374633714514, 0.0, 0.0, 8988.73168095728, -24010.668577035496, 14237.77064535268, 3867.4105843795046, -12318.024017575266, -32959.01065576204, 0.063, -0.0045000000000000005, 1.0345, 192.0, 0.0, 0.0, 0.0, 0.0, 0.0, 0.0, 0.0, 0.0, 0.0, 1.747690449992091E9, 0.0, 2025-05-19 23:34:09.992
92.0, 22624.167516728347, 18754.879385814595, 47682.39530115072, 32834.73495659053, 44896.630334452435, 3213.331486383854, 7484.660444815212, 3237.426666906675, 0.0, 0.0, 8977.689919196358, -24022.09031845216, 14231.132177249454, 3846.846979480622, -12344.220262076888, -32978.0319902935, 0.063, -0.0045000000000000005, 1.0345, 192.0, 0.0, 0.0, 0.0, 0.0, 0.0, 0.0, 0.0, 0.0, 0.0, 1.747690449999123E9, 0.0, 2025-05-19 23:34:09.999
94.0, 22643.032389048625, 18772.91724359003, 47698.15328099171, 32862.07114005937, 44919.42911379685, 3219.9252509981693, 7526.525262180003, 3251.329451957876, 0.0, 0.0, 8988.955198401833, -24010.75798401332, 14227.555898136605, 3854.558331317703, -12327.478805479861, -32970.11947275633, 0.0645, -0.00425, 1.03325, 192.0, 1.0, 8.0, 127.5, 112.0, 16.0, 32.0, 0.0, 0.0, 0.0, 1.747690450007197E9, 0.0, 2025-05-19 23:34:10.007
96.0, 22629.53193539762, 18757.71805736042, 47681.456527883594, 32848.83890734183, 44905.861604912476, 3233.1127802268006, 7489.376662895283, 3237.650184351228, 0.0, 0.0, 8990.810393191623, -24012.389661358557, 14245.996087312233, 3872.752651304323, -12323.097863566622, -32951.32165566941, 0.0645, -0.00425, 1.03325, 192.0, 0.0, 0.0, 0.0, 0.0, 0.0, 0.0, 0.0, 0.0, 0.0, 1.747690450017225E9, 0.0, 2025-05-19 23:34:10.017
98.0, 22630.068377264546, 18760.690839372975, 47677.34380690382, 32840.568761893366, 44901.860642654974, 3208.212936903589, 7508.1074247488295, 3256.649167138239, 0.0, 0.0, 8969.06214583661, -24028.95230399994, 14211.395586895418, 3842.175464889463, -12343.907337654513, -32977.04851353747, 0.0645, -0.00425, 1.03325, 192.0, 0.0, 0.0, 0.0, 0.0, 0.0, 0.0, 0.0, 0.0, 0.0, 1.747690450024181E9, 0.0, 2025-05-19 23:34:10.024
100.0, 22631.476537165232, 18765.004726052848, 47680.45069938311, 32861.5570499369, 44907.962668891276, 3240.108876241312, 7521.741988866567, 3250.8600653243143, 0.0, 0.0, 8976.594683718049, -24015.94358872695, 14227.265325458686, 3867.2094186794066, -12325.377741501063, -32954.47325163761, 0.0645, -0.00425, 1.03325, 192.0, 0.0, 0.0, 0.0, 0.0, 0.0, 0.0, 0.0, 0.0, 0.0, 1.747690450031253E9, 0.0, 2025-05-19 23:34:10.031
102.0, 22614.623321845927, 18746.497481643855, 47673.633417324236, 32833.12563098975, 44893.45638673978, 3217.0195242189798, 7496.082186231874, 3248.5354839009624, 0.0, 0.0, 8967.162247557908, -24027.812365032718, 14222.884383545446, 3857.7993342637224, -12337.268869551286, -32963.6821703532, 0.0645, -0.00425, 1.03325, 192.0, 0.0, 0.0, 0.0, 0.0, 0.0, 0.0, 0.0, 0.0, 0.0, 1.747690450040271E9, 0.0, 2025-05-19 23:34:10.040
104.0, 22629.71074935326, 18765.34000221968, 47691.045426254925, 32858.69602664662, 44909.7508084477, 3228.128341213267, 7533.074323305407, 3252.782315347471, 0.0, 0.0, 8970.403250503929, -24023.27496090829, 14212.893153773923, 3854.9606627178987, -12327.434101990952, -32967.57137388842, 0.06325, -0.003125, 1.031625, 192.0, 0.5, 120.0, 127.5, 120.0, 16.0, 24.0, 0.0, 0.0, 0.0, 1.747690450048288E9, 0.0, 2025-05-19 23:34:10.048
106.0, 22625.128641739924, 18761.115522517626, 47687.3573884198, 32854.31508473338, 44901.19009032132, 3249.496608912541, 7499.680817089179, 3239.8630070523036, 0.0, 0.0, 8985.803602433634, -24009.059251434715, 14245.280831489663, 3880.419299652493, -12314.470090206873, -32943.94557999916, 0.06325, -0.003125, 1.031625, 192.0, 0.0, 0.0, 0.0, 0.0, 0.0, 0.0, 0.0, 0.0, 0.0, 1.74769045005533E9, 0.0, 2025-05-19 23:34:10.055
108.0, 22629.15195574188, 18765.67527838651, 47690.061949498886, 32845.06146252888, 44905.9510118903, 3215.8572335073036, 7518.210413242628, 3250.256568224021, 0.0, 0.0, 8973.510142983216, -24021.822097518696, 14217.519964876172, 3847.4728283253708, -12336.799482917724, -32974.54511815848, 0.06325, -0.003125, 1.031625, 192.0, 0.0, 0.0, 0.0, 0.0, 0.0, 0.0, 0.0, 0.0, 0.0, 1.7476904500633E9, 0.0, 2025-05-19 23:34:10.063
110.0, 22626.67091210734, 18766.65875514254, 47686.61978085277, 32859.74655863602, 44912.298907315606, 3236.264376194999, 7517.763378353522, 3241.047649508435, 0.0, 0.0, 8986.58591348957, -24005.974710699884, 14238.10592151951, 3873.758479804812, -12313.419558217474, -32952.059263236435, 0.06325, -0.003125, 1.031625, 192.0, 0.0, 0.0, 0.0, 0.0, 0.0, 0.0, 0.0, 0.0, 0.0, 1.747690450071379E9, 0.0, 2025-05-19 23:34:10.071
112.0, 22618.512525381153, 18759.506196916842, 47685.18926920763, 32842.02162528296, 44894.953953618286, 3222.786274288449, 7486.9179710051985, 3246.389716433253, 0.0, 0.0, 8965.172942301386, -24024.32549289769, 14224.471357401771, 3853.1278196725634, -12339.325230041175, -32968.554850644454, 0.06325, -0.003125, 1.031625, 192.0, 0.0, 0.0, 0.0, 0.0, 0.0, 0.0, 0.0, 0.0, 0.0, 1.74769045008043E9, 0.0, 2025-05-19 23:34:10.080
114.0, 22643.233554748724, 18784.33898500669, 47707.116330518285, 32873.17995705366, 44921.21725335327, 3232.397524404231, 7531.196776771161, 3255.799800848937, 0.0, 0.0, 8988.999901890744, -24001.146733897538, 14233.367351694984, 3867.9246745019764, -12317.576982686162, -32953.48977488158, 0.061625, -0.004562500000000001, 1.0338125, 192.0, 0.5, 112.0, 127.5, 104.0, 16.0, 48.0, 0.0, 0.0, 0.0, 1.747690450087428E9, 0.0, 2025-05-19 23:34:10.087
116.0, 22627.497926652184, 18767.128141776102, 47686.93270527515, 32856.3043899899, 44904.16287233387, 3245.07096351039, 7485.15218319323, 3235.459713394608, 0.0, 0.0, 8990.989207147266, -24001.772582742284, 14251.360505981507, 3883.5038403873255, -12317.845203619625, -32940.324597397404, 0.061625, -0.004562500000000001, 1.0338125, 192.0, 0.0, 0.0, 0.0, 0.0, 0.0, 0.0, 0.0, 0.0, 0.0, 1.747690450095492E9, 0.0, 2025-05-19 23:34:10.095
118.0, 22635.075168022537, 18773.453685456956, 47691.44775765512, 32847.43074744115, 44901.30184904359, 3218.4947393530297, 7504.419386913703, 3254.5928066483507, 0.0, 0.0, 8975.275930795186, -24019.18459167297, 14218.52579337666, 3848.9256917149655, -12340.845148664135, -32971.72879835711, 0.061625, -0.004562500000000001, 1.0338125, 192.0, 0.0, 0.0, 0.0, 0.0, 0.0, 0.0, 0.0, 0.0, 0.0, 1.747690450104516E9, 0.0, 2025-05-19 23:34:10.104
120.0, 22631.3424266985, 18771.464380200432, 47685.56924886337, 32857.690198146134, 44910.55547124809, 3238.0301640069683, 7505.0005322695415, 3239.907710541214, 0.0, 0.0, 8984.261332066219, -24011.383832858068, 14230.662790615892, 3872.0373954817533, -12319.901564109512, -32950.2264201911, 0.061625, -0.004562500000000001, 1.0338125, 192.0, 0.0, 0.0, 0.0, 0.0, 0.0, 0.0, 0.0, 0.0, 0.0, 1.747690450111564E9, 0.0, 2025-05-19 23:34:10.111
122.0, 22619.42894690382, 18750.923127046004, 47668.470164355065, 32822.106220973285, 44893.188165806314, 3216.8183585188817, 7476.7032237891235, 3237.225501206577, 0.0, 0.0, 8962.401325988929, -24034.6743505805, 14213.541354363128, 3849.9091684709992, -12344.488483010351, -32971.75115010156, 0.061625, -0.004562500000000001, 1.0338125, 192.0, 0.0, 0.0, 0.0, 0.0, 0.0, 0.0, 0.0, 0.0, 0.0, 1.747690450119601E9, 0.0, 2025-05-19 23:34:10.119
124.0, 22625.598028373486, 18760.824949839705, 47671.86762951227, 32838.98178803704, 44906.73332294623, 3218.003000975013, 7506.274581703495, 3234.520940127485, 0.0, 0.0, 8956.72398289728, -24036.686007581477, 14196.665787299371, 3838.599185776614, -12346.343677800141, -32982.18941476219, 0.059812500000000005, -0.0022812500000000003, 1.03390625, 192.0, 0.5, 104.0, 0.0, 0.0, 16.0, 40.0, 0.0, 0.0, 0.0, 1.74769045012763E9, 0.0, 2025-05-19 23:34:10.127
126.0, 22618.512525381153, 18751.258403212836, 47669.76656553347, 32835.29375020191, 44898.35141877549, 3226.1613877012, 7502.206564212628, 3226.4743121235747, 0.0, 0.0, 8961.998994588732, -24032.930914512985, 14218.81636605458, 3860.2580261538064, -12336.687724195448, -32962.85515580835, 0.059812500000000005, -0.0022812500000000003, 1.03390625, 192.0, 0.0, 0.0, 0.0, 0.0, 0.0, 0.0, 0.0, 0.0, 0.0, 1.747690450136653E9, 0.0, 2025-05-19 23:34:10.136
128.0, 22621.060624249058, 18757.025153282306, 47674.1028039578, 32830.8010495664, 44905.61573572347, 3203.5190705679743, 7504.933477036176, 3246.456771666619, 0.0, 0.0, 8954.287642751651, -24040.66461809452, 14194.922351231857, 3837.5039502983036, -12348.131817356565, -32982.32352522892, 0.059812500000000005, -0.0022812500000000003, 1.03390625, 192.0, 0.0, 0.0, 0.0, 0.0, 0.0, 0.0, 0.0, 0.0, 0.0, 1.747690450143773E9, 0.0, 2025-05-19 23:34:10.143
130.0, 22625.776842329127, 18764.24476674137, 47678.662559826684, 32853.51042193299, 44907.247413068704, 3236.9796320175687, 7516.802253341944, 3235.459713394608, 0.0, 0.0, 8963.027174833676, -24027.65590282153, 14210.166240950375, 3857.2181889078847, -12333.558479971705, -32964.084501753394, 0.059812500000000005, -0.0022812500000000003, 1.03390625, 192.0, 0.0, 0.0, 0.0, 0.0, 0.0, 0.0, 0.0, 0.0, 0.0, 1.747690450151717E9, 0.0, 2025-05-19 23:34:10.151
132.0, 22621.507659138162, 18757.136912004582, 47674.326321402354, 32831.2480844555, 44897.12207283045, 3216.4383788631417, 7491.321264662894, 3241.07000125289, 0.0, 0.0, 8965.508218468216, -24026.38185338758, 14218.72695907676, 3851.3173283716833, -12343.370895787584, -32970.521804156524, 0.059812500000000005, -0.0022812500000000003, 1.03390625, 192.0, 0.0, 0.0, 0.0, 0.0, 0.0, 0.0, 0.0, 0.0, 0.0, 1.747690450159758E9, 0.0, 2025-05-19 23:34:10.159
134.0, 22637.980894801723, 18776.493522702876, 47682.90939127319, 32849.80003235341, 44914.62348873896, 3220.193471931633, 7528.671029647712, 3243.7298588430717, 0.0, 0.0, 8970.023270848187, -24019.18459167297, 14212.133194462443, 3846.6011102916136, -12336.933593384456, -32974.61217339184, 0.05890625000000001, -0.004140625, 1.0329531250000001, 192.0, 0.5, 104.0, 127.5, 104.0, 16.0, 32.0, 0.0, 0.0, 0.0, 1.747690450167762E9, 0.0, 2025-05-19 23:34:10.167
136.0, 22623.631074861416, 18763.350696963156, 47679.98131274954, 32842.669825872166, 44903.469968255755, 3236.0408587504458, 7491.701244318634, 3234.7891610609486, 0.0, 0.0, 8978.516933741204, -24017.32939688318, 14234.10495926201, 3866.695328556935, -12329.982200858856, -32956.261391194035, 0.05890625000000001, -0.004140625, 1.0329531250000001, 192.0, 0.0, 0.0, 0.0, 0.0, 0.0, 0.0, 0.0, 0.0, 0.0, 1.747690450175783E9, 0.0, 2025-05-19 23:34:10.175
138.0, 22630.96244704276, 18770.413848211032, 47684.16108896269, 32836.992482780515, 44908.4991107582, 3211.3198293828764, 7511.214317228118, 3246.5461786444403, 0.0, 0.0, 8964.569445201094, -24032.5732866017, 14204.913581003379, 3838.9344619434432, -12347.617727234094, -32982.81526360694, 0.05890625000000001, -0.004140625, 1.0329531250000001, 192.0, 0.0, 0.0, 0.0, 0.0, 0.0, 0.0, 0.0, 0.0, 0.0, 1.747690450183844E9, 0.0, 2025-05-19 23:34:10.183
140.0, 22632.795290088092, 18772.80548486775, 47688.184402964645, 32858.49486094652, 44914.98111665024, 3237.180797717667, 7509.001494527041, 3232.2187104485884, 0.0, 0.0, 8984.216628577307, -24009.93096946847, 14230.327514449064, 3867.7682122907895, -12323.634305433548, -32955.45672839364, 0.05890625000000001, -0.004140625, 1.0329531250000001, 192.0, 0.0, 0.0, 0.0, 0.0, 0.0, 0.0, 0.0, 0.0, 0.0, 1.747690450191857E9, 0.0, 2025-05-19 23:34:10.191
142.0, 22627.609685374464, 18760.601432395153, 47684.2057924516, 32831.963340278075, 44900.676000198844, 3226.0272772344683, 7477.619645311791, 3236.3984866617307, 0.0, 0.0, 8973.532494727671, -24023.3196643972, 14225.365427179984, 3852.747840016823, -12342.566232987194, -32970.164176245235, 0.05890625000000001, -0.004140625, 1.0329531250000001, 192.0, 0.0, 0.0, 0.0, 0.0, 0.0, 0.0, 0.0, 0.0, 0.0, 1.747690450198866E9, 0.0, 2025-05-19 23:34:10.198
144.0, 22640.640752391908, 18773.05135405676, 47689.704321587604, 32848.77185210846, 44914.08704687203, 3216.617192818784, 7522.121968522307, 3240.8688355527925, 0.0, 0.0, 8975.365337773006, -24027.007702232328, 14210.345054906018, 3847.3834213475493, -12335.413674761496, -32974.634525136295, 0.059453125, -0.0030703125, 1.0324765625, 192.0, 0.5, 112.0, 127.5, 120.0, 16.0, 32.0, 0.0, 0.0, 0.0, 1.74769045020788E9, 0.0, 2025-05-19 23:34:10.207
146.0, 22627.43087141882, 18762.99306905187, 47682.752929062, 32846.31316021838, 44903.55937523358, 3233.425704649175, 7486.560343093914, 3236.5102453840072, 0.0, 0.0, 8978.829858163579, -24019.877495751083, 14233.277944717163, 3871.7915262927445, -12326.294163023731, -32952.483946381086, 0.059453125, -0.0030703125, 1.0324765625, 192.0, 0.0, 0.0, 0.0, 0.0, 0.0, 0.0, 0.0, 0.0, 0.0, 1.747690450215917E9, 0.0, 2025-05-19 23:34:10.215
148.0, 22623.3405021835, 18759.975583550404, 47680.58480984984, 32830.8010495664, 44898.35141877549, 3198.7357972545383, 7498.920857777698, 3235.392658161242, 0.0, 0.0, 8968.637462691959, -24031.008664489826, 14208.467508371772, 3842.1531131450074, -12345.449608021929, -32981.09417928388, 0.059453125, -0.0030703125, 1.0324765625, 192.0, 0.0, 0.0, 0.0, 0.0, 0.0, 0.0, 0.0, 0.0, 0.0, 1.747690450223919E9, 0.0, 2025-05-19 23:34:10.223
150.0, 22624.681606850816, 18762.926013818505, 47681.23301043904, 32850.492936431525, 44908.34264854701, 3227.3236784128762, 7513.561250395925, 3226.9213470126806, 0.0, 0.0, 8975.365337773006, -24023.721995797398, 14220.068063744076, 3858.6934040419346, -12331.278602037264, -32966.85611806585, 0.059453125, -0.0030703125, 1.0324765625, 192.0, 0.0, 0.0, 0.0, 0.0, 0.0, 0.0, 0.0, 0.0, 0.0, 1.747690450230986E9, 0.0, 2025-05-19 23:34:10.230
152.0, 22614.91389452385, 18751.07958925719, 47678.729615060045, 32832.45507865609, 44894.84219489601, 3213.4432451061307, 7496.506869376525, 3240.198283219133, 0.0, 0.0, 8965.239997534753, -24031.410995890023, 14218.659903843392, 3854.8712557400772, -12338.855843407613, -32969.538327400485, 0.059453125, -0.0030703125, 1.0324765625, 192.0, 0.0, 0.0, 0.0, 0.0, 0.0, 0.0, 0.0, 0.0, 0.0, 1.74769045024E9, 0.0, 2025-05-19 23:34:10.240
154.0, 22632.839993577003, 18772.33609823419, 47691.96184777759, 32856.773776623464, 44912.433017782336, 3221.556928343407, 7543.222015288117, 3255.196303748644, 0.0, 0.0, 8973.331329027573, -24020.101013195635, 14212.580229351548, 3856.5029330853145, -12325.802424645713, -32967.77253958852, 0.0577265625, -0.00253515625, 1.03123828125, 192.0, 0.5, 96.0, 127.5, 120.0, 16.0, 24.0, 0.0, 0.0, 0.0, 1.74769045024802E9, 0.0, 2025-05-19 23:34:10.248
156.0, 22616.679682335816, 18758.165092249525, 47681.948266261614, 32848.660093386185, 44896.764444919165, 3233.425704649175, 7498.473822888592, 3240.712373341605, 0.0, 0.0, 8977.73462268527, -24014.2672078928, 14235.848395329524, 3878.00531125132, -12321.376779243563, -32947.05247247845, 0.0577265625, -0.00253515625, 1.03123828125, 192.0, 0.0, 0.0, 0.0, 0.0, 0.0, 0.0, 0.0, 0.0, 0.0, 1.747690450255001E9, 0.0, 2025-05-19 23:34:10.255
158.0, 22623.09463299449, 18762.926013818505, 47686.575077363865, 32841.619293882766, 44904.63225896743, 3209.486986337541, 7516.48932891957, 3250.904768813225, 0.0, 0.0, 8965.239997534753, -24028.125289455093, 14208.71337756078, 3848.366898103583, -12341.336887042153, -32972.62286813532, 0.0577265625, -0.00253515625, 1.03123828125, 192.0, 0.0, 0.0, 0.0, 0.0, 0.0, 0.0, 0.0, 0.0, 0.0, 1.747690450264068E9, 0.0, 2025-05-19 23:34:10.264
160.0, 22633.823470333038, 18770.525606933308, 47691.78303382195, 32862.33936099283, 44911.80716893759, 3248.937815301158, 7516.48932891957, 3237.6725360956834, 0.0, 0.0, 8980.30507329763, -24016.681196293976, 14226.550069636116, 3875.390157150049, -12315.76649138528, -32950.20406844665, 0.0577265625, -0.00253515625, 1.03123828125, 192.0, 0.0, 0.0, 0.0, 0.0, 0.0, 0.0, 0.0, 0.0, 0.0, 1.74769045027208E9, 0.0, 2025-05-19 23:34:10.272
162.0, 22646.876889094936, 18780.606243682654, 47690.64309485473, 32845.82142184036, 44906.330991546034, 3231.995193004035, 7480.301854646427, 3238.8571785518147, 0.0, 0.0, 8974.806544161624, -24024.32549289769, 14226.86299405849, 3861.0179854652865, -12336.218337561886, -32962.51987964152, 0.0577265625, -0.00253515625, 1.03123828125, 192.0, 0.0, 0.0, 0.0, 0.0, 0.0, 0.0, 0.0, 0.0, 0.0, 1.747690450279124E9, 0.0, 2025-05-19 23:34:10.279
164.0, 22652.464825208765, 18792.072688588225, 47709.575022408375, 32875.39277975474, 44922.6030615095, 3236.8008180619263, 7515.461148674625, 3248.133152500767, 0.0, 0.0, 8995.660721738424, -24000.051498419227, 14235.267249973685, 3873.512610615803, -12313.687779150938, -32949.533516112984, 0.05786328125, -0.004267578125, 1.032619140625, 192.0, 0.5, 104.0, 127.5, 104.0, 16.0, 40.0, 0.0, 0.0, 0.0, 1.747690450287133E9, 0.0, 2025-05-19 23:34:10.287
166.0, 22639.366702957956, 18778.43812447049, 47697.460376913594, 32861.84762261482, 44910.689581714825, 3250.256568224021, 7479.38543312376, 3241.360573930809, 0.0, 0.0, 8992.531477514682, -24002.063155420205, 14251.58402342606, 3886.744843333345, -12314.268924506776, -32937.173001429204, 0.05786328125, -0.004267578125, 1.032619140625, 192.0, 0.0, 0.0, 0.0, 0.0, 0.0, 0.0, 0.0, 0.0, 0.0, 1.747690450296139E9, 0.0, 2025-05-19 23:34:10.296
168.0, 22645.82635710554, 18785.657737929552, 47701.30487695991, 32854.829174855855, 44909.59434623651, 3230.0505912364238, 7510.990799783564, 3254.905731070725, 0.0, 0.0, 8985.155401844431, -24013.4178416035, 14227.488842903238, 3858.3804796195604, -12332.01620960429, -32961.8269755634, 0.05786328125, -0.004267578125, 1.032619140625, 192.0, 0.0, 0.0, 0.0, 0.0, 0.0, 0.0, 0.0, 0.0, 0.0, 1.747690450304153E9, 0.0, 2025-05-19 23:34:10.304
170.0, 22639.277295980133, 18787.95996760845, 47698.175632736165, 32877.29267803344, 44912.25420382669, 3251.7988385914373, 7541.880910620798, 3254.9951380485463, 0.0, 0.0, 8993.514954270715, -23997.011661173306, 14242.889194832946, 3885.515497388303, -12307.317531981174, -32935.38486187278, 0.05786328125, -0.004267578125, 1.032619140625, 192.0, 0.0, 0.0, 0.0, 0.0, 0.0, 0.0, 0.0, 0.0, 0.0, 1.747690450312173E9, 0.0, 2025-05-19 23:34:10.312
172.0, 22631.9906272877, 18778.99691808187, 47693.146490233725, 32851.16348876518, 44892.67407568384, 3235.325602927876, 7498.33971242186, 3255.7327456155713, 0.0, 0.0, 8978.382823274473, -24009.148658412538, 14236.362485451995, 3869.176372191474, -12330.943325870434, -32949.08648122388, 0.05786328125, -0.004267578125, 1.032619140625, 192.0, 0.0, 0.0, 0.0, 0.0, 0.0, 0.0, 0.0, 0.0, 0.0, 1.747690450319246E9, 0.0, 2025-05-19 23:34:10.319
174.0, 22643.747644871193, 18791.223322298923, 47703.54005140544, 32868.06140757339, 44913.37179104946, 3236.867873295292, 7533.186082027684, 3260.1807427621775, 0.0, 0.0, 8986.675320467391, -24005.572379299687, 14228.427616170362, 3866.270645412284, -12317.778148386258, -32953.668588837216, 0.060931640625000005, -0.0041337890625000005, 1.0323095703125, 192.0, 1.0, 0.0, 127.5, 112.0, 16.0, 32.0, 0.0, 0.0, 0.0, 1.747690450328254E9, 0.0, 2025-05-19 23:34:10.328
176.0, 22635.566906400552, 18780.76270589384, 47694.84522281233, 32860.618276669775, 44904.4981485007, 3254.682213626172, 7492.952942008132, 3250.323623457387, 0.0, 0.0, 8990.698634469347, -23999.64916701903, 14252.254575759718, 3888.1530032340293, -12309.508002937795, -32933.84259150536, 0.060931640625000005, -0.0041337890625000005, 1.0323095703125, 192.0, 0.0, 0.0, 0.0, 0.0, 0.0, 0.0, 0.0, 0.0, 0.0, 1.747690450335239E9, 0.0, 2025-05-19 23:34:10.335
178.0, 22648.53091818463, 18795.850133401174, 47700.50021415952, 32858.4054539687, 44910.17549159235, 3240.2429867080436, 7518.590392898369, 3271.1554492897335, 0.0, 0.0, 8979.902741897433, -24009.685100279465, 14227.757063836701, 3855.362994118094, -12333.513776482794, -32962.78810057499, 0.060931640625000005, -0.0041337890625000005, 1.0323095703125, 192.0, 0.0, 0.0, 0.0, 0.0, 0.0, 0.0, 0.0, 0.0, 0.0, 1.747690450344279E9, 0.0, 2025-05-19 23:34:10.344
180.0, 22649.447339707298, 18800.72281369243, 47699.717903103585, 32880.9136606352, 44915.003468394694, 3275.357577247331, 7533.163730283229, 3263.7570218750266, 0.0, 0.0, 8993.134974614975, -23992.429553559967, 14245.973735567777, 3882.4980118868366, -12309.262133748787, -32936.07776595089, 0.060931640625000005, -0.0041337890625000005, 1.0323095703125, 192.0, 0.0, 0.0, 0.0, 0.0, 0.0, 0.0, 0.0, 0.0, 0.0, 1.747690450351312E9, 0.0, 2025-05-19 23:34:10.351
182.0, 22635.499851167187, 18785.948310607473, 47689.88313554325, 32849.48710793103, 44897.14442457491, 3246.389716433253, 7498.049139743941, 3259.331376472876, 0.0, 0.0, 8985.20010533334, -23999.425649574478, 14243.738561122247, 3872.9538170044207, -12324.751892656315, -32943.9232282547, 0.060931640625000005, -0.0041337890625000005, 1.0323095703125, 192.0, 0.0, 0.0, 0.0, 0.0, 0.0, 0.0, 0.0, 0.0, 0.0, 1.74769045035932E9, 0.0, 2025-05-19 23:34:10.359
184.0, 22644.060569293568, 18795.91718863454, 47691.22424021056, 32860.350055736315, 44905.995715379206, 3244.8027425769264, 7510.34259919436, 3251.3071002134207, 0.0, 0.0, 8977.220532562797, -24010.60152180213, 14220.380988166451, 3854.5136278287923, -12331.792692159735, -32962.81045231944, 0.060931640625000005, -0.0041337890625000005, 1.0323095703125, 192.0, 0.0, 0.0, 0.0, 0.0, 0.0, 0.0, 0.0, 0.0, 0.0, 1.747690450368385E9, 0.0, 2025-05-19 23:34:10.368
186.0, 22634.24815347769, 18785.724793162917, 47684.56342036289, 32854.62800915576, 44894.663380940365, 3251.6647281247056, 7481.821773269388, 3236.554948872918, 0.0, 0.0, 8983.613131477015, -24005.66178627751, 14245.571404167582, 3870.5398286032473, -12328.43993049144, -32947.96889400112, 0.064, -0.006, 1.028, 192.0, 1.0, 0.0, 127.5, 104.0, 16.0, 16.0, 0.0, 0.0, 0.0, 1.747690450375349E9, 0.0, 2025-05-19 23:34:10.375
188.0, 22644.10527278248, 18792.273854288323, 47695.42636816816, 32852.34813122131, 44901.36890427696, 3225.0214487339795, 7515.461148674625, 3249.563664145907, 0.0, 0.0, 8975.790020917657, -24013.574303814687, 14225.745406835726, 3845.2823573687506, -12341.515700997794, -32972.980496046606, 0.064, -0.006, 1.028, 192.0, 0.0, 0.0, 0.0, 0.0, 0.0, 0.0, 0.0, 0.0, 0.0, 1.747690450383369E9, 0.0, 2025-05-19 23:34:10.383
190.0, 22653.113025797968, 18801.974511381926, 47701.461339171095, 32877.38208501125, 44914.42232303886, 3255.486876426563, 7510.409654427726, 3248.9601670456136, 0.0, 0.0, 8995.280742082685, -23991.69194599294, 14250.332325736563, 3873.6914245714456, -12316.146471041022, -32945.28668466648, 0.064, -0.006, 1.028, 192.0, 0.0, 0.0, 0.0, 0.0, 0.0, 0.0, 0.0, 0.0, 0.0, 1.747690450391498E9, 0.0, 2025-05-19 23:34:10.391
192.0, 22645.893412338904, 18791.871522888126, 47699.38262693675, 32854.963285322585, 44904.00641012268, 3245.7862193329597, 7481.262979658006, 3248.0213937784906, 0.0, 0.0, 8987.055300123131, -24002.443135075944, 14246.443122201339, 3861.2191511653846, -12336.374799773073, -32956.261391194035, 0.064, -0.006, 1.028, 192.0, 0.0, 0.0, 0.0, 0.0, 0.0, 0.0, 0.0, 0.0, 0.0, 1.747690450400484E9, 0.0, 2025-05-19 23:34:10.400
194.0, 22658.812720634072, 18808.791793440796, 47708.43508344115, 32878.8125966564, 44915.584613750536, 3240.8911872972476, 7513.874174818298, 3249.4742571680854, 0.0, 0.0, 8996.35362581654, -23991.356669826113, 14241.369276209984, 3864.7954302782337, -12323.746064155826, -32951.925152769705, 0.064, -0.006, 1.028, 192.0, 0.0, 0.0, 0.0, 0.0, 0.0, 0.0, 0.0, 0.0, 0.0, 1.747690450407458E9, 0.0, 2025-05-19 23:34:10.407
196.0, 22645.424025705343, 18795.09017408969, 47701.34958044882, 32874.47635823207, 44902.419436266355, 3250.904768813225, 7497.155069965729, 3242.7910855759487, 0.0, 0.0, 8996.197163605353, -23987.869797691084, 14261.77641889768, 3887.9518375339317, -12316.30293325221, -32931.160382170725, 0.058, 0.0, 1.028, 192.0, 0.5, 104.0, 0.0, 0.0, 16.0, 16.0, 0.0, 0.0, 0.0, 1.747690450415441E9, 0.0, 2025-05-19 23:34:10.415
198.0, 22645.37932221643, 18794.643139200587, 47704.63528688375, 32864.01574182698, 44902.50884324418, 3232.0175447484908, 7515.841128330366, 3270.1496207892446, 0.0, 0.0, 8984.082518110576, -24000.94556819744, 14233.143834250432, 3863.3425668886384, -12331.703285181915, -32951.992208003074, 0.058, 0.0, 1.028, 192.0, 0.0, 0.0, 0.0, 0.0, 0.0, 0.0, 0.0, 0.0, 0.0, 1.747690450423514E9, 0.0, 2025-05-19 23:34:10.423
200.0, 22646.04987455009, 18798.867618902637, 47700.544917648425, 32879.147872823225, 44908.9014421584, 3261.4547921961303, 7520.982029555086, 3263.7570218750266, 0.0, 0.0, 8992.039739136666, -23989.65793724751, 14244.923203578379, 3887.527154389281, -12309.15037502651, -32928.791097258465, 0.058, 0.0, 1.028, 192.0, 0.0, 0.0, 0.0, 0.0, 0.0, 0.0, 0.0, 0.0, 0.0, 1.747690450431497E9, 0.0, 2025-05-19 23:34:10.431
202.0, 22625.016883017648, 18777.320537247724, 47679.10959471579, 32841.9992735385, 44884.091005813, 3238.9242337851806, 7479.251322657028, 3258.1914375056554, 0.0, 0.0, 8968.77157315869, -24010.75798401332, 14230.618087126983, 3863.4766773553706, -12339.749913185826, -32951.38871090278, 0.058, 0.0, 1.028, 192.0, 0.0, 0.0, 0.0, 0.0, 0.0, 0.0, 0.0, 0.0, 0.0, 1.747690450439523E9, 0.0, 2025-05-19 23:34:10.439
204.0, 22631.476537165232, 18786.395345496578, 47681.255362183496, 32856.23733475654, 44897.189128063816, 3245.026260021479, 7514.902355063243, 3266.1486585317443, 0.0, 0.0, 8963.138933555952, -24015.384795115566, 14208.981598494245, 3850.400906849016, -12339.124064341077, -32961.73756858559, 0.058, 0.0, 1.028, 192.0, 0.0, 0.0, 0.0, 0.0, 0.0, 0.0, 0.0, 0.0, 0.0, 1.747690450447558E9, 0.0, 2025-05-19 23:34:10.447
206.0, 22622.401728916375, 18777.588758181188, 47673.76752779097, 32848.43657594163, 44891.91411637236, 3257.4091264497197, 7489.868401273299, 3255.129248515278, 0.0, 0.0, 8963.9659481008, -24014.200152659436, 14226.14773823592, 3866.00242447882, -12335.614840461594, -32946.09134746687, 0.062, -0.004, 1.026, 192.0, 0.5, 120.0, 127.5, 112.0, 16.0, 8.0, 0.0, 0.0, 0.0, 1.74769045045661E9, 0.0, 2025-05-19 23:34:10.456
208.0, 22628.23553421921, 18780.47213321592, 47676.24857142551, 32834.3996804237, 44894.596325707, 3221.6910388101387, 7514.812948085421, 3267.4450597101522, 0.0, 0.0, 8950.86782584999, -24029.89107726706, 14197.112822188476, 3835.2911275972283, -12353.742105214847, -32974.88039432531, 0.062, -0.004, 1.026, 192.0, 0.0, 0.0, 0.0, 0.0, 0.0, 0.0, 0.0, 0.0, 0.0, 1.747690450462619E9, 0.0, 2025-05-19 23:34:10.462
210.0, 22629.733101097718, 18782.081458816705, 47678.43904238213, 32856.080872545346, 44900.76540717667, 3242.813437320404, 7517.361046953327, 3254.682213626172, 0.0, 0.0, 8962.736602155757, -24017.508210838823, 14213.295485174118, 3861.8002965212227, -12327.05412233521, -32952.03691149198, 0.062, -0.004, 1.026, 192.0, 0.0, 0.0, 0.0, 0.0, 0.0, 0.0, 0.0, 0.0, 0.0, 1.747690450471671E9, 0.0, 2025-05-19 23:34:10.471
212.0, 22621.2394382047, 18771.62084241162, 47679.46722262707, 32837.059538013884, 44887.51082271467, 3233.3810011602645, 7490.538953606958, 3255.2186554930995, 0.0, 0.0, 8954.689974151846, -24028.304103410734, 14211.797918295613, 3850.065630682186, -12345.15903534401, -32963.0786732529, 0.062, -0.004, 1.026, 192.0, 0.0, 0.0, 0.0, 0.0, 0.0, 0.0, 0.0, 0.0, 0.0, 1.747690450479712E9, 0.0, 2025-05-19 23:34:10.479
214.0, 22640.461938436263, 18793.39144151109, 47696.990990280035, 32862.49582320402, 44911.27072707066, 3237.873701795781, 7536.382381484793, 3268.450888210641, 0.0, 0.0, 8971.565541215605, -24011.40618460252, 14213.67546482986, 3855.4524010959153, -12327.970543857879, -32958.4295104062, 0.062, -0.004, 1.026, 192.0, 0.0, 0.0, 0.0, 0.0, 0.0, 0.0, 0.0, 0.0, 0.0, 1.747690450487721E9, 0.0, 2025-05-19 23:34:10.487
216.0, 22629.822508075536, 18782.640252428086, 47686.01628375248, 32854.38213996674, 44899.781930420635, 3255.2186554930995, 7486.314473904905, 3249.295443212443, 0.0, 0.0, 8977.533456985171, -24003.94070195445, 14238.687066875347, 3874.361976905105, -12324.48367172285, -32941.75510904254, 0.052000000000000005, -0.004, 1.03, 192.0, 0.5, 80.0, 127.5, 112.0, 16.0, 24.0, 0.0, 0.0, 0.0, 1.747690450495722E9, 0.0, 2025-05-19 23:34:10.495
218.0, 22632.169441243346, 18780.785057638295, 47685.7033593301, 32841.84281132732, 44896.36211351897, 3221.8251492768704, 7510.610820127824, 3258.5937689058505, 0.0, 0.0, 8961.887235866456, -24021.978559729883, 14207.57343859356, 3840.0296974217536, -12349.629384235071, -32973.583993146894, 0.052000000000000005, -0.004, 1.03, 192.0, 0.0, 0.0, 0.0, 0.0, 0.0, 0.0, 0.0, 0.0, 0.0, 1.747690450503732E9, 0.0, 2025-05-19 23:34:10.503
220.0, 22638.673798879838, 18791.24567404338, 47692.54299313343, 32871.257707030505, 44907.35917179098, 3257.1185537718006, 7525.497081935058, 3252.469390925097, 0.0, 0.0, 8973.979529616778, -24006.42174558899, 14225.588944624538, 3870.4504216254263, -12321.421482732474, -32945.487850366575, 0.052000000000000005, -0.004, 1.03, 192.0, 0.0, 0.0, 0.0, 0.0, 0.0, 0.0, 0.0, 0.0, 0.0, 1.747690450511695E9, 0.0, 2025-05-19 23:34:10.511
222.0, 22628.95079004178, 18781.746182649873, 47690.77720532146, 32850.4035294537, 44890.10362507148, 3240.488855897052, 7494.919895520198, 3259.64430089525, 0.0, 0.0, 8969.218608047797, -24009.774507257287, 14229.38874118194, 3865.3765756340717, -12335.480729994862, -32948.706501568144, 0.052000000000000005, -0.004, 1.03, 192.0, 0.0, 0.0, 0.0, 0.0, 0.0, 0.0, 0.0, 0.0, 0.0, 1.747690450518787E9, 0.0, 2025-05-19 23:34:10.518
224.0, 22637.600915145984, 18792.85499964416, 47695.806347823906, 32865.66977091668, 44904.85577641198, 3240.399448919231, 7530.548576181958, 3259.0184520505018, 0.0, 0.0, 8973.756012172224, -24006.04176593325, 14216.558839864594, 3858.1569621750073, -12331.256250292809, -32954.51795512652, 0.052000000000000005, -0.004, 1.03, 192.0, 0.0, 0.0, 0.0, 0.0, 0.0, 0.0, 0.0, 0.0, 0.0, 1.747690450527802E9, 0.0, 2025-05-19 23:34:10.527
226.0, 22631.364778442952, 18784.04841232877, 47689.34669367632, 32861.1547185367, 44895.60215420749, 3258.459658439119, 7493.176459452684, 3246.233254222066, 0.0, 0.0, 8976.572331973593, -24001.593768786643, 14239.715247120292, 3876.9547792619205, -12325.824776390169, -32937.91060899623, 0.058, -0.006, 1.036, 192.0, 0.5, 104.0, 127.5, 104.0, 16.0, 48.0, 0.0, 0.0, 0.0, 1.747690450536842E9, 0.0, 2025-05-19 23:34:10.536
228.0, 22632.929400554825, 18787.04354608578, 47689.30199018741, 32848.525982919455, 44894.97630536274, 3224.820283033882, 7506.6992648481455, 3258.392603205753, 0.0, 0.0, 8962.222512033286, -24017.84348700565, 14210.56857235057, 3847.651642281013, -12345.404904533018, -32964.509184898045, 0.058, -0.006, 1.036, 192.0, 0.0, 0.0, 0.0, 0.0, 0.0, 0.0, 0.0, 0.0, 0.0, 1.747690450542863E9, 0.0, 2025-05-19 23:34:10.542
230.0, 22637.556211657073, 18790.038679842793, 47690.263115198984, 32868.77666339596, 44900.98892462122, 3245.5627018884065, 7513.069512017908, 3243.036954764957, 0.0, 0.0, 8976.617035462503, -24002.35372809812, 14229.522851648671, 3871.947988503932, -12323.455491477907, -32943.14091719877, 0.058, -0.006, 1.036, 192.0, 0.0, 0.0, 0.0, 0.0, 0.0, 0.0, 0.0, 0.0, 0.0, 1.747690450550904E9, 0.0, 2025-05-19 23:34:10.550
232.0, 22628.14612724139, 18780.76270589384, 47685.7033593301, 32846.983712552035, 44889.83540413802, 3231.995193004035, 7484.772203537489, 3245.6074053773173, 0.0, 0.0, 8967.162247557908, -24012.546123569744, 14226.684180102848, 3856.5699883186808, -12344.130855099065, -32955.99317026057, 0.058, -0.006, 1.036, 192.0, 0.0, 0.0, 0.0, 0.0, 0.0, 0.0, 0.0, 0.0, 0.0, 1.747690450559934E9, 0.0, 2025-05-19 23:34:10.559
234.0, 22642.76416811516, 18795.403098512066, 47695.69458910163, 32865.04392207193, 44909.281421814136, 3229.5141493694964, 7531.330887237894, 3253.83284733687, 0.0, 0.0, 8975.16417207291, -24002.711356009408, 14219.397511410418, 3855.7429737738344, -12329.848090392125, -32956.97664701661, 0.058, -0.006, 1.036, 192.0, 0.0, 0.0, 0.0, 0.0, 0.0, 0.0, 0.0, 0.0, 0.0, 1.747690450567957E9, 0.0, 2025-05-19 23:34:10.567
236.0, 22627.632037118918, 18781.880293116606, 47681.456527883594, 32854.44919520011, 44888.91898261535, 3247.7531728450267, 7486.739157049556, 3238.7230680850826, 0.0, 0.0, 8975.566503473105, -24002.97957694287, 14236.586002896549, 3870.9868634923537, -12328.305820024709, -32942.492716609566, 0.058, 0.0, 1.028, 192.0, 0.5, 104.0, 0.0, 0.0, 16.0, 16.0, 0.0, 0.0, 0.0, 1.747690450574977E9, 0.0, 2025-05-19 23:34:10.574
238.0, 22635.566906400552, 18785.99301409638, 47686.9550570196, 32845.62025614027, 44892.987000106215, 3220.30523065391, 7504.86642180281, 3256.716222371605, 0.0, 0.0, 8958.378011986973, -24016.591789316153, 14207.506383360194, 3840.4543805664043, -12349.785846446259, -32970.946487301175, 0.058, 0.0, 1.028, 192.0, 0.0, 0.0, 0.0, 0.0, 0.0, 0.0, 0.0, 0.0, 0.0, 1.747690450583021E9, 0.0, 2025-05-19 23:34:10.583
240.0, 22638.249115735187, 18788.76463040884, 47688.09499598682, 32864.038093571435, 44904.43109326733, 3243.7298588430717, 7507.772148582, 3241.8299605643706, 0.0, 0.0, 8980.953273886833, -23998.12924839607, 14232.361523194495, 3867.8352675241554, -12323.634305433548, -32948.43828063468, 0.058, 0.0, 1.028, 192.0, 0.0, 0.0, 0.0, 0.0, 0.0, 0.0, 0.0, 0.0, 0.0, 1.747690450592054E9, 0.0, 2025-05-19 23:34:10.592
242.0, 22630.180135986822, 18780.583891938197, 47686.12804247475, 32842.4016049387, 44886.88497386992, 3233.649222093728, 7481.039462213453, 3246.2779577109764, 0.0, 0.0, 8974.001881361233, -24011.316777624703, 14230.372217937973, 3852.658433039002, -12345.762532444303, -32962.56458313043, 0.058, 0.0, 1.028, 192.0, 0.0, 0.0, 0.0, 0.0, 0.0, 0.0, 0.0, 0.0, 0.0, 1.747690450599077E9, 0.0, 2025-05-19 23:34:10.599
244.0, 22645.75930187217, 18798.107659591158, 47695.314609445886, 32862.69698890412, 44906.129825845936, 3234.520940127485, 7525.094750534863, 3255.6209868932947, 0.0, 0.0, 8980.617997720003, -24004.23127463237, 14220.872726544469, 3852.9937092058312, -12332.351485771118, -32961.357588929844, 0.058, 0.0, 1.028, 192.0, 0.0, 0.0, 0.0, 0.0, 0.0, 0.0, 0.0, 0.0, 0.0, 1.747690450607064E9, 0.0, 2025-05-19 23:34:10.607
246.0, 22641.087787281012, 18793.212627555447, 47694.19702222312, 32865.62506742776, 44898.50788098668, 3253.5422746589516, 7493.042348985952, 3245.2497774660324, 0.0, 0.0, 8982.137916342965, -23997.6151582736, 14243.313877977596, 3875.5689711056916, -12324.148395556022, -32941.173963686706, 0.058, -0.002, 1.026, 192.0, 0.5, 104.0, 127.5, 120.0, 16.0, 8.0, 0.0, 0.0, 0.0, 1.747690450615142E9, 0.0, 2025-05-19 23:34:10.615
248.0, 22643.568830915552, 18794.151400822568, 47693.839394311835, 32850.53763992043, 44888.62840993743, 3220.975782987569, 7492.4388518856595, 3250.88241706877, 0.0, 0.0, 8980.662701208914, -24002.398431587033, 14227.62295336997, 3852.390212105538, -12339.124064341077, -32961.290533696476, 0.058, -0.002, 1.026, 192.0, 0.0, 0.0, 0.0, 0.0, 0.0, 0.0, 0.0, 0.0, 0.0, 1.747690450624179E9, 0.0, 2025-05-19 23:34:10.624
250.0, 22646.34044722801, 18795.3360432787, 47693.4594146561, 32868.19551804013, 44901.70418044379, 3247.5743588893843, 7513.96358179612, 3243.7969140764376, 0.0, 0.0, 8986.518858256204, -23997.101068151125, 14236.965982552289, 3869.846924525133, -12324.193099044931, -32945.71136781113, 0.058, -0.002, 1.026, 192.0, 0.0, 0.0, 0.0, 0.0, 0.0, 0.0, 0.0, 0.0, 0.0, 1.747690450631223E9, 0.0, 2025-05-19 23:34:10.631
252.0, 22635.209278489267, 18784.741316406886, 47686.46331864158, 32843.563895650375, 44887.35436050348, 3239.2818616964655, 7487.342654149849, 3247.1496757447335, 0.0, 0.0, 8976.527628484682, -24010.869742735595, 14230.841604571535, 3858.201665663918, -12340.398113775029, -32955.16615571573, 0.058, -0.002, 1.026, 192.0, 0.0, 0.0, 0.0, 0.0, 0.0, 0.0, 0.0, 0.0, 0.0, 1.747690450639212E9, 0.0, 2025-05-19 23:34:10.639
254.0, 22640.66310413636, 18795.604264212165, 47688.13969947573, 32858.539564435436, 44898.01614260866, 3227.97187900208, 7523.150148767251, 3252.067059524901, 0.0, 0.0, 8976.102945340032, -24006.779373500274, 14215.329493919551, 3850.423258593471, -12335.72659918387, -32960.731740085095, 0.058, -0.002, 1.026, 192.0, 0.0, 0.0, 0.0, 0.0, 0.0, 0.0, 0.0, 0.0, 0.0, 1.747690450648243E9, 0.0, 2025-05-19 23:34:10.648
0.0, 22632.348255198987, 18786.372993752124, 47677.410862137185, 32853.44336669962, 44891.08710182752, 3246.4344199221637, 7491.09774721834, 3246.300309455432, 0.0, 0.0, 8975.544151728649, -24001.12438215308, 14236.474244174273, 3868.170543690985, -12331.412712503996, -32944.19144918817, 0.06, 0.002, 1.028, 192.0, 0.5, 112.0, 0.0, 8.0, 16.0, 16.0, 0.0, 0.0, 0.0, 1.747690450655262E9, 0.0, 2025-05-19 23:34:10.655
2.0, 22625.79919407358, 18778.52753144831, 47681.97061800607, 32840.18878223762, 44890.058921582575, 3214.5608323288957, 7506.900430548243, 3257.8561613388256, 0.0, 0.0, 8955.29347125214, -24023.297312652747, 14201.538467590628, 3836.341659586628, -12354.30089882623, -32974.299248969466, 0.06, 0.002, 1.028, 192.0, 0.0, 0.0, 0.0, 0.0, 0.0, 0.0, 0.0, 0.0, 0.0, 1.747690450663307E9, 0.0, 2025-05-19 23:34:10.663
4.0, 22636.818604090047, 18789.85986588715, 47690.754853577004, 32864.61923892728, 44905.727494445746, 3248.8931118122473, 7514.947058552153, 3251.240044980055, 0.0, 0.0, 8974.806544161624, -24004.320681610192, 14223.018494012178, 3868.9305030024652, -12322.740235655338, -32946.694844567166, 0.06, 0.002, 1.028, 192.0, 0.0, 0.0, 0.0, 0.0, 0.0, 0.0, 0.0, 0.0, 0.0, 1.747690450671338E9, 0.0, 2025-05-19 23:34:10.671
6.0, 22633.890525566403, 18784.42839198451, 47686.66448434168, 32839.853506070795, 44888.807223893076, 3234.945623272136, 7481.508848847014, 3250.7930100909484, 0.0, 0.0, 8973.308977283117, -24011.629702047077, 14226.10303474701, 3857.6875755414458, -12338.542918985238, -32958.51891738402, 0.06, 0.002, 1.028, 192.0, 0.0, 0.0, 0.0, 0.0, 0.0, 0.0, 0.0, 0.0, 0.0, 1.747690450680353E9, 0.0, 2025-05-19 23:34:10.680
8.0, 22645.558136172072, 18795.96189212345, 47685.792766307924, 32853.24220099953, 44899.02197110915, 3227.6366028352504, 7515.192927741162, 3254.0563647814233, 0.0, 0.0, 8970.894988881944, -24012.009681702817, 14210.680331072848, 3847.718697514379, -12336.35244802862, -32966.587897132384, 0.06, 0.002, 1.028, 192.0, 0.0, 0.0, 0.0, 0.0, 0.0, 0.0, 0.0, 0.0, 0.0, 1.747690450687373E9, 0.0, 2025-05-19 23:34:10.687
10.0, 22633.532897655117, 18781.679127416508, 47675.89094351423, 32845.01675903997, 44889.701293671285, 3249.586015890362, 7491.142450707252, 3239.527730885474, 0.0, 0.0, 8973.10781158302, -24008.343995612147, 14231.825081327568, 3865.2424651673396, -12334.698418938926, -32950.36053065783, 0.06, 0.006, 1.032, 192.0, 0.5, 112.0, 0.0, 24.0, 16.0, 32.0, 0.0, 0.0, 0.0, 1.747690450695404E9, 0.0, 2025-05-19 23:34:10.695
12.0, 22634.315208711054, 18784.1825227955, 47672.87345801276, 32831.27043619996, 44888.8966308709, 3216.30426839641, 7495.568096109402, 3249.8318850793703, 0.0, 0.0, 8955.9640235858, -24027.387681888067, 14201.404357123894, 3831.04429615072, -12359.397096562041, -32982.34587697338, 0.06, 0.006, 1.032, 192.0, 0.0, 0.0, 0.0, 0.0, 0.0, 0.0, 0.0, 0.0, 0.0, 1.747690450703426E9, 0.0, 2025-05-19 23:34:10.703
14.0, 22638.785557602117, 18791.446839743476, 47674.05810046889, 32851.36465446528, 44901.525366488146, 3250.1671612462, 7499.144375222251, 3240.2206349635885, 0.0, 0.0, 8968.592759203048, -24011.316777624703, 14218.883421287945, 3851.1161626715857, -12341.314535297697, -32963.05632150845, 0.06, 0.006, 1.032, 192.0, 0.0, 0.0, 0.0, 0.0, 0.0, 0.0, 0.0, 0.0, 0.0, 1.747690450711489E9, 0.0, 2025-05-19 23:34:10.711
16.0, 22626.268580707143, 18773.05135405676, 47667.93372248814, 32825.660148341674, 44888.2931337706, 3233.6715738381836, 7469.975348708075, 3240.064172752401, 0.0, 0.0, 8956.656927663915, -24026.89594351005, 14211.641456084426, 3838.353316587605, -12361.609919263115, -32974.634525136295, 0.06, 0.006, 1.032, 192.0, 0.0, 0.0, 0.0, 0.0, 0.0, 0.0, 0.0, 0.0, 0.0, 1.747690450719538E9, 0.0, 2025-05-19 23:34:10.719
18.0, 22643.747644871193, 18791.893874632584, 47689.74902507651, 32855.07504404486, 44905.68279095683, 3228.083637724357, 7529.788616870477, 3257.587940405362, 0.0, 0.0, 8966.067012079598, -24018.98342597287, 14204.95828449229, 3842.577796289658, -12342.610936476105, -32971.39352219028, 0.06, 0.006, 1.032, 192.0, 0.0, 0.0, 0.0, 0.0, 0.0, 0.0, 0.0, 0.0, 0.0, 1.747690450727577E9, 0.0, 2025-05-19 23:34:10.727
20.0, 22631.744758098695, 18778.952214592962, 47681.99296975052, 32849.66592188668, 44898.97726762024, 3247.7308211005716, 7486.314473904905, 3242.679326853672, 0.0, 0.0, 8977.779326174179, -24004.70066126593, 14236.67540987437, 3870.4504216254263, -12328.976372358367, -32944.012635232524, 0.06, 0.002, 1.034, 192.0, 0.5, 112.0, 0.0, 8.0, 16.0, 40.0, 0.0, 0.0, 0.0, 1.747690450735666E9, 0.0, 2025-05-19 23:34:10.735
22.0, 22638.673798879838, 18782.729659405908, 47686.373911663766, 32836.81366882487, 44897.07736934154, 3211.9009747387145, 7511.370779439304, 3254.3469374593424, 0.0, 0.0, 8958.82504687608, -24024.884286509074, 14205.360615892485, 3835.5146450417815, -12353.071552881189, -32978.210804249145, 0.06, 0.002, 1.034, 192.0, 0.0, 0.0, 0.0, 0.0, 0.0, 0.0, 0.0, 0.0, 0.0, 1.747690450742619E9, 0.0, 2025-05-19 23:34:10.742
24.0, 22642.76416811516, 18792.273854288323, 47693.79469082293, 32861.48999470353, 44909.05790436958, 3237.203149462122, 7515.81877658591, 3243.8639693098035, 0.0, 0.0, 8980.372128530995, -24003.583074043167, 14228.76289233719, 3864.5272093447697, -12325.042465334232, -32952.9309812702, 0.06, 0.002, 1.034, 192.0, 0.0, 0.0, 0.0, 0.0, 0.0, 0.0, 0.0, 0.0, 0.0, 1.747690450751749E9, 0.0, 2025-05-19 23:34:10.751
26.0, 22626.33563594051, 18771.37497322261, 47679.780147049445, 32831.27043619996, 44888.67311342635, 3215.4996055960187, 7468.09780217383, 3237.583129117862, 0.0, 0.0, 8970.380898759473, -24017.061175949715, 14223.465528901283, 3850.624424293569, -12345.829587677668, -32966.34202794338, 0.06, 0.002, 1.034, 192.0, 0.0, 0.0, 0.0, 0.0, 0.0, 0.0, 0.0, 0.0, 0.0, 1.747690450759753E9, 0.0, 2025-05-19 23:34:10.759
28.0, 22645.111101282968, 18791.469191487933, 47692.163013477686, 32852.75046262151, 44908.20853808028, 3214.739646284538, 7522.367837711316, 3250.3906786907532, 0.0, 0.0, 8969.956215614822, -24015.94358872695, 14210.367406650474, 3841.0802294111527, -12344.82375917718, -32974.90274606976, 0.06, 0.002, 1.034, 192.0, 0.0, 0.0, 0.0, 0.0, 0.0, 0.0, 0.0, 0.0, 0.0, 1.747690450767741E9, 0.0, 2025-05-19 23:34:10.767
30.0, 22628.70492085277, 18774.4818657019, 47679.73544356054, 32842.53571540543, 44900.43013100984, 3228.485969124552, 7480.48066860207, 3231.4363993926527, 0.0, 0.0, 8980.528590742182, -24008.589864801153, 14236.742465107736, 3865.9577209899094, -12331.323305526175, -32952.50629812555, 0.06, 0.0, 1.036, 192.0, 0.5, 112.0, 0.0, 0.0, 16.0, 48.0, 0.0, 0.0, 0.0, 1.747690450774767E9, 0.0, 2025-05-19 23:34:10.774
32.0, 22630.023673775635, 18774.23599651289, 47682.19413545062, 32830.73399433303, 44896.85385189699, 3208.212936903589, 7502.161860723718, 3241.047649508435, 0.0, 0.0, 8960.300262010129, -24027.41003363252, 14203.080737958044, 3832.4077525624934, -12356.469018038395, -32982.971725818126, 0.06, 0.0, 1.036, 192.0, 0.0, 0.0, 0.0, 0.0, 0.0, 0.0, 0.0, 0.0, 0.0, 1.747690450783824E9, 0.0, 2025-05-19 23:34:10.783
34.0, 22640.953676814283, 18787.222360041425, 47692.56534487788, 32859.4559859581, 44908.40970378038, 3235.325602927876, 7515.014113785519, 3250.681251368672, 0.0, 0.0, 8977.645215707447, -24010.55681831322, 14221.655037600403, 3861.7332412878563, -12330.384532259051, -32956.66372259423, 0.06, 0.0, 1.036, 192.0, 0.0, 0.0, 0.0, 0.0, 0.0, 0.0, 0.0, 0.0, 0.0, 1.747690450791815E9, 0.0, 2025-05-19 23:34:10.791
36.0, 22624.43573766181, 18771.263214500334, 47680.204830194096, 32828.320005931855, 44888.8966308709, 3218.651201564217, 7480.6371308132575, 3248.4684286675965, 0.0, 0.0, 8974.62773020598, -24017.262341649814, 14224.605467868503, 3855.586511562647, -12344.220262076888, -32961.1787749742, 0.06, 0.0, 1.036, 192.0, 0.0, 0.0, 0.0, 0.0, 0.0, 0.0, 0.0, 0.0, 0.0, 1.747690450798851E9, 0.0, 2025-05-19 23:34:10.798
38.0, 22639.00907504667, 18785.18835129599, 47689.659618098696, 32845.32968346235, 44905.61573572347, 3219.0982364533234, 7521.831395844388, 3246.590882133351, 0.0, 0.0, 8968.25748303622, -24022.537353341264, 14204.511249603183, 3841.8625404670884, -12343.750875443326, -32974.70158036966, 0.06, 0.0, 1.036, 192.0, 0.0, 0.0, 0.0, 0.0, 0.0, 0.0, 0.0, 0.0, 0.0, 1.74769045080788E9, 0.0, 2025-05-19 23:34:10.807
40.0, 22627.073243507533, 18773.207816267946, 47680.47305112756, 32843.60859913929, 44896.71974143026, 3235.169140716689, 7480.592427324346, 3242.5452163869404, 0.0, 0.0, 8976.639387206958, -24015.295388137747, 14230.10399700451, 3864.326043644672, -12336.039523606245, -32954.719120826616, 0.054, 0.0, 1.032, 192.0, 0.5, 88.0, 0.0, 0.0, 16.0, 32.0, 0.0, 0.0, 0.0, 1.747690450815936E9, 0.0, 2025-05-19 23:34:10.815
42.0, 22641.646580892397, 18782.461438472445, 47690.888964043734, 32840.97109329356, 44900.8995176434, 3212.392713116731, 7500.8207560564, 3256.2244839935884, 0.0, 0.0, 8964.412982989907, -24024.034920219772, 14206.411147881885, 3838.956813687899, -12355.284375582263, -32975.90857457025, 0.054, 0.0, 1.032, 192.0, 0.0, 0.0, 0.0, 0.0, 0.0, 0.0, 0.0, 0.0, 0.0, 1.747690450824961E9, 0.0, 2025-05-19 23:34:10.824
44.0, 22636.416272689854, 18785.903607118562, 47686.977408764054, 32855.81265161189, 44905.68279095683, 3239.125399485278, 7514.231802729583, 3253.095239769845, 0.0, 0.0, 8979.67922445288, -24006.28763512226, 14224.29254344613, 3869.534000102759, -12324.72954091186, -32946.98541724508, 0.054, 0.0, 1.032, 192.0, 0.0, 0.0, 0.0, 0.0, 0.0, 0.0, 0.0, 0.0, 0.0, 1.747690450830955E9, 0.0, 2025-05-19 23:34:10.830
46.0, 22622.424080660832, 18771.48673194489, 47677.65673132619, 32830.421069910655, 44886.013255836166, 3221.1098934543006, 7478.491363345548, 3247.909635056214, 0.0, 0.0, 8958.556825942615, -24027.924123754994, 14210.926200261856, 3847.8081044922, -12354.770285459792, -32966.92317329922, 0.054, 0.0, 1.032, 192.0, 0.0, 0.0, 0.0, 0.0, 0.0, 0.0, 0.0, 0.0, 0.0, 1.747690450839994E9, 0.0, 2025-05-19 23:34:10.839
