%OpenBCI Raw EXG Data
%Number of channels = 16
%Sample Rate = 125 Hz
%Board = OpenBCI_GUI$BoardCytonSerialDaisy
Sample Index, EXG Channel 0, EXG Channel 1, EXG Channel 2, EXG Channel 3, EXG Channel 4, EXG Channel 5, EXG Channel 6, EXG Channel 7, EXG Channel 8, EXG Channel 9, EXG Channel 10, EXG Channel 11, EXG Channel 12, EXG Channel 13, EXG Channel 14, EXG Channel 15, Accel Channel 0, Accel Channel 1, Accel Channel 2, Not Used, Digital Channel 0 (D11), Digital Channel 1 (D12), Digital Channel 2 (D13), Digital Channel 3 (D17), Not Used, Digital Channel 4 (D18), Analog Channel 0, Analog Channel 1, Analog Channel 2, Timestamp, Marker Channel, Timestamp (Formatted)
0.0, 9664.782543752497, 8370.527132812396, 23299.301958000895, 13937.698476040183, 14454.7613805248, -3195.8300704753483, 4909.158338208001, -311.00217235114246, 0.0, 0.0, 9688.877724275319, -3509.670914372315, 2917.8414246846946, -2331.1081327328843, -14253.461569960305, -16368.115409387996, 0.058, 0.0, 1.026, 192.0, 0.5, 104.0, 0.0, 0.0, 16.0, 8.0, 0.0, 0.0, 0.0, 1.74768726436921E9, 0.0, 2025-05-19 22:41:04.369
2.0, 19343.847852211937, 16753.54889077531, 46601.17436661415, 27883.778856251105, 28910.752106994645, -6409.340370814845, 9889.283465061602, -623.1442836695056, 0.0, 0.0, 19051.464682992064, -7056.691593729448, 5791.895781981442, -4578.129002824903, -28153.653818804483, -32977.76376936004, 0.058, 0.0, 1.026, 192.0, 0.0, 0.0, 0.0, 0.0, 0.0, 0.0, 0.0, 0.0, 0.0, 1.747687264375215E9, 0.0, 2025-05-19 22:41:04.375
4.0, 19340.62920101037, 16741.03191388034, 46604.68359049363, 27885.879920229905, 28939.38469164189, -6358.221931245557, 9841.718952860709, -631.8614640070754, 0.0, 0.0, 19055.91268013867, -7053.741163461347, 5808.592535089557, -4538.633470372376, -28128.999844670278, -32938.53645784098, 0.058, 0.0, 1.026, 192.0, 0.0, 0.0, 0.0, 0.0, 0.0, 0.0, 0.0, 0.0, 0.0, 1.747687264383242E9, 0.0, 2025-05-19 22:41:04.383
6.0, 19339.198689365232, 16740.495472013412, 46599.00624740199, 27878.213271881734, 28911.780287239588, -6401.7631294444955, 9834.991077779661, -624.6418505480111, 0.0, 0.0, 19049.408322502175, -7063.531227532772, 5793.594514560046, -4574.932703367795, -28159.66643806296, -32973.62869663581, 0.058, 0.0, 1.026, 192.0, 0.0, 0.0, 0.0, 0.0, 0.0, 0.0, 0.0, 0.0, 0.0, 1.747687264391295E9, 0.0, 2025-05-19 22:41:04.391
8.0, 19340.182166121267, 16742.7529982034, 46605.93528818313, 27887.75746676415, 28924.520781579115, -6387.033329848448, 9888.143526094382, -626.2511761487933, 0.0, 0.0, 19051.57644171434, -7052.891797172046, 5797.483718095269, -4551.418668200811, -28130.81033597116, -32957.04370224997, 0.06, 0.002, 1.03, 192.0, 0.5, 112.0, 0.0, 8.0, 16.0, 24.0, 0.0, 0.0, 0.0, 1.747687264399313E9, 0.0, 2025-05-19 22:41:04.399
10.0, 19325.430014780763, 16729.677227697044, 46585.215221073064, 27869.09376014397, 28900.738525478668, -6386.832164148351, 9819.814243294508, -625.0441819482068, 0.0, 0.0, 19041.96519159856, -7065.5205327892945, 5796.656703550423, -4554.078525790993, -28149.22817340233, -32951.20989694713, 0.06, 0.002, 1.03, 192.0, 0.0, 0.0, 0.0, 0.0, 0.0, 0.0, 0.0, 0.0, 0.0, 1.747687264406357E9, 0.0, 2025-05-19 22:41:04.406
12.0, 19342.26087835561, 16752.40895180809, 46607.499910295, 27889.56795806503, 28909.76863023861, -6377.3550244993, 9878.800496912063, -617.3775336000364, 0.0, 0.0, 19042.412226487664, -7056.557483262716, 5787.33602611256, -4579.984197614694, -28156.201917672388, -32981.09417928388, 0.06, 0.002, 1.03, 192.0, 0.0, 0.0, 0.0, 0.0, 0.0, 0.0, 0.0, 0.0, 0.0, 1.74768726441542E9, 0.0, 2025-05-19 22:41:04.415
14.0, 19335.845927696937, 16744.56348950428, 46604.147148626704, 27890.95376622126, 28916.272987875105, -6343.134503738225, 9851.821941354507, -624.3289261256368, 0.0, 0.0, 19056.694991194607, -7043.481712756362, 5810.492433368258, -4535.1465982373475, -28122.964873667348, -32935.0272339615, 0.06, 0.002, 1.03, 192.0, 0.0, 0.0, 0.0, 0.0, 0.0, 0.0, 0.0, 0.0, 0.0, 1.747687264423429E9, 0.0, 2025-05-19 22:41:04.423
16.0, 19326.704064214715, 16740.942506902516, 46594.80411944439, 27877.56507129253, 28888.467417772703, -6365.441544704622, 9841.875415071896, -618.6068795450783, 0.0, 0.0, 19038.992409586004, -7061.720736231892, 5789.079462180074, -4577.011415602138, -28163.466234620362, -32975.01450479204, 0.06, 0.002, 1.03, 192.0, 0.0, 0.0, 0.0, 0.0, 0.0, 0.0, 0.0, 0.0, 0.0, 1.747687264430456E9, 0.0, 2025-05-19 22:41:04.430
18.0, 19338.10345388692, 16746.284573827335, 46612.26083186398, 27894.261824400644, 28938.088290463485, -6346.330803195335, 9885.57307548202, -619.7021150233883, 0.0, 0.0, 19049.274212035445, -7053.450590783428, 5795.740282027756, -4546.300118720546, -28125.937655679903, -32952.975684759105, 0.06, 0.002, 1.03, 192.0, 0.5, 112.0, 0.0, 8.0, 16.0, 24.0, 0.0, 0.0, 0.0, 1.747687264439478E9, 0.0, 2025-05-19 22:41:04.439
20.0, 19325.00533163611, 16731.130091086638, 46606.60584051679, 27889.56795806503, 28911.847342472953, -6349.124771252248, 9824.016371252104, -617.3998853444917, 0.0, 0.0, 19047.24020329001, -7052.4894657718505, 5804.166889687406, -4538.789932583562, -28132.687882505405, -32938.782327029985, 0.06, 0.002, 1.03, 192.0, 0.0, 0.0, 0.0, 0.0, 0.0, 0.0, 0.0, 0.0, 0.0, 1.747687264447532E9, 0.0, 2025-05-19 22:41:04.447
22.0, 19339.891593443346, 16745.770483704866, 46620.866253479275, 27899.782705281104, 28914.7754209966, -6401.159632344203, 9887.42827027181, -607.1404346395058, 0.0, 0.0, 19052.604621959286, -7047.706192458415, 5795.136784927462, -4559.085316548982, -28136.91236220746, -32963.168080230724, 0.06, 0.002, 1.03, 192.0, 0.0, 0.0, 0.0, 0.0, 0.0, 0.0, 0.0, 0.0, 0.0, 1.74768726445452E9, 0.0, 2025-05-19 22:41:04.454
24.0, 19328.380445048864, 16732.40414052059, 46609.8021399739, 27893.077181944514, 28924.252560645647, -6359.250111490502, 9856.605214667943, -613.4659783203576, 0.0, 0.0, 19057.16437782817, -7048.019116880789, 5807.139671699962, -4518.829824784973, -28107.631576971005, -32923.60549254483, 0.06, 0.002, 1.03, 192.0, 0.0, 0.0, 0.0, 0.0, 0.0, 0.0, 0.0, 0.0, 0.0, 1.747687264462588E9, 0.0, 2025-05-19 22:41:04.462
26.0, 19323.77598569107, 16733.722893443453, 46595.899354922694, 27882.61656553943, 28903.19721736875, -6376.6397686767305, 9857.096953045959, -601.4854432923131, 0.0, 0.0, 19037.58424968532, -7061.720736231892, 5787.514840068203, -4566.819020130518, -28156.157214183477, -32965.29149595398, 0.06, 0.002, 1.03, 192.0, 0.0, 0.0, 0.0, 0.0, 0.0, 0.0, 0.0, 0.0, 0.0, 1.747687264471606E9, 0.0, 2025-05-19 22:41:04.471
28.0, 19337.187032364254, 16745.144634860117, 46613.378419086745, 27900.56501633704, 28931.695691549266, -6374.225780275558, 9891.876267418416, -607.162786383961, 0.0, 0.0, 19049.274212035445, -7049.851959926124, 5797.818994262099, -4541.89682506285, -28125.267103346243, -32946.65014107825, 0.064, -0.002, 1.032, 192.0, 1.0, 0.0, 127.5, 120.0, 16.0, 32.0, 0.0, 0.0, 0.0, 1.747687264479629E9, 0.0, 2025-05-19 22:41:04.479
30.0, 19326.748767703626, 16733.901707399094, 46611.09854115231, 27892.31722263303, 28923.514953078626, -6365.352137726801, 9826.296249186546, -609.5767747851343, 0.0, 0.0, 19056.829101661337, -7048.689669214448, 5809.777177545689, -4536.778275582585, -28130.787984226703, -32934.2225711611, 0.064, -0.002, 1.032, 192.0, 0.0, 0.0, 0.0, 0.0, 0.0, 0.0, 0.0, 0.0, 0.0, 1.747687264486698E9, 0.0, 2025-05-19 22:41:04.486
32.0, 19335.287134085553, 16744.854062182196, 46616.37355284376, 27899.179208180813, 28921.838572244476, -6378.606722188798, 9897.844183187985, -596.679818234422, 0.0, 0.0, 19057.119674339257, -7046.476846513373, 5797.461366350814, -4558.28065374859, -28132.821992972138, -32961.156423229746, 0.064, -0.002, 1.032, 192.0, 0.0, 0.0, 0.0, 0.0, 0.0, 0.0, 0.0, 0.0, 0.0, 1.7476872644947E9, 0.0, 2025-05-19 22:41:04.494
34.0, 19329.92271541628, 16732.31473354277, 46603.56600327087, 27891.04317319908, 28924.051394945553, -6358.668966134664, 9860.650880414352, -617.7351615113213, 0.0, 0.0, 19056.71734293906, -7047.437971524951, 5809.061921723119, -4520.685019574764, -28109.643233971983, -32924.030175689484, 0.064, -0.002, 1.032, 192.0, 0.0, 0.0, 0.0, 0.0, 0.0, 0.0, 0.0, 0.0, 0.0, 1.747687264503666E9, 0.0, 2025-05-19 22:41:04.503
36.0, 19335.533003274562, 16742.5518325033, 46607.388151572726, 27891.37844936591, 28912.786115740077, -6364.815695859873, 9849.966746564716, -602.938306681908, 0.0, 0.0, 19046.122616067245, -7058.367974563596, 5794.600343060535, -4566.439040474777, -28154.972571727347, -32964.39742617577, 0.064, -0.002, 1.032, 192.0, 0.0, 0.0, 0.0, 0.0, 0.0, 0.0, 0.0, 0.0, 0.0, 1.747687264510753E9, 0.0, 2025-05-19 22:41:04.510
38.0, 19340.919773688292, 16752.498358785913, 46624.88956748123, 27909.32690016352, 28942.133956209895, -6347.649556118197, 9883.3826045254, -611.3425625971034, 0.0, 0.0, 19070.709534968082, -7035.971526619378, 5814.113415970018, -4533.0902377474595, -28114.292396818688, -32938.93878924117, 0.062, 0.002, 1.026, 192.0, 0.5, 120.0, 0.0, 8.0, 16.0, 8.0, 0.0, 0.0, 0.0, 1.747687264518799E9, 0.0, 2025-05-19 22:41:04.518
40.0, 19329.900363671823, 16739.199070835002, 46603.92363118215, 27889.746772020673, 28914.35073785195, -6341.212253715069, 9815.142728703348, -617.6681062779554, 0.0, 0.0, 19056.046790605404, -7043.481712756362, 5813.979305503286, -4535.973612782194, -28129.983321426313, -32935.80954501743, 0.062, 0.002, 1.026, 192.0, 0.0, 0.0, 0.0, 0.0, 0.0, 0.0, 0.0, 0.0, 0.0, 1.747687264526833E9, 0.0, 2025-05-19 22:41:04.526
42.0, 19351.93918370476, 16763.629527524656, 46618.206395889094, 27902.554321593565, 28915.691842519267, -6359.540684168421, 9898.045348888081, -600.3455043250924, 0.0, 0.0, 19059.220738318058, -7042.4535325114175, 5802.1552326864285, -4565.187342785281, -28142.634408788017, -32968.80071983346, 0.062, 0.002, 1.026, 192.0, 0.0, 0.0, 0.0, 0.0, 0.0, 0.0, 0.0, 0.0, 0.0, 1.747687264534779E9, 0.0, 2025-05-19 22:41:04.534
44.0, 19331.263820083597, 16739.936678402028, 46609.04218066242, 27889.27738538711, 28929.125240936904, -6326.325991907835, 9848.357420963934, -618.3386586116146, 0.0, 0.0, 19062.841720919816, -7047.147398847032, 5812.235869435772, -4528.910461534317, -28119.61211199905, -32932.61324556032, 0.062, 0.002, 1.026, 192.0, 0.0, 0.0, 0.0, 0.0, 0.0, 0.0, 0.0, 0.0, 0.0, 1.747687264542827E9, 0.0, 2025-05-19 22:41:04.542
46.0, 19336.650590497327, 16742.64123948112, 46607.81283471738, 27888.539777820086, 28914.73071750769, -6378.629073933253, 9850.458484942734, -609.9791061853298, 0.0, 0.0, 19053.63280220423, -7055.819875695691, 5797.483718095269, -4567.154296297347, -28150.05518794718, -32967.97370528862, 0.062, 0.002, 1.026, 192.0, 0.0, 0.0, 0.0, 0.0, 0.0, 0.0, 0.0, 0.0, 0.0, 1.747687264550868E9, 0.0, 2025-05-19 22:41:04.550
48.0, 19345.188956879254, 16749.413818051078, 46614.04897142041, 27898.46395235824, 28938.7811945416, -6328.047076230893, 9890.557514495555, -614.8964899654973, 0.0, 0.0, 19056.069142349857, -7048.220282580886, 5800.478851852281, -4547.104781520937, -28127.815202214148, -32956.06022549394, 0.056, 0.0, 1.022, 192.0, 0.5, 96.0, 0.0, 0.0, 15.5, 120.0, 0.0, 0.0, 0.0, 1.747687264558897E9, 0.0, 2025-05-19 22:41:04.558
50.0, 19334.616581751896, 16739.668457468564, 46610.98678243003, 27892.786609266594, 28917.43527858678, -6362.0217278029595, 9820.171871205792, -614.874138221042, 0.0, 0.0, 19058.706648195584, -7046.521550002283, 5813.085235725073, -4530.720952835197, -28123.009577156256, -32932.14385892676, 0.056, 0.0, 1.022, 192.0, 0.0, 0.0, 0.0, 0.0, 0.0, 0.0, 0.0, 0.0, 0.0, 1.747687264566925E9, 0.0, 2025-05-19 22:41:04.566
52.0, 19346.35124759093, 16751.64899249661, 46613.22195687556, 27896.25112965717, 28922.53147632259, -6376.237437276535, 9886.981235382706, -611.0966934080951, 0.0, 0.0, 19056.605584216784, -7048.890834914546, 5795.047377949641, -4564.472086962711, -28143.03674018821, -32968.688961111184, 0.056, 0.0, 1.022, 192.0, 0.0, 0.0, 0.0, 0.0, 0.0, 0.0, 0.0, 0.0, 0.0, 1.747687264574948E9, 0.0, 2025-05-19 22:41:04.574
54.0, 19334.30365732952, 16734.84048066622, 46607.499910295, 27890.730248776705, 28932.410947371834, -6352.477532920544, 9853.453618699745, -627.1675976714608, 0.0, 0.0, 19057.20908131708, -7047.415619780496, 5809.710122312323, -4522.920194020295, -28114.046527629678, -32931.00391995954, 0.056, 0.0, 1.022, 192.0, 0.0, 0.0, 0.0, 0.0, 0.0, 0.0, 0.0, 0.0, 0.0, 1.74768726458298E9, 0.0, 2025-05-19 22:41:04.582
56.0, 19335.287134085553, 16737.947373145507, 46608.148110884205, 27884.51646381813, 28918.664624531822, -6365.530951682443, 9840.37784819339, -618.4057138449805, 0.0, 0.0, 19051.06235159187, -7061.20664610942, 5791.538154070157, -4567.042537575071, -28152.178603670432, -32971.86290882384, 0.056, 0.0, 1.022, 192.0, 0.0, 0.0, 0.0, 0.0, 0.0, 0.0, 0.0, 0.0, 0.0, 1.747687264590987E9, 0.0, 2025-05-19 22:41:04.590
58.0, 19342.976134178178, 16752.297193085815, 46607.11993063926, 27894.70885928975, 28934.467307861723, -6332.003334999483, 9891.608046484953, -620.9538127128855, 0.0, 0.0, 19056.069142349857, -7045.694535457437, 5800.478851852281, -4546.210711742725, -28126.18352486891, -32954.585010359886, 0.056, 0.002, 1.028, 192.0, 0.5, 96.0, 0.0, 8.0, 16.0, 16.0, 0.0, 0.0, 0.0, 1.747687264599977E9, 0.0, 2025-05-19 22:41:04.599
60.0, 19340.003352165622, 16738.908498157085, 46606.94111668362, 27886.461065585743, 28931.248656660162, -6336.697201335097, 9820.551850861531, -621.6243650465448, 0.0, 0.0, 19053.766912670962, -7052.936500660957, 5807.094968211051, -4543.729668108185, -28138.18641164141, -32942.626827076296, 0.056, 0.002, 1.028, 192.0, 0.0, 0.0, 0.0, 0.0, 0.0, 0.0, 0.0, 0.0, 0.0, 1.747687264607036E9, 0.0, 2025-05-19 22:41:04.607
62.0, 19343.601983022927, 16748.363286061678, 46612.86432896428, 27896.407591868356, 28930.53340083759, -6379.232571033546, 9895.497250020177, -610.2920306077041, 0.0, 0.0, 19054.571575471353, -7052.86944542759, 5795.270895394194, -4564.04740381806, -28139.482812819817, -32970.030065778505, 0.056, 0.002, 1.028, 192.0, 0.0, 0.0, 0.0, 0.0, 0.0, 0.0, 0.0, 0.0, 0.0, 1.747687264615096E9, 0.0, 2025-05-19 22:41:04.615
64.0, 19340.562145777007, 16748.676210484053, 46610.42798881865, 27893.121885433422, 28952.92984878181, -6337.63597460222, 9855.018240811616, -618.3610103560699, 0.0, 0.0, 19057.790226672918, -7047.415619780496, 5809.955991501331, -4518.785121296063, -28107.89979790447, -32926.399460601744, 0.056, 0.002, 1.028, 192.0, 0.0, 0.0, 0.0, 0.0, 0.0, 0.0, 0.0, 0.0, 0.0, 1.747687264622101E9, 0.0, 2025-05-19 22:41:04.622
66.0, 19346.887689457857, 16751.894861685618, 46608.72925624005, 27891.490208088188, 28919.513990821124, -6339.2453002030015, 9850.324374476002, -607.162786383961, 0.0, 0.0, 19041.875784620737, -7060.424335053484, 5790.889953480953, -4563.645072417864, -28146.94829546789, -32965.60442037635, 0.056, 0.002, 1.028, 192.0, 0.0, 0.0, 0.0, 0.0, 0.0, 0.0, 0.0, 0.0, 0.0, 1.747687264631146E9, 0.0, 2025-05-19 22:41:04.631
68.0, 19343.423169067286, 16740.607230735688, 46617.4017330887, 27901.99552798218, 28939.898781764365, -6364.055736548393, 9889.641092972886, -619.5009493232906, 0.0, 0.0, 19057.72317143955, -7043.079381356166, 5803.541040842658, -4531.9726505246945, -28113.867713674037, -32940.41400437522, 0.05, 0.002, 1.03, 192.0, 0.5, 72.0, 0.0, 8.0, 16.0, 24.0, 0.0, 0.0, 0.0, 1.747687264639174E9, 0.0, 2025-05-19 22:41:04.639
70.0, 19335.533003274562, 16732.113567842673, 46606.98582017253, 27887.690411530784, 28923.000862956153, -6371.275350007457, 9826.631525353376, -614.7847312432208, 0.0, 0.0, 19049.408322502175, -7057.473904785384, 5803.988075731764, -4534.453694159233, -28130.072728404135, -32937.84355376286, 0.05, 0.002, 1.03, 192.0, 0.0, 0.0, 0.0, 0.0, 0.0, 0.0, 0.0, 0.0, 0.0, 1.747687264647196E9, 0.0, 2025-05-19 22:41:04.647
72.0, 19356.744808762647, 16753.12420763066, 46624.911919225684, 27902.24139717119, 28938.33415965249, -6366.447373205111, 9888.009415627648, -606.35812358357, 0.0, 0.0, 19056.449122005597, -7053.763515205803, 5795.472061094291, -4559.66646190482, -28136.66649301845, -32969.22540297811, 0.05, 0.002, 1.03, 192.0, 0.0, 0.0, 0.0, 0.0, 0.0, 0.0, 0.0, 0.0, 0.0, 1.74768726465522E9, 0.0, 2025-05-19 22:41:04.655
74.0, 19347.088855157956, 16742.842405181218, 46613.736046998034, 27895.357059878956, 28944.77146205562, -6337.0101257574715, 9855.28646174508, -622.7419522693101, 0.0, 0.0, 19062.081761608337, -7046.745067446836, 5813.53227061418, -4520.439150385756, -28110.80552468366, -32926.555922812935, 0.05, 0.002, 1.03, 192.0, 0.0, 0.0, 0.0, 0.0, 0.0, 0.0, 0.0, 0.0, 0.0, 1.747687264663246E9, 0.0, 2025-05-19 22:41:04.663
76.0, 19356.744808762647, 16740.003733635396, 46607.14228238372, 27888.875053986914, 28927.694729291765, -6356.411439944678, 9843.28357497258, -604.614687516056, 0.0, 0.0, 19052.20229055909, -7062.748916476837, 5793.4604040933145, -4566.394336985867, -28155.173737427445, -32967.39255993278, 0.05, 0.002, 1.03, 192.0, 0.0, 0.0, 0.0, 0.0, 0.0, 0.0, 0.0, 0.0, 0.0, 1.747687264671285E9, 0.0, 2025-05-19 22:41:04.671
78.0, 19364.478512344183, 16751.671344241066, 46619.65925927869, 27900.3862023814, 28954.5838778715, -6360.680623135641, 9888.858781916952, -618.7633417562654, 0.0, 0.0, 19063.624031975753, -7051.103657615621, 5805.418587376904, -4539.348726194946, -28125.80354521317, -32947.63361783429, 0.056, 0.002, 1.028, 192.0, 0.5, 96.0, 0.0, 8.0, 16.0, 16.0, 0.0, 0.0, 0.0, 1.747687264679306E9, 0.0, 2025-05-19 22:41:04.679
80.0, 19357.750637263136, 16743.35649530369, 46613.534881297935, 27884.538815562584, 28949.48768013569, -6362.44641094761, 9813.488699613656, -625.6253273040447, 0.0, 0.0, 19059.891290651714, -7063.151247877032, 5809.263087423216, -4536.174778482292, -28131.36912958254, -32942.60447533184, 0.056, 0.002, 1.028, 192.0, 0.0, 0.0, 0.0, 0.0, 0.0, 0.0, 0.0, 0.0, 0.0, 1.747687264686324E9, 0.0, 2025-05-19 22:41:04.686
82.0, 19365.953727478234, 16752.587765763732, 46614.33954409833, 27886.23754814119, 28958.897764551377, -6336.8983670351945, 9880.834505657496, -622.6078418025783, 0.0, 0.0, 19063.1993488311, -7064.380593822074, 5796.120261683495, -4564.472086962711, -28141.069786676144, -32977.093217026384, 0.056, 0.002, 1.028, 192.0, 0.0, 0.0, 0.0, 0.0, 0.0, 0.0, 0.0, 0.0, 0.0, 1.747687264695433E9, 0.0, 2025-05-19 22:41:04.695
84.0, 19359.337611119463, 16747.625678494656, 46610.740913241025, 27883.08595217299, 28964.753921598665, -6340.8322740593285, 9846.323412218502, -626.0723621931509, 0.0, 0.0, 19058.21490981757, -7065.766401978302, 5807.6090583335235, -4532.240871458158, -28120.84145794409, -32942.962103243124, 0.056, 0.002, 1.028, 192.0, 0.0, 0.0, 0.0, 0.0, 0.0, 0.0, 0.0, 0.0, 0.0, 1.747687264704437E9, 0.0, 2025-05-19 22:41:04.704
86.0, 19365.68550654477, 16752.78893146383, 46608.32692483985, 27880.962536449737, 28926.800659513556, -6384.686396680641, 9849.922043075805, -618.1374929115168, 0.0, 0.0, 19055.040962104915, -7070.192047380454, 5796.500241339236, -4571.758755655141, -28156.984228728325, -32978.85900483835, 0.056, 0.002, 1.028, 192.0, 0.0, 0.0, 0.0, 0.0, 0.0, 0.0, 0.0, 0.0, 0.0, 1.747687264711435E9, 0.0, 2025-05-19 22:41:04.711
88.0, 19375.810846783024, 16768.59161479373, 46627.08003843785, 27900.743830292682, 28969.626601889922, -6359.183056257136, 9886.377738282412, -623.5242633252458, 0.0, 0.0, 19070.620127990263, -7050.813084937702, 5809.061921723119, -4544.869607075406, -28124.75301322377, -32958.80949006194, 0.06, 0.004, 1.03, 192.0, 0.5, 112.0, 0.0, 16.0, 16.0, 24.0, 0.0, 0.0, 0.0, 1.747687264718471E9, 0.0, 2025-05-19 22:41:04.718
90.0, 19369.373544379898, 16762.914271702084, 46617.69230576662, 27891.91489123284, 28950.11352898044, -6359.808905101884, 9825.670400341798, -622.6301935470335, 0.0, 0.0, 19070.91070066818, -7050.3213465596855, 5821.958878273831, -4536.711220349219, -28128.575161525627, -32943.52089685451, 0.06, 0.004, 1.03, 192.0, 0.0, 0.0, 0.0, 0.0, 0.0, 0.0, 0.0, 0.0, 0.0, 1.747687264727471E9, 0.0, 2025-05-19 22:41:04.727
92.0, 19377.59898633945, 16776.951167220017, 46619.681611023145, 27900.877940759416, 28925.794831013067, -6330.371657654245, 9887.76354643864, -619.1209696675503, 0.0, 0.0, 19066.61916573276, -7051.193064593443, 5807.452596122336, -4566.126116052404, -28146.121280923046, -32976.55677515946, 0.06, 0.004, 1.03, 192.0, 0.0, 0.0, 0.0, 0.0, 0.0, 0.0, 0.0, 0.0, 0.0, 1.74768726473445E9, 0.0, 2025-05-19 22:41:04.734
94.0, 19380.30354741854, 16769.619795038678, 46628.44349484963, 27907.695222818285, 28962.11641575294, -6336.0713524903485, 9838.589708636966, -630.9673942288631, 0.0, 0.0, 19076.141008870723, -7040.866558655091, 5829.826692322099, -4521.221461441692, -28115.968777652834, -32930.0204432035, 0.06, 0.004, 1.03, 192.0, 0.0, 0.0, 0.0, 0.0, 0.0, 0.0, 0.0, 0.0, 0.0, 1.747687264742545E9, 0.0, 2025-05-19 22:41:04.742
96.0, 19377.509579361627, 16770.64797528362, 46625.761285514986, 27903.873074516425, 28946.224325445215, -6370.671852907164, 9830.073693999493, -626.5417488267123, 0.0, 0.0, 19072.184750102133, -7046.25332906882, 5818.2931921831605, -4555.956072325239, -28145.58483905612, -32962.76574883053, 0.06, 0.004, 1.03, 192.0, 0.0, 0.0, 0.0, 0.0, 0.0, 0.0, 0.0, 0.0, 0.0, 1.747687264752575E9, 0.0, 2025-05-19 22:41:04.752
98.0, 19376.74962005015, 16771.564396806287, 46630.92453848416, 27910.24332168619, 28963.055189020062, -6350.935262553127, 9881.57211322452, -627.324059882648, 0.0, 0.0, 19082.01951766247, -7034.183387062953, 5825.557509131135, -4528.351667922934, -28112.638367728996, -32945.68901606667, 0.06, 0.001, 1.029, 192.0, 0.5, 112.0, 127.5, 120.0, 16.0, 16.0, 0.0, 0.0, 0.0, 1.74768726475959E9, 0.0, 2025-05-19 22:41:04.759
100.0, 19365.238471655666, 16763.182492635548, 46613.55723304239, 27893.90419648936, 28949.510031880145, -6350.443524175111, 9813.175775191281, -628.7322197833323, 0.0, 0.0, 19066.976793644048, -7053.852922183624, 5819.477834639291, -4530.966822024206, -28133.581952283617, -32940.63752181977, 0.06, 0.001, 1.029, 192.0, 0.0, 0.0, 0.0, 0.0, 0.0, 0.0, 0.0, 0.0, 0.0, 1.74768726476661E9, 0.0, 2025-05-19 22:41:04.766
102.0, 19364.88084374438, 16759.919137945075, 46611.32205859686, 27893.054830200057, 28943.408005643847, -6345.459085161578, 9883.874342903417, -619.5456528122012, 0.0, 0.0, 19064.272232564956, -7055.641061740049, 5802.512860597713, -4557.18541827028, -28143.841402988604, -32971.54998440146, 0.06, 0.001, 1.029, 192.0, 0.0, 0.0, 0.0, 0.0, 0.0, 0.0, 0.0, 0.0, 0.0, 1.747687264774624E9, 0.0, 2025-05-19 22:41:04.774
104.0, 19360.29873613104, 16755.22527160946, 46614.853634220795, 27898.978042480714, 28970.297154223583, -6344.944995039105, 9848.916214575316, -629.0227924612514, 0.0, 0.0, 19057.566709228362, -7057.496256529839, 5810.1348054569735, -4521.08735097496, -28124.12716437902, -32934.71430953912, 0.06, 0.001, 1.029, 192.0, 0.0, 0.0, 0.0, 0.0, 0.0, 0.0, 0.0, 0.0, 0.0, 1.747687264783681E9, 0.0, 2025-05-19 22:41:04.783
106.0, 19366.44546585625, 16756.90165244361, 46617.66995402217, 27893.591272066984, 28947.878354534907, -6385.31224552539, 9840.71312436022, -616.1034841660838, 0.0, 0.0, 19060.181863329635, -7059.619672253093, 5803.33987514256, -4553.363269968423, -28146.23303964532, -32961.916382541225, 0.06, 0.001, 1.029, 192.0, 0.0, 0.0, 0.0, 0.0, 0.0, 0.0, 0.0, 0.0, 0.0, 1.747687264791703E9, 0.0, 2025-05-19 22:41:04.791
108.0, 19365.573747822495, 16764.52359730287, 46620.91095696819, 27902.464914615743, 28967.391427444392, -6350.845855575306, 9894.826697686518, -616.259946377271, 0.0, 0.0, 19067.58029074434, -7051.483637271362, 5807.765520544711, -4529.6257173568865, -28113.375975296018, -32947.164231200724, 0.061, -5.0E-4, 1.0285, 192.0, 0.5, 120.0, 127.5, 120.0, 16.0, 16.0, 0.0, 0.0, 0.0, 1.747687264798673E9, 0.0, 2025-05-19 22:41:04.798
110.0, 19360.186977408765, 16748.229175594948, 46606.91876493916, 27888.98681270919, 28954.717988338234, -6352.678698620642, 9832.733551589674, -614.6729725209442, 0.0, 0.0, 19058.86311040677, -7057.228035596376, 5810.760654301722, -4530.340973179456, -28130.452708059875, -32937.48592585158, 0.061, -5.0E-4, 1.0285, 192.0, 0.0, 0.0, 0.0, 0.0, 0.0, 0.0, 0.0, 0.0, 0.0, 1.747687264806751E9, 0.0, 2025-05-19 22:41:04.806
112.0, 19369.574710079993, 16761.08142865675, 46617.11116041079, 27896.586405823997, 28944.34677891097, -6334.417323400656, 9893.709110463753, -601.552498525679, 0.0, 0.0, 19060.58419472983, -7063.263006599308, 5796.366130872504, -4556.604272914443, -28136.66649301845, -32968.7336646001, 0.061, -5.0E-4, 1.0285, 192.0, 0.0, 0.0, 0.0, 0.0, 0.0, 0.0, 0.0, 0.0, 0.0, 1.747687264814765E9, 0.0, 2025-05-19 22:41:04.814
114.0, 19371.139332191866, 16768.815132238287, 46609.42216031816, 27894.015955211635, 28957.64606686188, -6300.822651484329, 9855.264110000624, -608.9285741959303, 0.0, 0.0, 19061.47826450804, -7055.0152128953005, 5812.10175896904, -4517.935755006762, -28109.598530483072, -32929.01461470302, 0.061, -5.0E-4, 1.0285, 192.0, 0.0, 0.0, 0.0, 0.0, 0.0, 0.0, 0.0, 0.0, 0.0, 1.747687264822795E9, 0.0, 2025-05-19 22:41:04.822
116.0, 19355.895442473346, 16748.631506995145, 46614.18308188714, 27895.37941162341, 28935.29432240657, -6372.281178507946, 9862.23785427068, -595.0928443780953, 0.0, 0.0, 19053.833967904327, -7062.905378688023, 5798.131918684473, -4554.749078124652, -28143.819051244147, -32960.61998136282, 0.061, -5.0E-4, 1.0285, 192.0, 0.0, 0.0, 0.0, 0.0, 0.0, 0.0, 0.0, 0.0, 0.0, 1.74768726483078E9, 0.0, 2025-05-19 22:41:04.830
118.0, 19365.730210033682, 16754.21944310897, 46613.26666036447, 27900.028574470114, 28954.226249960215, -6334.931413523128, 9904.01326465765, -608.8391672181091, 0.0, 0.0, 19064.495750009508, -7052.310651816208, 5806.133843199474, -4528.798702812041, -28112.0348706287, -32944.034986976985, 0.0645, -0.00125, 1.02925, 192.0, 1.0, 16.0, 127.5, 120.0, 16.0, 24.0, 0.0, 0.0, 0.0, 1.747687264839867E9, 0.0, 2025-05-19 22:41:04.839
120.0, 19370.669945558304, 16754.778236720354, 46607.99164867302, 27888.42801909781, 28949.890011535885, -6360.166533013169, 9834.476987657188, -612.9742399423409, 0.0, 0.0, 19054.72803768254, -7066.325195589686, 5805.843270521555, -4532.464388902711, -28130.1397836375, -32940.65987356423, 0.0645, -0.00125, 1.02925, 192.0, 0.0, 0.0, 0.0, 0.0, 0.0, 0.0, 0.0, 0.0, 0.0, 1.747687264845862E9, 0.0, 2025-05-19 22:41:04.845
122.0, 19388.908969033833, 16773.84427474073, 46618.89929996721, 27900.31914714803, 28968.240793733694, -6362.0217278029595, 9891.742156951685, -600.9266496809304, 0.0, 0.0, 19065.613337232273, -7059.0161751528, 5799.741244285256, -4557.654804903842, -28137.694673263395, -32969.42656867821, 0.0645, -0.00125, 1.02925, 192.0, 0.0, 0.0, 0.0, 0.0, 0.0, 0.0, 0.0, 0.0, 0.0, 1.747687264854905E9, 0.0, 2025-05-19 22:41:04.854
124.0, 19377.80015203955, 16762.98132693545, 46610.49504405201, 27890.149103420867, 28981.338915984503, -6338.306526935879, 9854.101819288948, -623.9936499588073, 0.0, 0.0, 19067.4014767887, -7058.077401885677, 5814.471043881303, -4519.053342229527, -28112.995995640278, -32931.62976880428, 0.0645, -0.00125, 1.02925, 192.0, 0.0, 0.0, 0.0, 0.0, 0.0, 0.0, 0.0, 0.0, 0.0, 1.747687264862949E9, 0.0, 2025-05-19 22:41:04.862
126.0, 19378.157779950834, 16760.6567455121, 46607.879889950746, 27880.649612027362, 28970.16304375685, -6349.996489286004, 9838.455598170232, -618.875100478542, 0.0, 0.0, 19057.16437782817, -7074.394175338051, 5792.029892448175, -4565.5449706965655, -28153.9443914824, -32975.52859491451, 0.0645, -0.00125, 1.02925, 192.0, 0.0, 0.0, 0.0, 0.0, 0.0, 0.0, 0.0, 0.0, 0.0, 1.747687264870993E9, 0.0, 2025-05-19 22:41:04.870
128.0, 19372.63689907037, 16748.89972792861, 46600.36970381376, 27874.525234046607, 28975.34864847048, -6357.573730656354, 9883.33790103649, -637.516455354268, 0.0, 0.0, 19054.66098244917, -7075.064727671711, 5789.14651741344, -4550.770467611607, -28130.1397836375, -32968.28662971099, 0.06425, -0.0016250000000000001, 1.027625, 192.0, 1.0, 0.0, 127.5, 120.0, 16.0, 8.0, 0.0, 0.0, 0.0, 1.747687264879012E9, 0.0, 2025-05-19 22:41:04.879
130.0, 19363.472683843695, 16747.98330640594, 46599.78855845792, 27870.300754344556, 28965.580936143513, -6352.857512576284, 9812.125243201881, -628.8886819945195, 0.0, 0.0, 19045.027380588937, -7086.352358621641, 5789.012406946708, -4553.251511246146, -28146.90359197898, -32965.559716887445, 0.06425, -0.0016250000000000001, 1.027625, 192.0, 0.0, 0.0, 0.0, 0.0, 0.0, 0.0, 0.0, 0.0, 0.0, 1.747687264887047E9, 0.0, 2025-05-19 22:41:04.887
132.0, 19369.664117057815, 16755.113512887183, 46607.34344808381, 27882.46010332824, 28969.313677467548, -6376.706823910096, 9885.81894467103, -616.3717050995475, 0.0, 0.0, 19052.738732426016, -7082.463155086417, 5780.04935742013, -4576.09499407947, -28152.51387983726, -32992.80649337846, 0.06425, -0.0016250000000000001, 1.027625, 192.0, 0.0, 0.0, 0.0, 0.0, 0.0, 0.0, 0.0, 0.0, 0.0, 1.747687264895122E9, 0.0, 2025-05-19 22:41:04.895
134.0, 19370.26761415811, 16755.493492542922, 46603.34248582632, 27884.09178067348, 28982.50120669618, -6350.264710219469, 9848.312717475024, -630.2521384062933, 0.0, 0.0, 19057.857281906283, -7072.9189602040005, 5799.473023351792, -4535.548929637544, -28124.641254501494, -32950.114661468826, 0.06425, -0.0016250000000000001, 1.027625, 192.0, 0.0, 0.0, 0.0, 0.0, 0.0, 0.0, 0.0, 0.0, 0.0, 1.74768726490212E9, 0.0, 2025-05-19 22:41:04.902
136.0, 19373.12863744839, 16758.063943155285, 46605.778825971945, 27883.04124868408, 28949.599438857967, -6366.156800527192, 9838.3214877035, -617.131664411028, 0.0, 0.0, 19052.87284289275, -7076.4952393168505, 5790.688787780856, -4570.529409710099, -28154.704350793883, -32980.82595835042, 0.06425, -0.0016250000000000001, 1.027625, 192.0, 0.0, 0.0, 0.0, 0.0, 0.0, 0.0, 0.0, 0.0, 0.0, 1.747687264911171E9, 0.0, 2025-05-19 22:41:04.911
138.0, 19374.805018282535, 16758.533329788843, 46603.186023615126, 27885.56699580753, 28957.288438950593, -6327.398875641689, 9886.556552238055, -626.6982110378995, 0.0, 0.0, 19057.52200573945, -7068.582721779671, 5793.86273549351, -4550.815171100518, -28130.586818526604, -32968.5324989, 0.063125, 0.0011875, 1.0298125, 192.0, 0.5, 120.0, 0.0, 16.0, 16.0, 32.0, 0.0, 0.0, 0.0, 1.747687264919188E9, 0.0, 2025-05-19 22:41:04.919
140.0, 19370.513483347117, 16757.84042571073, 46597.48632877902, 27881.90130971686, 28948.168927212828, -6329.231718687024, 9822.027065995582, -627.0111354602737, 0.0, 0.0, 19045.921450367146, -7077.657530028526, 5795.00267446073, -4552.491551934666, -28148.66937979095, -32959.815318562425, 0.063125, 0.0011875, 1.0298125, 192.0, 0.0, 0.0, 0.0, 0.0, 0.0, 0.0, 0.0, 0.0, 0.0, 1.747687264926244E9, 0.0, 2025-05-19 22:41:04.926
142.0, 19386.45027714375, 16776.906463731106, 46611.143244641215, 27896.362888379444, 28953.645104604377, -6366.35796622729, 9870.61975844142, -620.4173708459581, 0.0, 0.0, 19054.996258616004, -7065.118201389098, 5791.873430236988, -4575.759717912641, -28157.073635706143, -32987.55383343146, 0.063125, 0.0011875, 1.0298125, 192.0, 0.0, 0.0, 0.0, 0.0, 0.0, 0.0, 0.0, 0.0, 0.0, 1.747687264934296E9, 0.0, 2025-05-19 22:41:04.934
144.0, 19383.477495131196, 16766.199978137014, 46613.42312257566, 27898.4863041027, 28973.605212402967, -6328.427055886634, 9831.146577733347, -630.9673942288631, 0.0, 0.0, 19064.96513664307, -7058.367974563596, 5814.091064225562, -4527.010563255616, -28120.215609099345, -32940.27989390849, 0.063125, 0.0011875, 1.0298125, 192.0, 0.0, 0.0, 0.0, 0.0, 0.0, 0.0, 0.0, 0.0, 0.0, 1.747687264943293E9, 0.0, 2025-05-19 22:41:04.943
146.0, 19391.97115802421, 16775.140675919138, 46619.16752090067, 27896.966385479736, 28965.7373983547, -6345.414381672666, 9838.23208072568, -619.0092109452738, 0.0, 0.0, 19061.25474706349, -7063.285358343764, 5803.853965265032, -4557.364232225923, -28149.027007702236, -32968.554850644454, 0.063125, 0.0011875, 1.0298125, 192.0, 0.0, 0.0, 0.0, 0.0, 0.0, 0.0, 0.0, 0.0, 0.0, 1.747687264951326E9, 0.0, 2025-05-19 22:41:04.951
148.0, 19392.194675468763, 16772.771391006874, 46619.65925927869, 27894.32887963401, 28980.042514806097, -6347.806018329385, 9878.822848656519, -634.8342460196312, 0.0, 0.0, 19077.05743039339, -7058.949119919434, 5810.268915923705, -4532.710258091719, -28119.56740851014, -32957.33427492789, 0.0655625, -0.00140625, 1.0309062500000001, 192.0, 1.0, 16.0, 127.5, 112.0, 16.0, 32.0, 0.0, 0.0, 0.0, 1.747687264958321E9, 0.0, 2025-05-19 22:41:04.958
150.0, 19380.951748007745, 16760.634393767643, 46601.95667767009, 27871.79832122306, 28972.331162969014, -6364.502771437499, 9804.927981487273, -645.9430630139188, 0.0, 0.0, 19059.1983865736, -7080.183277151976, 5801.5070320972245, -4541.002755284638, -28139.1922401419, -32959.30122843996, 0.0655625, -0.00140625, 1.0309062500000001, 192.0, 0.0, 0.0, 0.0, 0.0, 0.0, 0.0, 0.0, 0.0, 0.0, 1.747687264966356E9, 0.0, 2025-05-19 22:41:04.966
152.0, 19395.41332667033, 16772.212597395494, 46608.572794028856, 27881.94601320577, 28981.763599129154, -6375.924512854161, 9865.05417407205, -639.9080920109859, 0.0, 0.0, 19057.030267361435, -7080.675015529992, 5786.374901100981, -4572.876342877906, -28150.636333303017, -32994.30406025697, 0.0655625, -0.00140625, 1.0309062500000001, 192.0, 0.0, 0.0, 0.0, 0.0, 0.0, 0.0, 0.0, 0.0, 0.0, 1.747687264975432E9, 0.0, 2025-05-19 22:41:04.975
154.0, 19379.185960195777, 16754.532367531345, 46590.870212420254, 27869.540795033074, 28983.79760787459, -6346.599024128798, 9841.495435416155, -646.2783391807484, 0.0, 0.0, 19054.23629930452, -7080.049166685244, 5796.410834361414, -4534.744266837152, -28126.51880103574, -32956.30609468294, 0.0655625, -0.00140625, 1.0309062500000001, 192.0, 0.0, 0.0, 0.0, 0.0, 0.0, 0.0, 0.0, 0.0, 0.0, 1.747687264982439E9, 0.0, 2025-05-19 22:41:04.982
156.0, 19388.417230655818, 16760.58969027873, 46599.02859914644, 27867.79735896556, 28980.221328761738, -6348.342460196312, 9823.457577640722, -637.8740832655529, 0.0, 0.0, 19044.178014299636, -7097.751748293847, 5775.824877718077, -4579.894790636872, -28167.37778990004, -32999.24379578159, 0.0655625, -0.00140625, 1.0309062500000001, 192.0, 0.0, 0.0, 0.0, 0.0, 0.0, 0.0, 0.0, 0.0, 0.0, 1.747687264990437E9, 0.0, 2025-05-19 22:41:04.990
158.0, 19387.925492277802, 16765.68588801454, 46602.09078813682, 27881.007239938648, 28980.713067139754, -6367.587312172332, 9898.58179075501, -632.5767198296452, 0.0, 0.0, 19056.739694683518, -7079.6691870295035, 5788.543020313146, -4545.0037175421385, -28124.931827179415, -32969.828900078406, 0.06578125, -0.002703125, 1.033453125, 192.0, 1.0, 8.0, 127.5, 112.0, 16.0, 48.0, 0.0, 0.0, 0.0, 1.747687264998477E9, 0.0, 2025-05-19 22:41:04.998
160.0, 19385.824428299, 16770.64797528362, 46597.598087501305, 27875.955745691746, 28971.68296237981, -6356.389088200222, 9818.674304327287, -632.3084988961815, 0.0, 0.0, 19042.121653809747, -7090.1745069234985, 5786.553715056624, -4548.267072232613, -28142.924981465934, -32963.458652908645, 0.06578125, -0.002703125, 1.033453125, 192.0, 0.0, 0.0, 0.0, 0.0, 0.0, 0.0, 0.0, 0.0, 0.0, 1.747687265007517E9, 0.0, 2025-05-19 22:41:05.007
162.0, 19393.289910947075, 16775.431248597055, 46606.62819226125, 27886.75163826366, 28957.981343028707, -6367.721422639063, 9890.110479606448, -612.840129475609, 0.0, 0.0, 19051.084703336324, -7078.037509684266, 5784.385595844459, -4565.924950352305, -28143.595533799595, -32983.84344385188, 0.06578125, -0.002703125, 1.033453125, 192.0, 0.0, 0.0, 0.0, 0.0, 0.0, 0.0, 0.0, 0.0, 0.0, 1.747687265014492E9, 0.0, 2025-05-19 22:41:05.014
164.0, 19378.40364913984, 16765.954108948008, 46604.728293982545, 27887.086914430492, 28965.983267543706, -6340.362887425767, 9857.4769327017, -623.8595394920754, 0.0, 0.0, 19056.873805150248, -7069.476791557884, 5803.831613520577, -4524.507167876622, -28113.89006541849, -32942.58212358739, 0.06578125, -0.002703125, 1.033453125, 192.0, 0.0, 0.0, 0.0, 0.0, 0.0, 0.0, 0.0, 0.0, 0.0, 1.747687265022579E9, 0.0, 2025-05-19 22:41:05.022
166.0, 19376.861378772424, 16767.138751404138, 46602.29195383692, 27883.46593182873, 28942.67039807682, -6310.322142877834, 9855.577034422999, -613.1307021535281, 0.0, 0.0, 19041.004066586982, -7079.088041673665, 5786.799584245633, -4567.735441653185, -28157.0959874506, -32979.686019383196, 0.06578125, -0.002703125, 1.033453125, 192.0, 0.0, 0.0, 0.0, 0.0, 0.0, 0.0, 0.0, 0.0, 0.0, 1.747687265030545E9, 0.0, 2025-05-19 22:41:05.030
168.0, 19375.430867127285, 16762.355478090703, 46611.7020382526, 27886.684583030295, 28972.509976924655, -6347.358983440278, 9899.431157044311, -618.003382444785, 0.0, 0.0, 19056.851453405794, -7070.952006691934, 5796.209668661317, -4537.046496516049, -28116.95225440887, -32961.11171974084, 0.062890625, -0.0073515625000000005, 1.0317265625, 192.0, 0.5, 112.0, 127.5, 80.0, 16.0, 24.0, 0.0, 0.0, 0.0, 1.747687265038622E9, 0.0, 2025-05-19 22:41:05.038
170.0, 19375.98966073867, 16761.84138796823, 46599.16270961317, 27876.76040849214, 28962.429340175313, -6354.220968988057, 9819.188394449759, -627.9722604718519, 0.0, 0.0, 19047.66488643466, -7083.848963242646, 5794.510936082714, -4542.902653563339, -28137.56056279666, -32960.08353949589, 0.062890625, -0.0073515625000000005, 1.0317265625, 192.0, 0.0, 0.0, 0.0, 0.0, 0.0, 0.0, 0.0, 0.0, 0.0, 1.747687265046662E9, 0.0, 2025-05-19 22:41:05.046
172.0, 19391.45706790174, 16774.067792185284, 46616.93234645514, 27890.774952265616, 28973.851081591976, -6342.799227571396, 9877.794668411574, -625.133588926028, 0.0, 0.0, 19055.398590016197, -7076.249370127842, 5788.43126159087, -4565.455563718744, -28141.04743493169, -32984.849272352374, 0.062890625, -0.0073515625000000005, 1.0317265625, 192.0, 0.0, 0.0, 0.0, 0.0, 0.0, 0.0, 0.0, 0.0, 0.0, 1.747687265054668E9, 0.0, 2025-05-19 22:41:05.054
174.0, 19385.01976549861, 16765.283556614348, 46604.68359049363, 27882.124827161413, 28989.07261956604, -6351.851684075795, 9851.464313443223, -638.3658216435697, 0.0, 0.0, 19060.606546474286, -7069.92382644699, 5806.223250177294, -4525.915327777306, -28114.27004507423, -32946.4266236337, 0.062890625, -0.0073515625000000005, 1.0317265625, 192.0, 0.0, 0.0, 0.0, 0.0, 0.0, 0.0, 0.0, 0.0, 0.0, 1.747687265063706E9, 0.0, 2025-05-19 22:41:05.063
176.0, 19386.293814932564, 16768.099876415716, 46605.66706724967, 27877.14038814788, 28974.991020559195, -6365.799172615907, 9836.354534191434, -632.3084988961815, 0.0, 0.0, 19046.23437478952, -7085.950027221445, 5784.296188866639, -4574.731537667696, -28162.885089264524, -32991.53244394451, 0.062890625, -0.0073515625000000005, 1.0317265625, 192.0, 0.0, 0.0, 0.0, 0.0, 0.0, 0.0, 0.0, 0.0, 0.0, 1.747687265069736E9, 0.0, 2025-05-19 22:41:05.069
178.0, 19390.384184167884, 16761.349649590215, 46621.46975057957, 27886.550472563562, 29015.8500094235, -6345.63789911722, 9875.872418388417, -633.9625279858742, 0.0, 0.0, 19067.06620062187, -7071.421393325495, 5799.428319862881, -4540.488665162166, -28118.494524776284, -32964.48683315359, 0.0614453125, -0.009675781250000001, 1.0318632812500002, 192.0, 0.5, 112.0, 127.5, 80.0, 16.0, 32.0, 0.0, 0.0, 0.0, 1.747687265078702E9, 0.0, 2025-05-19 22:41:05.078
180.0, 19390.49594289016, 16762.93662344654, 46615.635945276736, 27883.42122833982, 28994.571148702045, -6339.558224625376, 9811.857022268417, -633.7390105413211, 0.0, 0.0, 19063.847549420305, -7080.451498085439, 5802.356398386526, -4540.6004238844425, -28133.559600539164, -32956.79783306096, 0.0614453125, -0.009675781250000001, 1.0318632812500002, 192.0, 0.0, 0.0, 0.0, 0.0, 0.0, 0.0, 0.0, 0.0, 0.0, 1.747687265086784E9, 0.0, 2025-05-19 22:41:05.086
182.0, 19401.336538950985, 16773.732516018452, 46624.151959914205, 27888.942109220283, 28992.715953912255, -6313.25022140148, 9874.486610232188, -623.7030772808882, 0.0, 0.0, 19073.39174430272, -7071.06376541421, 5797.52842158418, -4564.09210730697, -28142.90262972148, -32981.67532463972, 0.0614453125, -0.009675781250000001, 1.0318632812500002, 192.0, 0.0, 0.0, 0.0, 0.0, 0.0, 0.0, 0.0, 0.0, 0.0, 1.747687265094766E9, 0.0, 2025-05-19 22:41:05.094
184.0, 19391.099439990456, 16763.428361824557, 46612.66316326418, 27882.594213794975, 28995.398163246893, -6326.482454119022, 9838.835577825974, -636.421219875958, 0.0, 0.0, 19067.602642488797, -7076.87521897259, 5805.172718187895, -4528.2175574562025, -28119.23213234331, -32948.17005970122, 0.0614453125, -0.009675781250000001, 1.0318632812500002, 192.0, 0.0, 0.0, 0.0, 0.0, 0.0, 0.0, 0.0, 0.0, 0.0, 1.747687265102819E9, 0.0, 2025-05-19 22:41:05.102
186.0, 19390.227721956697, 16760.723800745465, 46599.45328229109, 27873.80997822404, 28962.16111924185, -6364.636881904231, 9842.14363600536, -625.357106370581, 0.0, 0.0, 19051.06235159187, -7083.6030940536375, 5787.157212156918, -4570.730575410196, -28159.867603763058, -32984.782217119006, 0.0614453125, -0.009675781250000001, 1.0318632812500002, 192.0, 0.0, 0.0, 0.0, 0.0, 0.0, 0.0, 0.0, 0.0, 0.0, 1.747687265110864E9, 0.0, 2025-05-19 22:41:05.110
188.0, 19387.21023645523, 16764.009507180395, 46602.761340470475, 27881.543681805575, 28988.603232932477, -6327.711800064064, 9869.4798194742, -634.7001355528994, 0.0, 0.0, 19050.280040535934, -7080.049166685244, 5786.441956334348, -4552.960938568227, -28136.174754640433, -32971.86290882384, 0.059722656250000006, -0.010837890625, 1.029931640625, 192.0, 0.5, 104.0, 127.5, 80.0, 16.0, 16.0, 0.0, 0.0, 0.0, 1.747687265118874E9, 0.0, 2025-05-19 22:41:05.118
190.0, 19383.9245300203, 16763.808341480297, 46600.48146253604, 27880.671963771816, 28966.631468132913, -6345.414381672666, 9815.098025214438, -631.2803186512374, 0.0, 0.0, 19045.519118966953, -7082.73137601988, 5793.86273549351, -4549.697583877753, -28145.96481871186, -32961.089367996385, 0.059722656250000006, -0.010837890625, 1.029931640625, 192.0, 0.0, 0.0, 0.0, 0.0, 0.0, 0.0, 0.0, 0.0, 0.0, 1.747687265125878E9, 0.0, 2025-05-19 22:41:05.125
192.0, 19397.290873204576, 16779.678080043566, 46621.93913721313, 27900.31914714803, 28976.265069993147, -6352.365774198267, 9877.615854455931, -610.7390654968102, 0.0, 0.0, 19059.846587162803, -7066.079326400677, 5795.047377949641, -4560.851104360951, -28139.549868053185, -32977.62965889331, 0.059722656250000006, -0.010837890625, 1.029931640625, 192.0, 0.0, 0.0, 0.0, 0.0, 0.0, 0.0, 0.0, 0.0, 0.0, 1.747687265134903E9, 0.0, 2025-05-19 22:41:05.134
194.0, 19386.8749602884, 16770.357402605703, 46615.03244817644, 27897.838103513495, 28986.613927675957, -6312.624372556731, 9851.397258209856, -623.4795598363352, 0.0, 0.0, 19063.57932848684, -7055.708116973415, 5815.231003192783, -4513.197185182236, -28106.1340100925, -32931.450954848646, 0.059722656250000006, -0.010837890625, 1.029931640625, 192.0, 0.0, 0.0, 0.0, 0.0, 0.0, 0.0, 0.0, 0.0, 0.0, 1.747687265142949E9, 0.0, 2025-05-19 22:41:05.142
196.0, 19393.35696618044, 16775.78887650834, 46613.49017780903, 27892.96542322224, 28968.799587345075, -6313.384331868212, 9841.920118560805, -613.8012544871873, 0.0, 0.0, 19053.968078371057, -7067.420431067995, 5797.126090183984, -4556.313700236524, -28148.84819374659, -32967.54902214396, 0.059722656250000006, -0.010837890625, 1.029931640625, 192.0, 0.0, 0.0, 0.0, 0.0, 0.0, 0.0, 0.0, 0.0, 0.0, 1.747687265150995E9, 0.0, 2025-05-19 22:41:05.150
198.0, 19390.898274290357, 16777.577016064766, 46614.80893073189, 27894.015955211635, 28991.687773667312, -6302.0296456849155, 9880.745098679674, -616.7069812663772, 0.0, 0.0, 19060.58419472983, -7061.25134959833, 5800.165927429906, -4533.13494123637, -28117.287530575697, -32952.30513242545, 0.058861328125, -0.0124189453125, 1.0279658203125002, 192.0, 0.5, 104.0, 127.5, 72.0, 16.0, 8.0, 0.0, 0.0, 0.0, 1.747687265160061E9, 0.0, 2025-05-19 22:41:05.160
200.0, 19375.028535727088, 16758.622736766665, 46598.447453790606, 27877.542719548073, 28975.840386848497, -6322.68265756162, 9823.636391596365, -621.4008476019917, 0.0, 0.0, 19048.782473657426, -7079.333910862674, 5795.2261919052835, -4539.862816317417, -28138.76755699725, -32951.23224869159, 0.058861328125, -0.0124189453125, 1.0279658203125002, 192.0, 0.0, 0.0, 0.0, 0.0, 0.0, 0.0, 0.0, 0.0, 0.0, 1.747687265167037E9, 0.0, 2025-05-19 22:41:05.167
202.0, 19390.74181207917, 16767.854007226706, 46612.46199756408, 27886.081085930004, 28981.92006134034, -6351.941091053616, 9880.365119023934, -616.7963882441984, 0.0, 0.0, 19050.235337047023, -7078.216323639909, 5783.178601643873, -4568.875380620406, -28150.077539691632, -32984.87162409683, 0.058861328125, -0.0124189453125, 1.0279658203125002, 192.0, 0.0, 0.0, 0.0, 0.0, 0.0, 0.0, 0.0, 0.0, 0.0, 1.747687265175085E9, 0.0, 2025-05-19 22:41:05.175
204.0, 19377.1743031948, 16757.773370477364, 46600.32500032485, 27877.743885248172, 28989.69846841079, -6321.945049994594, 9849.922043075805, -625.2229959038492, 0.0, 0.0, 19054.77274117145, -7076.338777105663, 5798.556601829124, -4528.664592345309, -28120.170905610434, -32947.63361783429, 0.058861328125, -0.0124189453125, 1.0279658203125002, 192.0, 0.0, 0.0, 0.0, 0.0, 0.0, 0.0, 0.0, 0.0, 0.0, 1.747687265182081E9, 0.0, 2025-05-19 22:41:05.182
206.0, 19382.896349775358, 16760.54498678982, 46599.29682007991, 27872.3794665789, 28973.78402635861, -6341.413419415167, 9843.440037183767, -627.033487204729, 0.0, 0.0, 19041.428749731633, -7092.387329624574, 5775.579008529068, -4573.256322533646, -28162.86273752007, -32986.41389446425, 0.058861328125, -0.0124189453125, 1.0279658203125002, 192.0, 0.0, 0.0, 0.0, 0.0, 0.0, 0.0, 0.0, 0.0, 0.0, 1.747687265190127E9, 0.0, 2025-05-19 22:41:05.190
208.0, 19396.352099937452, 16771.430286339557, 46613.06549466438, 27886.639879541384, 29000.673174938343, -6340.92168103715, 9888.277636561113, -630.9673942288631, 0.0, 0.0, 19059.01957261796, -7072.360166592618, 5792.543982570646, -4540.4216099288005, -28117.689861975894, -32965.11268199833, 0.0574306640625, -0.01120947265625, 1.02998291015625, 192.0, 0.5, 96.0, 127.5, 88.0, 16.0, 32.0, 0.0, 0.0, 0.0, 1.747687265199152E9, 0.0, 2025-05-19 22:41:05.199
210.0, 19374.91677700481, 16750.08437038474, 46593.37360779925, 27867.640896754372, 28987.396238731893, -6340.9440327816055, 9812.147594946337, -633.0908099521173, 0.0, 0.0, 19047.396665501197, -7085.4806405878835, 5791.113470925507, -4544.266109975113, -28136.890010463, -32962.94456278617, 0.0574306640625, -0.01120947265625, 1.02998291015625, 192.0, 0.0, 0.0, 0.0, 0.0, 0.0, 0.0, 0.0, 0.0, 0.0, 1.747687265206176E9, 0.0, 2025-05-19 22:41:05.206
212.0, 19383.209274197732, 16760.41087632309, 46601.643753247714, 27873.56410903503, 28979.997811317186, -6359.339518468323, 9878.554627723053, -626.3405831266145, 0.0, 0.0, 19042.501633465487, -7087.335835377674, 5772.673281749879, -4574.753889412152, -28152.603286815083, -32995.555757946466, 0.0574306640625, -0.01120947265625, 1.02998291015625, 192.0, 0.0, 0.0, 0.0, 0.0, 0.0, 0.0, 0.0, 0.0, 0.0, 1.747687265214235E9, 0.0, 2025-05-19 22:41:05.214
214.0, 19381.957576508234, 16756.789893721332, 46605.488253294025, 27876.559242792042, 28998.683869681823, -6317.7652737814515, 9847.150426763348, -637.3823448875362, 0.0, 0.0, 19049.67654343564, -7082.351396364141, 5792.43222384837, -4532.307926691524, -28117.37693755352, -32955.702597582655, 0.0574306640625, -0.01120947265625, 1.02998291015625, 192.0, 0.0, 0.0, 0.0, 0.0, 0.0, 0.0, 0.0, 0.0, 0.0, 1.747687265223233E9, 0.0, 2025-05-19 22:41:05.223
216.0, 19381.868169530415, 16757.46044605499, 46587.56215424087, 27864.154024619347, 28955.25443020516, -6328.427055886634, 9848.08920003047, -635.1471704420055, 0.0, 0.0, 19035.52788919543, -7091.336797635174, 5775.936636440353, -4574.9997586011605, -28158.839423518115, -32992.605327678364, 0.0574306640625, -0.01120947265625, 1.02998291015625, 192.0, 0.0, 0.0, 0.0, 0.0, 0.0, 0.0, 0.0, 0.0, 0.0, 1.747687265231247E9, 0.0, 2025-05-19 22:41:05.231
218.0, 19371.943994992256, 16762.04255366833, 46593.61947698826, 27878.302678859556, 28970.073636779027, -6329.388180898211, 9883.695528947776, -632.1743884294497, 0.0, 0.0, 19026.609543157763, -7088.609884811626, 5770.683976493357, -4555.866665347417, -28142.23207738782, -32977.42849319321, 0.0574306640625, -0.01120947265625, 1.02998291015625, 192.0, 0.0, 0.0, 0.0, 0.0, 0.0, 0.0, 0.0, 0.0, 0.0, 1.747687265238259E9, 0.0, 2025-05-19 22:41:05.238
220.0, 19376.012012483123, 16753.280669841846, 46608.97512542905, 27878.302678859556, 28985.250471264182, -6270.223113325013, 9806.224382665681, -626.1617691709721, 0.0, 0.0, 19044.20036604409, -7083.468983586906, 5790.040587191652, -4536.532406393577, -28129.826859215125, -32955.970818516114, 0.054, -0.004, 1.034, 192.0, 0.5, 88.0, 127.5, 112.0, 16.0, 40.0, 0.0, 0.0, 0.0, 1.74768726524627E9, 0.0, 2025-05-19 22:41:05.246
222.0, 19384.036288742576, 16760.12030364517, 46611.03148591894, 27883.935318462292, 28989.229081777226, -6367.632015661242, 9878.040537600582, -621.6243650465448, 0.0, 0.0, 19052.02347660345, -7080.0715184297, 5782.530401054669, -4563.041575317571, -28140.734510509315, -32987.91146134275, 0.054, -0.004, 1.034, 192.0, 0.0, 0.0, 0.0, 0.0, 0.0, 0.0, 0.0, 0.0, 0.0, 1.747687265255328E9, 0.0, 2025-05-19 22:41:05.255
224.0, 19370.245262413653, 16750.7549227184, 46602.493119537015, 27877.14038814788, 28990.74900040019, -6338.462989147066, 9851.464313443223, -637.6505658209999, 0.0, 0.0, 19049.54243296891, -7080.250332385342, 5792.566334315102, -4526.965859766706, -28118.583931754107, -32951.70163532515, 0.054, -0.004, 1.034, 192.0, 0.0, 0.0, 0.0, 0.0, 0.0, 0.0, 0.0, 0.0, 0.0, 1.747687265262346E9, 0.0, 2025-05-19 22:41:05.262
226.0, 19370.088800202466, 16750.866681440675, 46599.833261946835, 27871.440693311775, 28972.73349436921, -6353.818637587862, 9845.09406627346, -624.6194988035559, 0.0, 0.0, 19041.853432876283, -7092.968474980411, 5773.634406761456, -4571.401127743856, -28160.29228690771, -32992.58297593391, 0.054, -0.004, 1.034, 192.0, 0.0, 0.0, 0.0, 0.0, 0.0, 0.0, 0.0, 0.0, 0.0, 1.747687265270366E9, 0.0, 2025-05-19 22:41:05.270
228.0, 19371.094628702955, 16753.906518686596, 46604.77299747145, 27884.404705095854, 28994.749962657686, -6318.5252330929325, 9886.020110371126, -631.257966906782, 0.0, 0.0, 19048.29073527941, -7078.663358529015, 5782.552752799124, -4546.747153609652, -28127.90460919197, -32971.52763265701, 0.054, -0.004, 1.034, 192.0, 0.0, 0.0, 0.0, 0.0, 0.0, 0.0, 0.0, 0.0, 0.0, 1.747687265278391E9, 0.0, 2025-05-19 22:41:05.278
230.0, 19368.9712129797, 16745.815187193773, 46596.88283167873, 27869.31727758852, 28983.417628218845, -6335.11022747877, 9822.429397395777, -635.9741849868518, 0.0, 0.0, 19039.171223541645, -7088.565181322716, 5782.731566754766, -4547.820037343507, -28144.489603577807, -32964.5315366425, 0.056, -0.004, 1.038, 192.0, 0.5, 96.0, 127.5, 112.0, 16.0, 56.0, 0.0, 0.0, 0.0, 1.747687265287458E9, 0.0, 2025-05-19 22:41:05.287
232.0, 19386.60673935494, 16765.84235022573, 46619.614555789776, 27885.835216740994, 29001.924872627842, -6315.977134225027, 9879.359290523445, -625.1112371815726, 0.0, 0.0, 19056.069142349857, -7084.139535920565, 5779.781136486667, -4566.506095708143, -28140.84626923159, -32992.67238291173, 0.056, -0.004, 1.038, 192.0, 0.0, 0.0, 0.0, 0.0, 0.0, 0.0, 0.0, 0.0, 0.0, 1.747687265294475E9, 0.0, 2025-05-19 22:41:05.294
234.0, 19380.08002997399, 16765.819998481275, 46608.86336670678, 27883.08595217299, 29006.328166285537, -6289.915000190139, 9846.256356985135, -646.0324699917401, 0.0, 0.0, 19061.992354630514, -7075.109431160621, 5798.601305318035, -4526.205900455225, -28116.348757308577, -32949.757033557544, 0.056, -0.004, 1.038, 192.0, 0.0, 0.0, 0.0, 0.0, 0.0, 0.0, 0.0, 0.0, 0.0, 1.747687265302556E9, 0.0, 2025-05-19 22:41:05.302
236.0, 19383.701012575748, 16758.868605955675, 46607.74577948401, 27878.012106181635, 28981.003639817674, -6345.324974694846, 9831.28068820008, -637.6952693099105, 0.0, 0.0, 19051.643496947705, -7083.089003931165, 5783.759746999711, -4566.126116052404, -28151.418644358953, -32988.202034020665, 0.056, -0.004, 1.038, 192.0, 0.0, 0.0, 0.0, 0.0, 0.0, 0.0, 0.0, 0.0, 0.0, 1.747687265310605E9, 0.0, 2025-05-19 22:41:05.310
238.0, 19382.73988756417, 16761.21553912348, 46614.04897142041, 27888.919757475825, 28993.274747523636, -6330.975154754538, 9882.779107425107, -636.063591964673, 0.0, 0.0, 19059.108979595778, -7072.49427705935, 5790.755843014222, -4542.634432629876, -28125.37886206852, -32970.38769368979, 0.056, -0.004, 1.038, 192.0, 0.0, 0.0, 0.0, 0.0, 0.0, 0.0, 0.0, 0.0, 0.0, 1.747687265318641E9, 0.0, 2025-05-19 22:41:05.318
240.0, 19371.899291503345, 16754.353553575704, 46614.51835805397, 27886.394010352375, 28989.899634110887, -6331.332782665823, 9826.564470120009, -629.6262895615447, 0.0, 0.0, 19053.789264415416, -7078.4398410844615, 5797.595476817546, -4534.94543253725, -28127.725795236325, -32956.19433596067, 0.056, -0.006, 1.038, 192.0, 0.5, 96.0, 127.5, 104.0, 16.0, 56.0, 0.0, 0.0, 0.0, 1.747687265326646E9, 0.0, 2025-05-19 22:41:05.326
242.0, 19384.192750953764, 16765.37296359217, 46620.106294167796, 27899.29096690309, 28983.35057298548, -6332.271555932946, 9891.250418573669, -618.5174725672571, 0.0, 0.0, 19061.902947652692, -7066.3475473341405, 5793.661569793412, -4552.558607168032, -28133.47019356134, -32977.60730714885, 0.056, -0.006, 1.038, 192.0, 0.0, 0.0, 0.0, 0.0, 0.0, 0.0, 0.0, 0.0, 0.0, 1.747687265334641E9, 0.0, 2025-05-19 22:41:05.334
244.0, 19378.917739262313, 16759.74032398943, 46610.807968474386, 27892.049001699568, 28991.084276567017, -6308.086968432304, 9864.33891824948, -623.5913185586118, 0.0, 0.0, 19058.661944706673, -7068.135686890565, 5803.853965265032, -4516.572298594988, -28112.83953342909, -32939.31876889691, 0.056, -0.006, 1.038, 192.0, 0.0, 0.0, 0.0, 0.0, 0.0, 0.0, 0.0, 0.0, 0.0, 1.7476872653437E9, 0.0, 2025-05-19 22:41:05.343
246.0, 19382.40461139734, 16767.071696170773, 46616.7535324995, 27894.105362189457, 28977.15913977136, -6308.288134132402, 9843.060057528026, -624.775961014743, 0.0, 0.0, 19052.939898126115, -7074.416527082507, 5791.493450581247, -4552.580958912487, -28141.583876798617, -32973.248716980066, 0.056, -0.006, 1.038, 192.0, 0.0, 0.0, 0.0, 0.0, 0.0, 0.0, 0.0, 0.0, 0.0, 1.747687265350627E9, 0.0, 2025-05-19 22:41:05.350
248.0, 19376.83902702797, 16764.12126590267, 46618.69813426711, 27896.295833146076, 28996.06871558055, -6252.788752649874, 9888.434098772299, -630.9673942288631, 0.0, 0.0, 19065.456875021086, -7063.240654854853, 5798.824822762588, -4531.391505168856, -28116.79579219768, -32957.22251620561, 0.056, -0.006, 1.038, 192.0, 0.0, 0.0, 0.0, 0.0, 0.0, 0.0, 0.0, 0.0, 0.0, 1.747687265358667E9, 0.0, 2025-05-19 22:41:05.358
250.0, 19376.459047372227, 16760.947318190018, 46613.62428827576, 27888.517426075632, 28995.30875626907, -6321.766236038952, 9819.747188061141, -630.453304106391, 0.0, 0.0, 19053.901023137692, -7079.803297496235, 5797.52842158418, -4534.431342414778, -28129.268065603745, -32955.43437664919, 0.058, -0.004, 1.036, 192.0, 0.5, 104.0, 127.5, 112.0, 16.0, 48.0, 0.0, 0.0, 0.0, 1.74768726536669E9, 0.0, 2025-05-19 22:41:05.366
252.0, 19390.428887656795, 16772.79374275133, 46626.83416924884, 27904.253054172168, 28998.035669092616, -6324.493148862499, 9885.52837199311, -614.7400277543102, 0.0, 0.0, 19061.835892419327, -7063.441820554951, 5794.399177360437, -4549.18349375528, -28129.312769092652, -32972.265240224035, 0.058, -0.004, 1.036, 192.0, 0.0, 0.0, 0.0, 0.0, 0.0, 0.0, 0.0, 0.0, 0.0, 1.747687265374719E9, 0.0, 2025-05-19 22:41:05.374
254.0, 19372.905120003834, 16750.374943062656, 46613.26666036447, 27892.496036588676, 29002.84129415051, -6327.845910530796, 9855.509979189632, -633.9848797303296, 0.0, 0.0, 19064.78632268743, -7065.833457211668, 5807.184375188873, -4510.470272358689, -28101.57425422362, -32934.13316418328, 0.058, -0.004, 1.036, 192.0, 0.0, 0.0, 0.0, 0.0, 0.0, 0.0, 0.0, 0.0, 0.0, 1.747687265383779E9, 0.0, 2025-05-19 22:41:05.383
0.0, 19375.944957249758, 16752.453655297002, 46611.79144523042, 27890.216158654235, 28981.45067470678, -6339.781742069929, 9841.987173794172, -625.4465133484023, 0.0, 0.0, 19049.58713645782, -7079.535076562772, 5783.245656877239, -4557.967729326217, -28148.2446966463, -32976.80264434846, 0.058, -0.004, 1.036, 192.0, 0.0, 0.0, 0.0, 0.0, 0.0, 0.0, 0.0, 0.0, 0.0, 1.747687265390819E9, 0.0, 2025-05-19 22:41:05.390
2.0, 19382.06933523051, 16762.04255366833, 46620.307459867894, 27894.015955211635, 29009.21154132027, -6318.547584837388, 9887.092994104982, -630.3415453841145, 0.0, 0.0, 19061.34415404131, -7069.856771213624, 5791.404043603426, -4531.145635979848, -28111.23020782831, -32961.3799406743, 0.058, -0.004, 1.036, 192.0, 0.0, 0.0, 0.0, 0.0, 0.0, 0.0, 0.0, 0.0, 0.0, 1.747687265398825E9, 0.0, 2025-05-19 22:41:05.398
4.0, 19378.40364913984, 16753.45948379749, 46617.446436577615, 27889.165626664835, 28994.54879695759, -6301.694369518086, 9819.791891550052, -634.4319146194357, 0.0, 0.0, 19056.62793596124, -7079.266855629308, 5795.896744238943, -4531.726781335686, -28128.351644081074, -32955.635542349286, 0.058, -0.006, 1.034, 192.0, 0.5, 104.0, 127.5, 104.0, 16.0, 40.0, 0.0, 0.0, 0.0, 1.747687265405878E9, 0.0, 2025-05-19 22:41:05.405
6.0, 19384.192750953764, 16762.40018157961, 46617.938174955634, 27894.23947265619, 28989.96668934425, -6320.514538349455, 9889.328168550512, -622.9207662249526, 0.0, 0.0, 19065.881558165736, -7069.4544398134285, 5790.778194758677, -4553.027993801594, -28136.644141273995, -32977.3837897043, 0.058, -0.006, 1.034, 192.0, 0.0, 0.0, 0.0, 0.0, 0.0, 0.0, 0.0, 0.0, 0.0, 1.747687265414817E9, 0.0, 2025-05-19 22:41:05.414
8.0, 19381.64465208586, 16759.293289100326, 46621.626212790754, 27894.75356277866, 29009.055079109083, -6316.312410391857, 9851.866644843418, -628.7769232722429, 0.0, 0.0, 19063.556976742384, -7070.057936913721, 5804.301000154138, -4516.885223017362, -28109.822047927624, -32943.00680673204, 0.058, -0.006, 1.034, 192.0, 0.0, 0.0, 0.0, 0.0, 0.0, 0.0, 0.0, 0.0, 0.0, 1.747687265422837E9, 0.0, 2025-05-19 22:41:05.422
10.0, 19382.35990790843, 16763.048382168818, 46616.70882901059, 27893.546568578073, 28982.07652355153, -6317.7652737814515, 9844.244699984158, -619.2774318787375, 0.0, 0.0, 19054.750389426994, -7073.142477648554, 5793.326293626582, -4553.3409182239675, -28142.27678087673, -32974.61217339184, 0.058, -0.006, 1.034, 192.0, 0.0, 0.0, 0.0, 0.0, 0.0, 0.0, 0.0, 0.0, 0.0, 1.747687265430865E9, 0.0, 2025-05-19 22:41:05.430
12.0, 19387.187884710776, 16770.916196217084, 46629.18110241665, 27906.51058036215, 29005.814076163064, -6286.584590266299, 9891.608046484953, -623.3454493696033, 0.0, 0.0, 19069.234319834035, -7059.530265275272, 5803.429282120381, -4525.557699866021, -28107.69863220437, -32953.735644070584, 0.058, -0.006, 1.034, 192.0, 0.0, 0.0, 0.0, 0.0, 0.0, 0.0, 0.0, 0.0, 0.0, 1.747687265438911E9, 0.0, 2025-05-19 22:41:05.438
14.0, 19375.9226055053, 16756.87930069915, 46614.294840609415, 27891.870187743927, 28982.277689251627, -6301.135575906704, 9830.207804466225, -625.6700307929553, 0.0, 0.0, 19068.92139541166, -7064.5817595221715, 5810.201860690339, -4524.842444043451, -28122.115507378043, -32947.454803878645, 0.058, -0.004, 1.032, 192.0, 0.5, 104.0, 127.5, 112.0, 16.0, 32.0, 0.0, 0.0, 0.0, 1.747687265447966E9, 0.0, 2025-05-19 22:41:05.447
16.0, 19391.278253946097, 16771.139713661636, 46631.10335243981, 27907.650519329374, 28999.332070271026, -6310.322142877834, 9886.154220837858, -618.6962865228995, 0.0, 0.0, 19067.267366321965, -7063.754744977325, 5798.444843106848, -4551.32926122299, -28131.61499877155, -32977.1826240042, 0.058, -0.004, 1.032, 192.0, 0.0, 0.0, 0.0, 0.0, 0.0, 0.0, 0.0, 0.0, 0.0, 1.747687265453981E9, 0.0, 2025-05-19 22:41:05.453
18.0, 19377.21900668371, 16763.495417057922, 46618.40756158919, 27899.447429114276, 29013.011337877673, -6293.312465347346, 9859.913272847329, -624.418333103458, 0.0, 0.0, 19073.72702046955, -7055.752820462325, 5816.750921815744, -4508.548022335533, -28097.528588477206, -32933.328501382886, 0.058, -0.004, 1.032, 192.0, 0.0, 0.0, 0.0, 0.0, 0.0, 0.0, 0.0, 0.0, 0.0, 1.747687265463011E9, 0.0, 2025-05-19 22:41:05.463
20.0, 19382.002279997145, 16766.89288221513, 46615.345372598815, 27895.37941162341, 28986.01043057566, -6304.711855019553, 9854.794723367062, -616.5952225441006, 0.0, 0.0, 19056.851453405794, -7071.77902123678, 5793.482755837769, -4558.0347845595825, -28147.551792568185, -32977.83082459341, 0.058, -0.004, 1.032, 192.0, 0.0, 0.0, 0.0, 0.0, 0.0, 0.0, 0.0, 0.0, 0.0, 1.747687265473067E9, 0.0, 2025-05-19 22:41:05.473
22.0, 19379.87886427389, 16758.13099838865, 46621.849730235306, 27898.88863550289, 29012.07256461055, -6316.178299925125, 9883.896694647872, -632.1073331960837, 0.0, 0.0, 19071.33538381283, -7060.558445520216, 5802.691674553356, -4530.3856766683675, -28108.391536282485, -32958.004827261546, 0.058, -0.004, 1.032, 192.0, 0.0, 0.0, 0.0, 0.0, 0.0, 0.0, 0.0, 0.0, 0.0, 1.74768726547913E9, 0.0, 2025-05-19 22:41:05.479
24.0, 19372.659250814828, 16751.850158196707, 46613.19960513111, 27888.718591775727, 28995.353459757982, -6294.184183381103, 9822.831728795974, -631.2132634178714, 0.0, 0.0, 19058.080799350835, -7072.203704381431, 5800.411796618914, -4535.392467426356, -28127.502277791773, -32956.90959178324, 0.062, -0.006, 1.028, 192.0, 0.5, 120.0, 127.5, 104.0, 16.0, 16.0, 0.0, 0.0, 0.0, 1.747687265487089E9, 0.0, 2025-05-19 22:41:05.487
26.0, 19388.21606495572, 16767.518731059878, 46626.27537563746, 27899.313318647542, 29001.25432029418, -6328.963497753561, 9887.294159805078, -622.7196005248547, 0.0, 0.0, 19061.25474706349, -7071.0414136697555, 5789.839421491554, -4560.292310749568, -28137.694673263395, -32987.10679854236, 0.062, -0.006, 1.028, 192.0, 0.0, 0.0, 0.0, 0.0, 0.0, 0.0, 0.0, 0.0, 0.0, 1.747687265495118E9, 0.0, 2025-05-19 22:41:05.495
28.0, 19383.075163731, 16762.08725715724, 46624.82251224786, 27902.151990193368, 29014.97829138974, -6285.556410021354, 9846.435170940778, -636.7788477872429, 0.0, 0.0, 19073.34704081381, -7058.502085030328, 5813.800491547643, -4514.5382898495545, -28104.45762925835, -32940.257542164036, 0.062, -0.006, 1.028, 192.0, 0.0, 0.0, 0.0, 0.0, 0.0, 0.0, 0.0, 0.0, 0.0, 1.747687265502184E9, 0.0, 2025-05-19 22:41:05.502
30.0, 19385.39974515435, 16771.07265842827, 46616.48531156604, 27898.46395235824, 28984.334049741516, -6312.110282434259, 9851.576072165499, -616.8857952220196, 0.0, 0.0, 19061.72413369705, -7067.822762468191, 5797.52842158418, -4555.285519991579, -28145.271914633744, -32974.88039432531, 0.062, -0.006, 1.028, 192.0, 0.0, 0.0, 0.0, 0.0, 0.0, 0.0, 0.0, 0.0, 0.0, 1.747687265510346E9, 0.0, 2025-05-19 22:41:05.510
32.0, 19387.612567855427, 16764.300079858313, 46628.488198338535, 27908.52223736313, 29015.000643134197, -6287.232790855503, 9888.05411911656, -620.1491499124944, 0.0, 0.0, 19068.250843078, -7058.256215841319, 5803.898668753943, -4527.211728955714, -28109.352661294066, -32952.37218765881, 0.062, -0.006, 1.028, 192.0, 0.0, 0.0, 0.0, 0.0, 0.0, 0.0, 0.0, 0.0, 0.0, 1.747687265520204E9, 0.0, 2025-05-19 22:41:05.520
34.0, 19378.560111351027, 16755.761713476386, 46614.428951076145, 27894.507693589654, 28998.281538281626, -6278.560314006843, 9835.75103709114, -622.3172691246592, 0.0, 0.0, 19056.382066772232, -7074.751803249336, 5801.3282181415825, -4529.022220256594, -28121.020271899735, -32951.09813822486, 0.06, -0.006, 1.032, 192.0, 0.5, 112.0, 127.5, 104.0, 16.0, 32.0, 0.0, 0.0, 0.0, 1.747687265527227E9, 0.0, 2025-05-19 22:41:05.527
36.0, 19386.27146318811, 16763.428361824557, 46626.185968659636, 27903.42603962732, 29003.93652962882, -6297.358131093756, 9888.523505750121, -615.0976556655951, 0.0, 0.0, 19061.947651141603, -7068.716832246403, 5793.303941882127, -4549.563473411021, -28126.742318480294, -32976.84734783737, 0.06, -0.006, 1.032, 192.0, 0.0, 0.0, 0.0, 0.0, 0.0, 0.0, 0.0, 0.0, 0.0, 1.74768726553431E9, 0.0, 2025-05-19 22:41:05.534
38.0, 19372.70395430374, 16755.98523092094, 46616.93234645514, 27897.636937813397, 29006.998718619197, -6279.588494251788, 9859.041554813572, -633.0237547187513, 0.0, 0.0, 19063.378162786743, -7066.772230478791, 5805.709160054822, -4510.693789803242, -28100.009632111745, -32939.36347238582, 0.06, -0.006, 1.032, 192.0, 0.0, 0.0, 0.0, 0.0, 0.0, 0.0, 0.0, 0.0, 0.0, 1.747687265543389E9, 0.0, 2025-05-19 22:41:05.543
40.0, 19375.31910840501, 16757.728666988452, 46618.6534307782, 27894.99943196767, 28991.486607967214, -6299.950933450572, 9843.70825811723, -622.8537109915866, 0.0, 0.0, 19053.118712081756, -7077.366957350607, 5788.207744146317, -4555.978424069694, -28146.165984411957, -32978.59078390489, 0.06, -0.006, 1.032, 192.0, 0.0, 0.0, 0.0, 0.0, 0.0, 0.0, 0.0, 0.0, 0.0, 1.747687265551302E9, 0.0, 2025-05-19 22:41:05.551
42.0, 19373.843893270958, 16753.325373330757, 46618.8545964783, 27901.347327392978, 29006.909311641375, -6325.230756429524, 9893.53029650811, -626.3182313821592, 0.0, 0.0, 19064.004011631492, -7064.358242077618, 5798.198973917839, -4528.6869440897635, -28109.665585716437, -32958.563620872934, 0.06, -0.006, 1.032, 192.0, 0.0, 0.0, 0.0, 0.0, 0.0, 0.0, 0.0, 0.0, 0.0, 1.747687265558342E9, 0.0, 2025-05-19 22:41:05.558
44.0, 19366.35605887843, 16743.93764065953, 46616.328849354846, 27893.591272066984, 29001.70135518329, -6310.769177766941, 9828.866699798906, -625.7817895152318, 0.0, 0.0, 19053.85631964878, -7073.701271259937, 5797.260200650716, -4531.883243546873, -28129.312769092652, -32954.56265861543, 0.066, 0.0, 1.032, 192.0, 1.0, 8.0, 0.0, 0.0, 16.0, 32.0, 0.0, 0.0, 0.0, 1.747687265566422E9, 0.0, 2025-05-19 22:41:05.566
46.0, 19371.69812580325, 16755.180568120548, 46621.2015296461, 27902.37550763792, 28994.63820393541, -6316.290058647402, 9894.849049430974, -615.7235045103437, 0.0, 0.0, 19060.651249963197, -7069.230922368875, 5788.230095890773, -4550.815171100518, -28128.441051058897, -32979.66366763874, 0.066, 0.0, 1.032, 192.0, 0.0, 0.0, 0.0, 0.0, 0.0, 0.0, 0.0, 0.0, 0.0, 1.747687265575387E9, 0.0, 2025-05-19 22:41:05.575
48.0, 19371.854588014437, 16752.99009716393, 46626.70005878211, 27905.19182743929, 29025.193038605816, -6257.393212007668, 9850.57024366501, -631.5708913291563, 0.0, 0.0, 19060.651249963197, -7062.011308909811, 5804.926848998886, -4507.743359535141, -28100.300204789666, -32935.340158383864, 0.066, 0.0, 1.032, 192.0, 0.0, 0.0, 0.0, 0.0, 0.0, 0.0, 0.0, 0.0, 0.0, 1.74768726558243E9, 0.0, 2025-05-19 22:41:05.582
50.0, 19380.325899162995, 16759.673268756065, 46628.778771016456, 27905.303586161564, 28995.845198135998, -6315.843023758295, 9858.102781546448, -613.9353649539191, 0.0, 0.0, 19061.075933107848, -7070.080288658177, 5795.159136671918, -4544.377868697389, -28130.877391204525, -32968.912478555736, 0.066, 0.0, 1.032, 192.0, 0.0, 0.0, 0.0, 0.0, 0.0, 0.0, 0.0, 0.0, 0.0, 1.747687265591397E9, 0.0, 2025-05-19 22:41:05.591
52.0, 19371.005221725132, 16754.241794853424, 46625.29189888143, 27905.929435006314, 29013.45837276678, -6282.650683242165, 9892.09978486297, -626.5417488267123, 0.0, 0.0, 19072.20710184659, -7059.977300164378, 5802.222287919794, -4525.043609743549, -28104.70349844736, -32954.94263827117, 0.066, 0.0, 1.032, 192.0, 0.0, 0.0, 0.0, 0.0, 0.0, 0.0, 0.0, 0.0, 0.0, 1.747687265600528E9, 0.0, 2025-05-19 22:41:05.600
54.0, 19365.46198910022, 16749.950259918005, 46612.99843943101, 27892.27251914412, 28992.82771263453, -6280.974302408016, 9829.380789921379, -625.4018098594917, 0.0, 0.0, 19054.839796404816, -7076.182314894476, 5798.087215195563, -4527.926984778283, -28123.36720506754, -32949.757033557544, 0.06, 0.0, 1.026, 192.0, 0.5, 112.0, 0.0, 0.0, 16.0, 8.0, 0.0, 0.0, 0.0, 1.747687265608487E9, 0.0, 2025-05-19 22:41:05.608
56.0, 19379.11890496241, 16769.46333282749, 46625.202491903605, 27906.71174606225, 28992.82771263453, -6299.660360772653, 9895.094918619981, -609.6661817629555, 0.0, 0.0, 19059.287793551423, -7067.666300257004, 5791.873430236988, -4550.211674000225, -28133.00080692778, -32976.15444375926, 0.06, 0.0, 1.026, 192.0, 0.0, 0.0, 0.0, 0.0, 0.0, 0.0, 0.0, 0.0, 0.0, 1.747687265615568E9, 0.0, 2025-05-19 22:41:05.615
58.0, 19377.21900668371, 16763.69658275802, 46624.39782910321, 27905.549455350574, 29028.277579340647, -6267.876180157206, 9859.019203069116, -622.0266964467403, 0.0, 0.0, 19066.954441899594, -7062.30188158773, 5808.011389733719, -4508.123339190882, -28102.088344346088, -32935.764841528515, 0.06, 0.0, 1.026, 192.0, 0.0, 0.0, 0.0, 0.0, 0.0, 0.0, 0.0, 0.0, 0.0, 1.747687265622538E9, 0.0, 2025-05-19 22:41:05.622
60.0, 19377.80015203955, 16761.617870523678, 46625.1577884147, 27899.156856436355, 29002.237797050217, -6307.237602143002, 9851.061982043026, -618.3163068671593, 0.0, 0.0, 19063.020534875457, -7069.3426810911515, 5795.650875049934, -4545.160179753325, -28131.883219705014, -32968.845423322375, 0.06, 0.0, 1.026, 192.0, 0.0, 0.0, 0.0, 0.0, 0.0, 0.0, 0.0, 0.0, 0.0, 1.747687265630627E9, 0.0, 2025-05-19 22:41:05.630
62.0, 19381.13056196339, 16767.429324082055, 46625.29189888143, 27900.162684936844, 29022.376718804448, -6297.447538071578, 9896.90540992086, -627.7487430272988, 0.0, 0.0, 19065.255709320987, -7068.538018290761, 5797.818994262099, -4527.3905429113565, -28108.838571171593, -32959.63650460679, 0.06, 0.0, 1.026, 192.0, 0.0, 0.0, 0.0, 0.0, 0.0, 0.0, 0.0, 0.0, 0.0, 1.747687265638611E9, 0.0, 2025-05-19 22:41:05.638
64.0, 19373.44156187076, 16756.052286154307, 46613.69134350912, 27889.255033642654, 29014.21833207826, -6289.356206578756, 9827.458539898222, -629.2239581613492, 0.0, 0.0, 19057.16437782817, -7077.456364328428, 5798.534250084669, -4526.697638833241, -28120.349719566075, -32951.70163532515, 0.058, -0.004, 1.03, 192.0, 0.5, 104.0, 127.5, 112.0, 16.0, 24.0, 0.0, 0.0, 0.0, 1.747687265646644E9, 0.0, 2025-05-19 22:41:05.646
66.0, 19386.517332377116, 16767.205806637503, 46616.41825633267, 27897.256958157657, 29012.877227410943, -6252.989918349972, 9890.781031940107, -614.5612137986677, 0.0, 0.0, 19056.449122005597, -7073.54480904875, 5786.888991223454, -4557.878322348395, -28137.851135474582, -32983.44111245169, 0.058, -0.004, 1.03, 192.0, 0.0, 0.0, 0.0, 0.0, 0.0, 0.0, 0.0, 0.0, 0.0, 1.747687265654698E9, 0.0, 2025-05-19 22:41:05.654
68.0, 19384.908006776335, 16766.579957792754, 46615.07715166535, 27894.686507545295, 29011.625529721445, -6259.114296330727, 9853.4759704442, -628.3745918720474, 0.0, 0.0, 19057.96904062856, -7071.466096814406, 5801.887011752965, -4518.852176529429, -28113.979472396313, -32943.744414299064, 0.058, -0.004, 1.03, 192.0, 0.0, 0.0, 0.0, 0.0, 0.0, 0.0, 0.0, 0.0, 0.0, 1.747687265662715E9, 0.0, 2025-05-19 22:41:05.662
70.0, 19393.69224234727, 16776.16885616408, 46623.66022153619, 27898.53100759161, 29017.68285246883, -6268.077345857304, 9837.18154873628, -620.9985162017962, 0.0, 0.0, 19061.545319741406, -7074.193009637954, 5795.00267446073, -4554.23498800218, -28142.165022154455, -32977.87552808232, 0.058, -0.004, 1.03, 192.0, 0.0, 0.0, 0.0, 0.0, 0.0, 0.0, 0.0, 0.0, 0.0, 1.747687265669765E9, 0.0, 2025-05-19 22:41:05.669
72.0, 19388.05960274453, 16768.79278049383, 46615.30066910991, 27897.324013391022, 29017.68285246883, -6306.164718409147, 9884.120212092426, -630.0286209617402, 0.0, 0.0, 19068.4520087781, -7065.654643256026, 5798.780119273677, -4533.827845314485, -28116.594626497583, -32964.1292052423, 0.058, -0.004, 1.03, 192.0, 0.0, 0.0, 0.0, 0.0, 0.0, 0.0, 0.0, 0.0, 0.0, 1.747687265678762E9, 0.0, 2025-05-19 22:41:05.678
74.0, 19375.49792236065, 16759.203882122503, 46616.395904588215, 27889.635013298397, 29021.326186815048, -6293.893610703184, 9819.456615383222, -638.678746065944, 0.0, 0.0, 19059.57836622934, -7075.623521283093, 5799.405968118425, -4533.179644725281, -28128.575161525627, -32957.62484760581, 0.062, -0.002, 1.028, 192.0, 0.5, 120.0, 127.5, 120.0, 16.0, 16.0, 0.0, 0.0, 0.0, 1.747687265686775E9, 0.0, 2025-05-19 22:41:05.686
76.0, 19383.566902109018, 16766.647013026122, 46616.530015054945, 27892.3842778664, 29013.234855322225, -6305.58357305331, 9884.4331365148, -631.5485395847011, 0.0, 0.0, 19059.421904018152, -7078.953931206934, 5784.5420580556465, -4561.342842738967, -28138.588743041604, -32991.085409055406, 0.062, -0.002, 1.028, 192.0, 0.0, 0.0, 0.0, 0.0, 0.0, 0.0, 0.0, 0.0, 0.0, 1.74768726569481E9, 0.0, 2025-05-19 22:41:05.694
78.0, 19371.20638742523, 16751.6042890077, 46608.84101496232, 27890.193806909778, 29006.618738963454, -6266.177447578603, 9854.258281500135, -639.5281123552456, 0.0, 0.0, 19059.667773207162, -7074.952968949434, 5798.847174507043, -4525.80356905503, -28119.545056765684, -32953.601533603854, 0.062, -0.002, 1.028, 192.0, 0.0, 0.0, 0.0, 0.0, 0.0, 0.0, 0.0, 0.0, 0.0, 1.747687265701839E9, 0.0, 2025-05-19 22:41:05.701
80.0, 19376.481399116685, 16757.84042571073, 46613.13254989774, 27892.89836798887, 28996.761619658664, -6287.679825744609, 9847.262185485624, -616.4611120773687, 0.0, 0.0, 19050.995296358502, -7083.4242800979955, 5784.720872011289, -4562.773354384107, -28153.117376937556, -32985.94450783068, 0.062, -0.002, 1.028, 192.0, 0.0, 0.0, 0.0, 0.0, 0.0, 0.0, 0.0, 0.0, 0.0, 1.747687265710885E9, 0.0, 2025-05-19 22:41:05.710
82.0, 19381.13056196339, 16761.59551877922, 46618.787541244936, 27902.084934960003, 29020.901503670397, -6272.86061917074, 9902.560401268054, -618.8527487340866, 0.0, 0.0, 19066.909738410683, -7063.888855444057, 5800.836479763566, -4529.245737701147, -28114.784135196704, -32957.22251620561, 0.062, -0.002, 1.028, 192.0, 0.0, 0.0, 0.0, 0.0, 0.0, 0.0, 0.0, 0.0, 0.0, 1.747687265718918E9, 0.0, 2025-05-19 22:41:05.718
84.0, 19376.50375086114, 16754.93469893154, 46608.7516079845, 27888.584481308997, 29011.759640188175, -6286.405776310656, 9824.865737541406, -629.6709930504553, 0.0, 0.0, 19053.074008592845, -7077.948102706445, 5797.617828562001, -4536.130074993382, -28135.884181962512, -32957.937772028185, 0.061, -0.002, 1.026, 192.0, 0.5, 112.0, 127.5, 120.0, 16.0, 0.0, 0.0, 0.0, 0.0, 1.747687265725934E9, 0.0, 2025-05-19 22:41:05.725
86.0, 19375.766143294113, 16763.540120546833, 46610.60680277429, 27893.412458111343, 29012.452544266293, -6292.597209524776, 9889.082299361504, -625.2006441593938, 0.0, 0.0, 19048.827177146337, -7077.92575096199, 5782.820973732588, -4559.487647949177, -28140.42158608694, -32988.87258635433, 0.061, -0.002, 1.026, 192.0, 0.0, 0.0, 0.0, 0.0, 0.0, 0.0, 0.0, 0.0, 0.0, 1.74768726573496E9, 0.0, 2025-05-19 22:41:05.734
88.0, 19377.59898633945, 16764.03185892485, 46613.51252955348, 27895.84879825697, 29012.40784077738, -6266.222151067514, 9857.700450146252, -635.0577634641843, 0.0, 0.0, 19054.996258616004, -7074.952968949434, 5798.467194851303, -4521.959069008716, -28116.818143942135, -32948.639446334775, 0.061, -0.002, 1.026, 192.0, 0.0, 0.0, 0.0, 0.0, 0.0, 0.0, 0.0, 0.0, 0.0, 1.747687265742965E9, 0.0, 2025-05-19 22:41:05.742
90.0, 19384.282157931586, 16762.22136762397, 46620.82154999037, 27894.57474882302, 28996.091067325007, -6282.024834397416, 9850.614947153921, -622.6525452914889, 0.0, 0.0, 19062.90877615318, -7076.15996315002, 5795.896744238943, -4555.062002547026, -28144.33314136662, -32981.13888277279, 0.061, -0.002, 1.026, 192.0, 0.0, 0.0, 0.0, 0.0, 0.0, 0.0, 0.0, 0.0, 0.0, 1.747687265749931E9, 0.0, 2025-05-19 22:41:05.749
92.0, 19378.44835262875, 16761.08142865675, 46616.64177377722, 27893.725382533717, 29019.225122836247, -6254.934520117584, 9892.502116263166, -627.5028738382905, 0.0, 0.0, 19064.16047384268, -7069.968529935901, 5798.422491362392, -4533.872548803395, -28116.438164286395, -32966.76671108803, 0.061, -0.002, 1.026, 192.0, 0.0, 0.0, 0.0, 0.0, 0.0, 0.0, 0.0, 0.0, 0.0, 1.747687265758021E9, 0.0, 2025-05-19 22:41:05.758
94.0, 19376.481399116685, 16747.69273372802, 46604.236555604526, 27874.771103235616, 29012.78782043312, -6256.476790485, 9822.831728795974, -629.8274552616424, 0.0, 0.0, 19052.80578765938, -7086.4194138550065, 5792.566334315102, -4536.487702904667, -28131.972626682837, -32964.28566745349, 0.0595, 0.0, 1.0270000000000001, 192.0, 0.5, 104.0, 0.0, 8.0, 16.0, 16.0, 0.0, 0.0, 0.0, 1.747687265767039E9, 0.0, 2025-05-19 22:41:05.767
96.0, 19382.806942797535, 16755.85112045421, 46605.68941899412, 27885.119960918422, 29014.41949777836, -6308.221078899036, 9891.451584273766, -620.842053990609, 0.0, 0.0, 19045.67558117814, -7095.605980826138, 5769.052299148118, -4573.166915555825, -28153.318542637655, -33003.512978972554, 0.0595, 0.0, 1.0270000000000001, 192.0, 0.0, 0.0, 0.0, 0.0, 0.0, 0.0, 0.0, 0.0, 0.0, 1.747687265775061E9, 0.0, 2025-05-19 22:41:05.775
98.0, 19368.59123332396, 16748.050361639307, 46607.097578894805, 27890.640841798886, 29025.662425239378, -6280.594322752277, 9854.727668133697, -631.8167605181648, 0.0, 0.0, 19051.464682992064, -7079.982111451878, 5790.57702905858, -4523.568394609499, -28116.19229509739, -32951.25460043605, 0.0595, 0.0, 1.0270000000000001, 192.0, 0.0, 0.0, 0.0, 0.0, 0.0, 0.0, 0.0, 0.0, 0.0, 1.747687265782051E9, 0.0, 2025-05-19 22:41:05.782
100.0, 19370.669945558304, 16755.94052743203, 46603.27543059295, 27883.778856251105, 28996.26988128065, -6288.931523434106, 9851.553720421043, -623.5913185586118, 0.0, 0.0, 19046.368485256255, -7086.844096999657, 5778.708252752812, -4564.516790451621, -28151.23983040331, -32989.52078694353, 0.0595, 0.0, 1.0270000000000001, 192.0, 0.0, 0.0, 0.0, 0.0, 0.0, 0.0, 0.0, 0.0, 0.0, 1.747687265790075E9, 0.0, 2025-05-19 22:41:05.790
102.0, 19367.004259467634, 16755.918175687573, 46613.736046998034, 27892.94307147778, 29019.023957136153, -6264.232845810991, 9893.262075574647, -628.6428128055111, 0.0, 0.0, 19051.844662647803, -7078.372785851096, 5782.820973732588, -4541.941528551761, -28123.70248123437, -32972.01937103503, 0.0595, 0.0, 1.0270000000000001, 192.0, 0.0, 0.0, 0.0, 0.0, 0.0, 0.0, 0.0, 0.0, 0.0, 1.74768726579912E9, 0.0, 2025-05-19 22:41:05.799
104.0, 19365.46198910022, 16756.11934138767, 46606.98582017253, 27886.12578941891, 29003.86947439545, -6247.37963049169, 9827.279725942579, -634.3425076416145, 0.0, 0.0, 19043.842738132804, -7088.431070855984, 5785.100851667029, -4543.729668108185, -28140.466289575852, -32968.063112266434, 0.057749999999999996, 0.002, 1.0255, 192.0, 0.5, 96.0, 0.0, 16.0, 16.0, 0.0, 0.0, 0.0, 0.0, 1.747687265806119E9, 0.0, 2025-05-19 22:41:05.806
106.0, 19384.93035852079, 16772.100838673217, 46622.22970989105, 27900.006222725657, 29010.619701220956, -6273.642930226676, 9886.601255726964, -617.2210713888493, 0.0, 0.0, 19056.315011538867, -7074.662396271515, 5784.117374910996, -4560.158200282836, -28141.203897142877, -32989.90076659927, 0.057749999999999996, 0.002, 1.0255, 192.0, 0.0, 0.0, 0.0, 0.0, 0.0, 0.0, 0.0, 0.0, 0.0, 1.74768726581417E9, 0.0, 2025-05-19 22:41:05.814
108.0, 19377.77780029509, 16762.780161235354, 46617.82641623335, 27898.933338991803, 29027.517620029168, -6255.739182917975, 9860.963804836727, -627.681687793933, 0.0, 0.0, 19065.72509595455, -7067.621596768093, 5805.4409391213585, -4512.303115404024, -28106.46928625933, -32944.61613233282, 0.057749999999999996, 0.002, 1.0255, 192.0, 0.0, 0.0, 0.0, 0.0, 0.0, 0.0, 0.0, 0.0, 0.0, 1.747687265822193E9, 0.0, 2025-05-19 22:41:05.822
110.0, 19382.292852675066, 16766.73642000394, 46610.69620975211, 27892.69720228877, 28998.281538281626, -6265.6410057116755, 9850.078505286992, -620.6855917794218, 0.0, 0.0, 19053.00695335948, -7078.082213173177, 5788.677130779878, -4558.3253572375015, -28154.19026067141, -32984.491644441085, 0.057749999999999996, 0.002, 1.0255, 192.0, 0.0, 0.0, 0.0, 0.0, 0.0, 0.0, 0.0, 0.0, 0.0, 1.747687265831168E9, 0.0, 2025-05-19 22:41:05.831
112.0, 19387.903140533344, 16773.352536362712, 46622.6543930357, 27900.587368081495, 29030.780974719644, -6254.263967783924, 9883.293197547579, -621.8702342355531, 0.0, 0.0, 19057.678467950638, -7067.040451412256, 5795.561468072113, -4535.794798826551, -28123.411908556453, -32966.27497271001, 0.057749999999999996, 0.002, 1.0255, 192.0, 0.0, 0.0, 0.0, 0.0, 0.0, 0.0, 0.0, 0.0, 0.0, 1.747687265838231E9, 0.0, 2025-05-19 22:41:05.838
114.0, 19375.386163638374, 16761.439056568033, 46611.724389997056, 27885.298774874067, 29018.487515269222, -6245.390325235167, 9820.060112483516, -622.0490481911955, 0.0, 0.0, 19056.53852898342, -7080.809125996724, 5797.170793672895, -4536.75592383813, -28131.436184815906, -32963.54805988647, 0.058875, -0.001, 1.02475, 192.0, 0.5, 112.0, 127.5, 112.0, 16.0, 0.0, 0.0, 0.0, 0.0, 1.747687265846216E9, 0.0, 2025-05-19 22:41:05.846
116.0, 19382.73988756417, 16770.200940394516, 46616.08298016584, 27891.1325801769, 29012.94428264431, -6277.263912828435, 9894.111441863948, -616.7069812663772, 0.0, 0.0, 19056.873805150248, -7078.998634695845, 5783.715043510801, -4560.694642149763, -28138.968722697347, -32993.29823175648, 0.058875, -0.001, 1.02475, 192.0, 0.0, 0.0, 0.0, 0.0, 0.0, 0.0, 0.0, 0.0, 0.0, 1.747687265854298E9, 0.0, 2025-05-19 22:41:05.854
118.0, 19378.537759606574, 16764.724763002963, 46604.97416317155, 27887.55630106405, 29013.614834977965, -6245.658546168631, 9856.269938501113, -634.9013012529971, 0.0, 0.0, 19051.934069625626, -7076.852867228135, 5797.461366350814, -4524.7530370656295, -28115.76761195274, -32956.529612127495, 0.058875, -0.001, 1.02475, 192.0, 0.0, 0.0, 0.0, 0.0, 0.0, 0.0, 0.0, 0.0, 0.0, 1.747687265862282E9, 0.0, 2025-05-19 22:41:05.862
120.0, 19391.904102790846, 16776.70529803101, 46607.231689361535, 27888.964460964737, 28998.862683637464, -6244.138627545671, 9846.412819196323, -618.6739347784442, 0.0, 0.0, 19046.882575378728, -7082.060823686222, 5787.805412746122, -4570.57411319901, -28159.174699684943, -32995.91338585775, 0.058875, -0.001, 1.02475, 192.0, 0.0, 0.0, 0.0, 0.0, 0.0, 0.0, 0.0, 0.0, 0.0, 1.747687265870317E9, 0.0, 2025-05-19 22:41:05.870
122.0, 19395.301567948052, 16780.14746667713, 46617.513491810976, 27897.0334407131, 29025.483611283737, -6222.166862746104, 9891.228066829213, -617.2434231333045, 0.0, 0.0, 19063.132293597733, -7069.253274113331, 5801.059997208118, -4543.528502408088, -28127.94931268088, -32975.081560025406, 0.058875, -0.001, 1.02475, 192.0, 0.0, 0.0, 0.0, 0.0, 0.0, 0.0, 0.0, 0.0, 0.0, 1.747687265878344E9, 0.0, 2025-05-19 22:41:05.878
124.0, 19386.472628888205, 16779.94630097703, 46618.005230188995, 27895.80409476806, 29017.191114090816, -6247.647851425154, 9817.333199659968, -618.9198039674526, 0.0, 0.0, 19059.3995522737, -7073.500105559839, 5805.642104821456, -4534.744266837152, -28131.592647027093, -32961.11171974084, 0.0594375, -0.0045000000000000005, 1.025375, 192.0, 0.5, 112.0, 127.5, 96.0, 16.0, 8.0, 0.0, 0.0, 0.0, 1.74768726588743E9, 0.0, 2025-05-19 22:41:05.887
126.0, 19391.41236441283, 16781.265053899893, 46621.425047090655, 27901.32497564852, 29019.470992025257, -6272.078308114804, 9875.224217799214, -621.7584755132766, 0.0, 0.0, 19062.193520330613, -7069.92382644699, 5791.895781981442, -4559.197075271258, -28143.886106477512, -32989.252566010065, 0.0594375, -0.0045000000000000005, 1.025375, 192.0, 0.0, 0.0, 0.0, 0.0, 0.0, 0.0, 0.0, 0.0, 0.0, 1.747687265894432E9, 0.0, 2025-05-19 22:41:05.894
128.0, 19394.966291781224, 16781.823847511274, 46618.72048601157, 27900.833237270504, 29029.41751830787, -6222.502138912933, 9843.440037183767, -636.4659233648686, 0.0, 0.0, 19062.394686030708, -7064.268835099797, 5808.950163000842, -4517.13109220637, -28114.068879374136, -32949.28764692398, 0.0594375, -0.0045000000000000005, 1.025375, 192.0, 0.0, 0.0, 0.0, 0.0, 0.0, 0.0, 0.0, 0.0, 0.0, 1.747687265902438E9, 0.0, 2025-05-19 22:41:05.902
130.0, 19397.670852860316, 16789.199923181524, 46621.82737849085, 27903.895426260882, 29014.531256500635, -6267.719717946019, 9839.215557481713, -617.6904580224107, 0.0, 0.0, 19056.62793596124, -7068.090983401655, 5798.735415784767, -4554.816133358018, -28150.368112369553, -32983.82109210743, 0.0594375, -0.0045000000000000005, 1.025375, 192.0, 0.0, 0.0, 0.0, 0.0, 0.0, 0.0, 0.0, 0.0, 0.0, 1.747687265910469E9, 0.0, 2025-05-19 22:41:05.910
132.0, 19390.764163823624, 16781.868551000185, 46625.47071283707, 27906.935263506803, 29031.943265431317, -6250.419467737612, 9889.19405808378, -616.9081469664749, 0.0, 0.0, 19071.380087301743, -7054.970509406389, 5811.364151402015, -4523.590746353954, -28112.526609006716, -32959.16711797322, 0.0594375, -0.0045000000000000005, 1.025375, 192.0, 0.0, 0.0, 0.0, 0.0, 0.0, 0.0, 0.0, 0.0, 0.0, 1.747687265918449E9, 0.0, 2025-05-19 22:41:05.918
134.0, 19375.900253760847, 16768.077524671262, 46605.354142827295, 27888.740943520184, 28998.259186537172, -6231.33107797278, 9842.322449961, -619.7244667678436, 0.0, 0.0, 19050.838834147315, -7078.886875973568, 5799.070691951596, -4526.98821151116, -28130.9891499268, -32959.122414484315, 0.05871875, -0.00625, 1.0256875, 192.0, 0.5, 104.0, 127.5, 96.0, 16.0, 8.0, 0.0, 0.0, 0.0, 1.747687265926491E9, 0.0, 2025-05-19 22:41:05.926
136.0, 19389.221893456208, 16783.32141438978, 46620.530977312446, 27903.80601928306, 29020.342710059012, -6253.861636383729, 9890.445755773277, -609.9791061853298, 0.0, 0.0, 19047.86605213476, -7076.472887572395, 5782.642159776946, -4553.653842646342, -28145.89776347849, -32984.58105141891, 0.05871875, -0.00625, 1.0256875, 192.0, 0.0, 0.0, 0.0, 0.0, 0.0, 0.0, 0.0, 0.0, 0.0, 1.747687265934508E9, 0.0, 2025-05-19 22:41:05.934
138.0, 19386.69614633276, 16776.548835819824, 46611.67968650814, 27895.84879825697, 29028.009358407184, -6237.298993742346, 9865.344746749968, -620.774998757243, 0.0, 0.0, 19059.77953192944, -7065.095849644644, 5805.664456565912, -4508.302153146524, -28104.591739725085, -32941.173963686706, 0.05871875, -0.00625, 1.0256875, 192.0, 0.0, 0.0, 0.0, 0.0, 0.0, 0.0, 0.0, 0.0, 0.0, 1.747687265943532E9, 0.0, 2025-05-19 22:41:05.943
140.0, 19382.449314886253, 16775.498303830424, 46604.39301781572, 27885.90227197436, 29004.204750562283, -6260.902435887151, 9845.94343256276, -614.7400277543102, 0.0, 0.0, 19041.629915431728, -7086.7099865329255, 5781.658683020912, -4564.114459051426, -28159.398217129496, -32993.96878409014, 0.05871875, -0.00625, 1.0256875, 192.0, 0.0, 0.0, 0.0, 0.0, 0.0, 0.0, 0.0, 0.0, 0.0, 1.747687265949535E9, 0.0, 2025-05-19 22:41:05.949
142.0, 19385.22093119871, 16773.79957125182, 46612.03731441943, 27900.81088552605, 29017.07935536854, -6223.5526709023325, 9889.976369139717, -616.1034841660838, 0.0, 0.0, 19054.169244071156, -7068.627425268582, 5795.360302372015, -4530.475083646189, -28116.348757308577, -32963.324542441915, 0.05871875, -0.00625, 1.0256875, 192.0, 0.0, 0.0, 0.0, 0.0, 0.0, 0.0, 0.0, 0.0, 0.0, 1.747687265958578E9, 0.0, 2025-05-19 22:41:05.958
144.0, 19377.464875872716, 16762.064905412783, 46601.286125336424, 27889.500902831664, 29000.82963714953, -6263.115258588226, 9837.047438269548, -613.421274831447, 0.0, 0.0, 19040.780549142426, -7081.166753908009, 5792.141651170451, -4534.565452881509, -28139.281647119722, -32958.362455172835, 0.057359375000000004, -0.007125, 1.02684375, 192.0, 0.5, 96.0, 127.5, 96.0, 16.0, 16.0, 0.0, 0.0, 0.0, 1.747687265966609E9, 0.0, 2025-05-19 22:41:05.966
146.0, 19386.31616667702, 16771.45263808401, 46609.01982891796, 27896.00526046816, 29006.015241863162, -6259.181351564092, 9902.67215999033, -606.4698823058466, 0.0, 0.0, 19046.703761423083, -7077.344605606152, 5783.200953388328, -4557.453639203744, -28143.819051244147, -32986.07861829741, 0.057359375000000004, -0.007125, 1.02684375, 192.0, 0.0, 0.0, 0.0, 0.0, 0.0, 0.0, 0.0, 0.0, 0.0, 1.747687265973641E9, 0.0, 2025-05-19 22:41:05.973
148.0, 19377.01784098361, 16765.440018825535, 46599.632096246736, 27891.37844936591, 29021.3485385595, -6235.37674371919, 9852.939528577272, -624.6865540369217, 0.0, 0.0, 19044.222717788543, -7077.9704544509, 5793.706273282322, -4524.37305740989, -28124.864771946046, -32951.83574579188, 0.057359375000000004, -0.007125, 1.02684375, 192.0, 0.0, 0.0, 0.0, 0.0, 0.0, 0.0, 0.0, 0.0, 0.0, 1.747687265982668E9, 0.0, 2025-05-19 22:41:05.982
150.0, 19382.650480586348, 16766.959937448497, 46608.93042194014, 27893.94889997827, 28999.063849337563, -6227.687743626564, 9851.933700076783, -601.3736845700365, 0.0, 0.0, 19040.847604375795, -7079.758594007325, 5786.1290319119735, -4556.4254589588, -28149.764615269258, -32982.99407756258, 0.057359375000000004, -0.007125, 1.02684375, 192.0, 0.0, 0.0, 0.0, 0.0, 0.0, 0.0, 0.0, 0.0, 0.0, 1.747687265990698E9, 0.0, 2025-05-19 22:41:05.990
152.0, 19388.394878911364, 16772.346707862223, 46617.11116041079, 27896.832275013006, 29024.27661708315, -6243.557482189833, 9897.91123842135, -610.4484928188912, 0.0, 0.0, 19054.191595815613, -7074.774154993792, 5791.560505814613, -4533.2690517031015, -28121.556713766662, -32967.034932021495, 0.057359375000000004, -0.007125, 1.02684375, 192.0, 0.0, 0.0, 0.0, 0.0, 0.0, 0.0, 0.0, 0.0, 0.0, 1.747687265997705E9, 0.0, 2025-05-19 22:41:05.997
154.0, 19382.203445697243, 16764.814169980786, 46610.40563707419, 27886.036382441092, 29014.620663478454, -6217.13772024366, 9828.46436839871, -621.3114406241705, 0.0, 0.0, 19048.380142257232, -7085.815916754713, 5793.370997115493, -4536.331240693479, -28134.297208106185, -32966.319676198924, 0.05767968750000001, -0.0075625, 1.028421875, 192.0, 0.5, 104.0, 127.5, 96.0, 16.0, 24.0, 0.0, 0.0, 0.0, 1.747687266005762E9, 0.0, 2025-05-19 22:41:06.005
156.0, 19385.042117243065, 16774.537178818846, 46627.88470123824, 27907.225836184723, 29018.26399782467, -6277.308616317346, 9900.459337289256, -608.3027253511817, 0.0, 0.0, 19061.165340085667, -7070.482620058373, 5790.912305225409, -4549.764639111118, -28133.0902139056, -32983.4858159406, 0.05767968750000001, -0.0075625, 1.028421875, 192.0, 0.0, 0.0, 0.0, 0.0, 0.0, 0.0, 0.0, 0.0, 0.0, 1.747687266014775E9, 0.0, 2025-05-19 22:41:06.014
158.0, 19381.398782896853, 16778.538141076344, 46616.59707028831, 27903.023708227123, 29027.919951429365, -6240.584700177276, 9859.667403658319, -618.808045245176, 0.0, 0.0, 19056.404418516686, -7067.219265367898, 5803.697503053845, -4514.493586360644, -28112.638367728996, -32947.164231200724, 0.05767968750000001, -0.0075625, 1.028421875, 192.0, 0.0, 0.0, 0.0, 0.0, 0.0, 0.0, 0.0, 0.0, 0.0, 1.747687266022833E9, 0.0, 2025-05-19 22:41:06.022
160.0, 19388.372527166906, 16782.963786478496, 46617.871119722266, 27907.248187929177, 29001.16491331636, -6237.701325142542, 9858.818037369017, -597.2833153347153, 0.0, 0.0, 19059.511310995975, -7064.402945566529, 5801.708197797322, -4548.244720488157, -28145.204859400375, -32974.83569083639, 0.05767968750000001, -0.0075625, 1.028421875, 192.0, 0.0, 0.0, 0.0, 0.0, 0.0, 0.0, 0.0, 0.0, 0.0, 1.747687266029872E9, 0.0, 2025-05-19 22:41:06.029
162.0, 19393.669890602814, 16784.6625190571, 46620.70979126809, 27913.32786242102, 29022.443774037813, -6209.985162017962, 9892.703281963264, -611.1413968970057, 0.0, 0.0, 19066.485055266032, -7053.227073338875, 5810.559488601624, -4526.1611969663145, -28119.52270502123, -32956.06022549394, 0.05767968750000001, -0.0075625, 1.028421875, 192.0, 0.0, 0.0, 0.0, 0.0, 0.0, 0.0, 0.0, 0.0, 0.0, 1.747687266037896E9, 0.0, 2025-05-19 22:41:06.037
164.0, 19385.511503876627, 16773.84427474073, 46610.718561496564, 27901.503789604165, 29007.22223606375, -6248.51956945891, 9824.239888696658, -623.3901528585139, 0.0, 0.0, 19059.287793551423, -7064.000614166333, 5812.928773513887, -4525.714162077208, -28131.212667371354, -32951.05343473595, 0.060839843750000004, -0.00678125, 1.0312109375, 192.0, 1.0, 0.0, 127.5, 104.0, 16.0, 40.0, 0.0, 0.0, 0.0, 1.747687266046919E9, 0.0, 2025-05-19 22:41:06.046
166.0, 19391.41236441283, 16777.822885253776, 46618.54167205592, 27909.2374931857, 29009.010375620175, -6252.85580788324, 9892.993854641183, -611.0966934080951, 0.0, 0.0, 19060.606546474286, -7063.73239323287, 5798.646008806945, -4547.440057687767, -28135.638312773506, -32979.01546704954, 0.060839843750000004, -0.00678125, 1.0312109375, 192.0, 0.0, 0.0, 0.0, 0.0, 0.0, 0.0, 0.0, 0.0, 0.0, 1.747687266053984E9, 0.0, 2025-05-19 22:41:06.053
168.0, 19385.064468987523, 16775.252434641414, 46620.866253479275, 27906.2870629176, 29033.217314865273, -6211.393321918646, 9849.810284353529, -621.6690685354554, 0.0, 0.0, 19053.610450459775, -7067.331024090175, 5804.569221087601, -4509.3750368803785, -28110.917283405935, -32943.118565454315, 0.060839843750000004, -0.00678125, 1.0312109375, 192.0, 0.0, 0.0, 0.0, 0.0, 0.0, 0.0, 0.0, 0.0, 0.0, 1.74768726606196E9, 0.0, 2025-05-19 22:41:06.061
170.0, 19396.150934237354, 16786.22714116897, 46625.828340748354, 27905.2365309282, 29015.671195467854, -6241.8587496112295, 9848.916214575316, -611.0296381747291, 0.0, 0.0, 19058.281965050934, -7067.532189790272, 5799.405968118425, -4540.734534351174, -28134.990112184303, -32974.656876880756, 0.060839843750000004, -0.00678125, 1.0312109375, 192.0, 0.0, 0.0, 0.0, 0.0, 0.0, 0.0, 0.0, 0.0, 0.0, 1.747687266070042E9, 0.0, 2025-05-19 22:41:06.070
172.0, 19389.467762645218, 16782.80732426731, 46611.7020382526, 27899.223911669724, 29022.04144263762, -6198.8986967681285, 9895.76547095364, -622.0713999356509, 0.0, 0.0, 19066.708572710584, -7058.435029796962, 5806.513822855213, -4524.909499276817, -28115.23117008581, -32963.10102499736, 0.060839843750000004, -0.00678125, 1.0312109375, 192.0, 0.0, 0.0, 0.0, 0.0, 0.0, 0.0, 0.0, 0.0, 0.0, 1.747687266079176E9, 0.0, 2025-05-19 22:41:06.079
174.0, 19385.869131787913, 16779.32045213228, 46611.07618940785, 27893.457161600254, 29016.20763733478, -6247.7372584029745, 9823.524632874089, -623.2336906473269, 0.0, 0.0, 19052.246994048, -7077.076384672688, 5802.579915831079, -4536.353592437934, -28140.153365153477, -32967.459615166146, 0.061419921875000005, -0.003390625, 1.0306054687500001, 192.0, 0.5, 120.0, 0.0, 0.0, 16.0, 24.0, 0.0, 0.0, 0.0, 1.747687266086078E9, 0.0, 2025-05-19 22:41:06.086
176.0, 19405.002225041655, 16794.31847266179, 46633.76321002999, 27910.42213564183, 29028.054061896095, -6238.573043176299, 9879.627511456909, -616.5281673107347, 0.0, 0.0, 19066.283889565933, -7060.759611220314, 5804.546869343147, -4549.786990855574, -28134.543077295195, -32986.12332178633, 0.061419921875000005, -0.003390625, 1.0306054687500001, 192.0, 0.0, 0.0, 0.0, 0.0, 0.0, 0.0, 0.0, 0.0, 0.0, 1.747687266094121E9, 0.0, 2025-05-19 22:41:06.094
178.0, 19392.440544657773, 16785.981271979963, 46625.22484364806, 27906.063545473047, 29033.910218943387, -6213.516737641899, 9857.342822234968, -628.3969436165028, 0.0, 0.0, 19069.882520423238, -7060.804314709225, 5818.963744516819, -4509.911478747306, -28109.710289205348, -32946.98541724508, 0.061419921875000005, -0.003390625, 1.0306054687500001, 192.0, 0.0, 0.0, 0.0, 0.0, 0.0, 0.0, 0.0, 0.0, 0.0, 1.747687266102184E9, 0.0, 2025-05-19 22:41:06.102
180.0, 19400.88950406188, 16783.924911490074, 46632.37740187376, 27909.75158330817, 29021.303835070594, -6241.635232166676, 9845.339935462467, -611.2978591081928, 0.0, 0.0, 19065.72509595455, -7061.653680998526, 5808.167851944906, -4543.4167436858115, -28139.013426186255, -32976.55677515946, 0.061419921875000005, -0.003390625, 1.0306054687500001, 192.0, 0.0, 0.0, 0.0, 0.0, 0.0, 0.0, 0.0, 0.0, 0.0, 1.747687266110225E9, 0.0, 2025-05-19 22:41:06.110
182.0, 19396.68737610428, 16783.880208001163, 46627.37061111577, 27910.645653086383, 29038.738195745733, -6223.865595324707, 9896.771299454129, -613.5106818092682, 0.0, 0.0, 19075.44810479261, -7053.294128572242, 5813.979305503286, -4516.058208472516, -28104.85996065855, -32956.30609468294, 0.061419921875000005, -0.003390625, 1.0306054687500001, 192.0, 0.0, 0.0, 0.0, 0.0, 0.0, 0.0, 0.0, 0.0, 0.0, 1.747687266118237E9, 0.0, 2025-05-19 22:41:06.118
184.0, 19380.862341029926, 16769.79860899432, 46601.286125336424, 27890.126751676413, 29011.11143959897, -6206.520641627389, 9834.074656256993, -616.8857952220196, 0.0, 0.0, 19051.352924269788, -7077.009329439322, 5801.2164594193055, -4526.362362666412, -28133.00080692778, -32958.205992961644, 0.0627099609375, -0.0046953125, 1.032302734375, 192.0, 1.0, 0.0, 127.5, 104.0, 16.0, 40.0, 0.0, 0.0, 0.0, 1.747687266126323E9, 0.0, 2025-05-19 22:41:06.126
186.0, 19400.46482091723, 16788.015280725394, 46622.207358146596, 27908.052850729568, 29029.03753865213, -6193.780147287864, 9898.313569821545, -600.6137252585561, 0.0, 0.0, 19053.141063826213, -7071.8013729812355, 5790.755843014222, -4551.2845577340795, -28143.014388443757, -32986.05626655296, 0.0627099609375, -0.0046953125, 1.032302734375, 192.0, 0.0, 0.0, 0.0, 0.0, 0.0, 0.0, 0.0, 0.0, 0.0, 1.747687266135269E9, 0.0, 2025-05-19 22:41:06.135
188.0, 19389.780687067592, 16779.789838765842, 46619.27927962295, 27907.89638851838, 29034.424309065857, -6217.003609776928, 9865.791781639075, -603.742969482299, 0.0, 0.0, 19061.0982848523, -7061.184294364964, 5811.565317102113, -4500.724911776175, -28101.350736779063, -32935.13899268377, 0.0627099609375, -0.0046953125, 1.032302734375, 192.0, 0.0, 0.0, 0.0, 0.0, 0.0, 0.0, 0.0, 0.0, 0.0, 1.747687266141396E9, 0.0, 2025-05-19 22:41:06.141
190.0, 19382.248149186154, 16767.474027570966, 46610.69620975211, 27890.52908307661, 29010.46323900977, -6260.969491120517, 9863.690717660274, -604.0335421602181, 0.0, 0.0, 19047.128444567734, -7077.769288750803, 5787.604247046023, -4545.696621620253, -28144.556658811172, -32975.72976061461, 0.0627099609375, -0.0046953125, 1.032302734375, 192.0, 0.0, 0.0, 0.0, 0.0, 0.0, 0.0, 0.0, 0.0, 0.0, 1.74768726615029E9, 0.0, 2025-05-19 22:41:06.150
192.0, 19367.719515290202, 16752.677172741554, 46601.97902941454, 27882.728324261705, 29024.5001345277, -6232.80629310683, 9912.261058361657, -612.0578184196733, 0.0, 0.0, 19041.607563687274, -7083.78190800928, 5777.590665530046, -4533.313755192013, -28124.976530668322, -32972.80168209096, 0.0627099609375, -0.0046953125, 1.032302734375, 192.0, 0.0, 0.0, 0.0, 0.0, 0.0, 0.0, 0.0, 0.0, 0.0, 1.747687266158416E9, 0.0, 2025-05-19 22:41:06.158
194.0, 19368.613585068415, 16755.44878905401, 46599.207413102085, 27882.437751583788, 29017.526390257644, -6246.351450246746, 9834.097008001449, -617.131664411028, 0.0, 0.0, 19036.690179907106, -7094.30957964773, 5779.155287641917, -4534.006659270127, -28135.839478473605, -32966.453786665654, 0.06335498046875, -0.00434765625, 1.0361513671875, 192.0, 1.0, 0.0, 127.5, 112.0, 16.0, 64.0, 0.0, 0.0, 0.0, 1.747687266167439E9, 0.0, 2025-05-19 22:41:06.167
196.0, 19388.64074810037, 16771.497341572922, 46608.99747717351, 27896.072315701524, 29025.774183961654, -6245.367973490712, 9898.492383777188, -605.2405363608046, 0.0, 0.0, 19040.66879042015, -7083.334873120174, 5776.517781796191, -4559.532351438088, -28147.685903034915, -32991.95712708916, 0.06335498046875, -0.00434765625, 1.0361513671875, 192.0, 0.0, 0.0, 0.0, 0.0, 0.0, 0.0, 0.0, 0.0, 0.0, 1.747687266173422E9, 0.0, 2025-05-19 22:41:06.173
198.0, 19388.05960274453, 16776.16885616408, 46603.096616637304, 27893.255995900156, 29024.544838016613, -6206.185365460559, 9872.921988120317, -616.6175742885559, 0.0, 0.0, 19046.346133511797, -7074.68474801597, 5798.713064040311, -4516.192318939247, -28118.42746954292, -32948.41592889022, 0.06335498046875, -0.00434765625, 1.0361513671875, 192.0, 0.0, 0.0, 0.0, 0.0, 0.0, 0.0, 0.0, 0.0, 0.0, 1.747687266182478E9, 0.0, 2025-05-19 22:41:06.182
200.0, 19377.509579361627, 16759.337992589237, 46614.428951076145, 27900.833237270504, 29010.105611098483, -6236.024944308394, 9859.3768309804, -609.0850364071175, 0.0, 0.0, 19046.994334101004, -7079.333910862674, 5788.855944735521, -4551.955110067739, -28152.268010648255, -32980.378923461314, 0.06335498046875, -0.00434765625, 1.0361513671875, 192.0, 0.0, 0.0, 0.0, 0.0, 0.0, 0.0, 0.0, 0.0, 0.0, 1.747687266190474E9, 0.0, 2025-05-19 22:41:06.190
202.0, 19392.015861513122, 16775.945338719528, 46626.253023893005, 27914.847781043984, 29040.83925972453, -6199.971580501983, 9900.414633800345, -611.8566527195755, 0.0, 0.0, 19062.573499986353, -7062.368936821096, 5802.378750130982, -4519.187452696258, -28106.983376381802, -32957.870716794816, 0.06335498046875, -0.00434765625, 1.0361513671875, 192.0, 0.0, 0.0, 0.0, 0.0, 0.0, 0.0, 0.0, 0.0, 0.0, 1.747687266197513E9, 0.0, 2025-05-19 22:41:06.197
204.0, 19378.78362879558, 16770.782085750354, 46610.8526719633, 27903.828371027517, 29015.89471291241, -6231.442836695056, 9838.120322003404, -614.9411934544079, 0.0, 0.0, 19055.15272082719, -7065.297015344741, 5808.301962411638, -4517.4663683732, -28120.260312588252, -32947.14187945627, 0.06335498046875, -0.00434765625, 1.0361513671875, 192.0, 0.0, 0.0, 0.0, 0.0, 0.0, 0.0, 0.0, 0.0, 0.0, 1.747687266206536E9, 0.0, 2025-05-19 22:41:06.206
206.0, 19391.16649522382, 16779.70043178802, 46628.93523322764, 27921.10626949147, 29026.243570595216, -6232.6498308956425, 9903.789747213095, -601.3289810811259, 0.0, 0.0, 19054.795092915905, -7062.905378688023, 5793.86273549351, -4549.161142010826, -28138.52168780824, -32980.60244090587, 0.058, -0.004, 1.04, 192.0, 0.5, 104.0, 127.5, 112.0, 16.0, 64.0, 0.0, 0.0, 0.0, 1.747687266214586E9, 0.0, 2025-05-19 22:41:06.214
208.0, 19386.8749602884, 16774.447771841023, 46636.84775076482, 27922.872057303437, 29045.108442915494, -6152.74234446792, 9865.14358104987, -613.5553852981789, 0.0, 0.0, 19073.34704081381, -7050.053125626222, 5821.489491640269, -4495.963990207194, -28095.069896587123, -32928.7240420251, 0.058, -0.004, 1.04, 192.0, 0.0, 0.0, 0.0, 0.0, 0.0, 0.0, 0.0, 0.0, 0.0, 1.747687266222601E9, 0.0, 2025-05-19 22:41:06.222
210.0, 19392.105268490945, 16780.75096377742, 46631.37157337327, 27918.42406015683, 29023.382547304936, -6233.052162295838, 9866.596444439465, -598.4903095353019, 0.0, 0.0, 19064.428694776143, -7059.038526897255, 5807.944334500353, -4532.75496158063, -28130.430356315417, -32961.290533696476, 0.058, -0.004, 1.04, 192.0, 0.0, 0.0, 0.0, 0.0, 0.0, 0.0, 0.0, 0.0, 0.0, 1.747687266229605E9, 0.0, 2025-05-19 22:41:06.229
212.0, 19393.334614435986, 16784.461353357, 46624.7554570145, 27919.318129935044, 29029.819849708063, -6218.724694099987, 9909.087110649003, -613.5106818092682, 0.0, 0.0, 19059.53366274043, -7052.042430882744, 5807.854927522532, -4517.3546096509235, -28115.208818341354, -32949.60057134635, 0.058, -0.004, 1.04, 192.0, 0.0, 0.0, 0.0, 0.0, 0.0, 0.0, 0.0, 0.0, 0.0, 1.747687266238672E9, 0.0, 2025-05-19 22:41:06.238
214.0, 19387.590216110973, 16780.236873654947, 46624.5542913144, 27914.71367057725, 29025.662425239378, -6198.406958390112, 9836.645106869353, -609.9120509519638, 0.0, 0.0, 19064.2498808205, -7056.892759429546, 5816.48270088228, -4516.482891617166, -28123.434260300906, -32944.929056755194, 0.058, -0.004, 1.04, 192.0, 0.0, 0.0, 0.0, 0.0, 0.0, 0.0, 0.0, 0.0, 0.0, 1.747687266246716E9, 0.0, 2025-05-19 22:41:06.246
216.0, 19399.79426858357, 16789.155219692617, 46635.10431469731, 27921.53095263612, 29035.921875944365, -6234.437970452067, 9898.782956455107, -607.2968968506929, 0.0, 0.0, 19066.842683177314, -7051.7295064603695, 5806.603229833035, -4538.4323046722775, -28127.837553958605, -32971.773501846015, 0.058, 0.0, 1.034, 192.0, 0.5, 104.0, 0.0, 0.0, 16.0, 40.0, 0.0, 0.0, 0.0, 1.747687266254736E9, 0.0, 2025-05-19 22:41:06.254
218.0, 19396.821486571014, 16784.148428934626, 46629.69519253912, 27913.14904846538, 29047.70124527231, -6212.354446930224, 9857.164008279326, -622.3172691246592, 0.0, 0.0, 19072.20710184659, -7054.434067539462, 5823.05411375214, -4502.669513543787, -28100.389611767485, -32940.101079952845, 0.058, 0.0, 1.034, 192.0, 0.0, 0.0, 0.0, 0.0, 0.0, 0.0, 0.0, 0.0, 0.0, 1.747687266261793E9, 0.0, 2025-05-19 22:41:06.261
220.0, 19396.1285824929, 16787.009452224906, 46627.862349493786, 27911.62912984242, 29023.20373334929, -6230.369952961201, 9857.700450146252, -613.6224405315448, 0.0, 0.0, 19069.033154133936, -7058.993823408345, 5811.431206635381, -4543.774371597096, -28138.90166746398, -32975.93092631471, 0.058, 0.0, 1.034, 192.0, 0.0, 0.0, 0.0, 0.0, 0.0, 0.0, 0.0, 0.0, 0.0, 1.747687266270797E9, 0.0, 2025-05-19 22:41:06.270
222.0, 19395.74860283716, 16786.629472569166, 46628.778771016456, 27915.026594999625, 29044.192021392828, -6208.375836417179, 9895.76547095364, -620.4397225904135, 0.0, 0.0, 19070.329555312343, -7055.35048906213, 5811.274744424194, -4526.049438244037, -28116.035832886202, -32963.0786732529, 0.058, 0.0, 1.034, 192.0, 0.0, 0.0, 0.0, 0.0, 0.0, 0.0, 0.0, 0.0, 0.0, 1.747687266277804E9, 0.0, 2025-05-19 22:41:06.277
224.0, 19386.584387610485, 16784.61781556819, 46609.71273299608, 27904.767144294638, 29017.526390257644, -6199.971580501983, 9838.366191192412, -619.612708045567, 0.0, 0.0, 19059.511310995975, -7063.240654854853, 5812.951125258342, -4529.670420845798, -28136.95706569637, -32959.86002205134, 0.058, 0.0, 1.034, 192.0, 0.0, 0.0, 0.0, 0.0, 0.0, 0.0, 0.0, 0.0, 0.0, 1.747687266285846E9, 0.0, 2025-05-19 22:41:06.285
226.0, 19416.625132158417, 16802.543914621343, 46638.077096709865, 27929.95756029577, 29039.4534515683, -6204.08430148176, 9881.214485313236, -607.1851381284164, 0.0, 0.0, 19066.596813988308, -7049.762552948303, 5810.62654383499, -4545.696621620253, -28138.9910744418, -32979.01546704954, 0.056, 0.002, 1.032, 192.0, 0.5, 96.0, 0.0, 8.0, 16.0, 32.0, 0.0, 0.0, 0.0, 1.747687266293909E9, 0.0, 2025-05-19 22:41:06.293
228.0, 19409.22670474371, 16797.157144207617, 46637.67476530967, 27924.52608639313, 29049.60114355101, -6198.317551412291, 9854.99588906716, -614.874138221042, 0.0, 0.0, 19082.332442084844, -7041.738276688848, 5835.839311580577, -4497.618019296887, -28098.824989655615, -32931.38389961528, 0.056, 0.002, 1.032, 192.0, 0.0, 0.0, 0.0, 0.0, 0.0, 0.0, 0.0, 0.0, 0.0, 1.7476872663029E9, 0.0, 2025-05-19 22:41:06.302
230.0, 19400.576579639506, 16791.166876693595, 46628.84582624982, 27911.204446697768, 29021.013262392673, -6195.70239731102, 9866.149409550359, -597.0150944012516, 0.0, 0.0, 19072.72119196906, -7054.009384394812, 5817.130901471484, -4536.4206476713, -28134.788946484205, -32969.35951344485, 0.056, 0.002, 1.032, 192.0, 0.0, 0.0, 0.0, 0.0, 0.0, 0.0, 0.0, 0.0, 0.0, 1.747687266309954E9, 0.0, 2025-05-19 22:41:06.309
232.0, 19394.83218131449, 16784.997795223928, 46626.27537563746, 27907.96344375175, 29048.908239472898, -6209.985162017962, 9911.031712416616, -604.1005973935839, 0.0, 0.0, 19065.21100583208, -7062.547750776738, 5805.195069932351, -4522.540214364554, -28113.241864829288, -32963.79392907547, 0.056, 0.002, 1.032, 192.0, 0.0, 0.0, 0.0, 0.0, 0.0, 0.0, 0.0, 0.0, 0.0, 1.747687266317969E9, 0.0, 2025-05-19 22:41:06.317
234.0, 19391.680585346294, 16778.627548054166, 46617.088808666325, 27896.1840744238, 29038.760547490187, -6215.617801620699, 9840.936641804772, -611.163748641461, 0.0, 0.0, 19055.689162694118, -7074.371823593596, 5804.85979376552, -4522.897842275839, -28124.104812634567, -32959.94942902916, 0.056, 0.002, 1.032, 192.0, 0.0, 0.0, 0.0, 0.0, 0.0, 0.0, 0.0, 0.0, 0.0, 1.747687266326027E9, 0.0, 2025-05-19 22:41:06.326
236.0, 19394.720422592214, 16778.404030609614, 46609.6009742738, 27892.69720228877, 29030.713919486276, -6241.769342633408, 9904.10267163547, -605.5311090387237, 0.0, 0.0, 19052.336401025823, -7077.903399217535, 5787.313674368104, -4555.66549964732, -28140.086309920112, -32995.689868413196, 0.054, 0.0, 1.03, 192.0, 0.5, 88.0, 0.0, 0.0, 16.0, 24.0, 0.0, 0.0, 0.0, 1.747687266334029E9, 0.0, 2025-05-19 22:41:06.334
238.0, 19381.68935557477, 16764.009507180395, 46592.32307580985, 27882.527158561606, 29036.301855600104, -6217.584755132765, 9867.28934851758, -621.0432196907068, 0.0, 0.0, 19037.87482236324, -7086.4194138550065, 5789.079462180074, -4527.211728955714, -28126.764670224748, -32965.85028956536, 0.054, 0.0, 1.03, 192.0, 0.0, 0.0, 0.0, 0.0, 0.0, 0.0, 0.0, 0.0, 0.0, 1.747687266342094E9, 0.0, 2025-05-19 22:41:06.342
240.0, 19379.431829384786, 16772.95020496252, 46596.03346538943, 27881.767199250127, 29019.69450946981, -6232.515720428911, 9860.203845525248, -607.6545247619778, 0.0, 0.0, 19029.42586295913, -7099.271666916808, 5769.253464848217, -4572.362252755434, -28170.931717268435, -33003.781199906014, 0.054, 0.0, 1.03, 192.0, 0.0, 0.0, 0.0, 0.0, 0.0, 0.0, 0.0, 0.0, 0.0, 1.747687266350103E9, 0.0, 2025-05-19 22:41:06.350
242.0, 19387.344346921964, 16772.525521817868, 46620.307459867894, 27899.983870981203, 29058.161861677392, -6223.507967413422, 9895.586656997999, -609.0850364071175, 0.0, 0.0, 19054.05748534888, -7080.339739363163, 5787.2466191347385, -4534.766618581608, -28122.27196958923, -32975.50624317006, 0.054, 0.0, 1.03, 192.0, 0.0, 0.0, 0.0, 0.0, 0.0, 0.0, 0.0, 0.0, 0.0, 1.747687266358131E9, 0.0, 2025-05-19 22:41:06.358
244.0, 19377.286061917075, 16761.17083563457, 46601.33082882534, 27883.689449273283, 29031.205657864295, -6212.712074841509, 9832.28651670057, -617.9586789558743, 0.0, 0.0, 19041.182880542623, -7089.772175523302, 5788.163040657407, -4534.2078249702245, -28136.800603485182, -32967.593725632876, 0.054, 0.0, 1.03, 192.0, 0.0, 0.0, 0.0, 0.0, 0.0, 0.0, 0.0, 0.0, 0.0, 1.747687266365162E9, 0.0, 2025-05-19 22:41:06.365
246.0, 19389.803038812046, 16774.291309629836, 46613.35606734229, 27894.015955211635, 29033.798460221107, -6225.877252325685, 9897.821831443529, -603.810024715665, 0.0, 0.0, 19042.680447421128, -7087.425242355495, 5775.7131189958, -4561.186380527781, -28149.451690846887, -32998.908519614764, 0.06, -0.006, 1.028, 192.0, 0.5, 112.0, 127.5, 104.0, 16.0, 16.0, 0.0, 0.0, 0.0, 1.747687266374212E9, 0.0, 2025-05-19 22:41:06.374
248.0, 19384.997413754158, 16771.162065406093, 46610.673858007656, 27897.838103513495, 29046.918934216374, -6210.923935285085, 9865.769429894619, -615.969373699352, 0.0, 0.0, 19049.76595041346, -7076.629349783582, 5797.818994262099, -4515.521766605588, -28114.113582863043, -32954.316789426426, 0.06, -0.006, 1.028, 192.0, 0.0, 0.0, 0.0, 0.0, 0.0, 0.0, 0.0, 0.0, 0.0, 1.747687266382218E9, 0.0, 2025-05-19 22:41:06.382
250.0, 19387.858437044437, 16771.45263808401, 46610.875023707755, 27894.865321500936, 29027.294102584616, -6208.9346300285615, 9861.14261879237, -606.8722137060421, 0.0, 0.0, 19039.68531366412, -7083.960721964922, 5784.09502316654, -4555.71020313623, -28153.899687993493, -32990.57131893293, 0.06, -0.006, 1.028, 192.0, 0.0, 0.0, 0.0, 0.0, 0.0, 0.0, 0.0, 0.0, 0.0, 1.747687266390233E9, 0.0, 2025-05-19 22:41:06.390
252.0, 19390.74181207917, 16773.08431542925, 46620.06159067889, 27903.358984393955, 29046.628361538456, -6218.076493510783, 9903.163898368348, -611.4096178304694, 0.0, 0.0, 19054.884499893727, -7074.30476836023, 5795.941447727853, -4526.98821151116, -28118.829800943113, -32968.89012681128, 0.06, -0.006, 1.028, 192.0, 0.0, 0.0, 0.0, 0.0, 0.0, 0.0, 0.0, 0.0, 0.0, 1.747687266398265E9, 0.0, 2025-05-19 22:41:06.398
254.0, 19383.075163731, 16766.423495581566, 46608.97512542905, 27892.69720228877, 29033.977274176752, -6199.725711312975, 9833.225289967691, -617.2881266222151, 0.0, 0.0, 19047.44136899011, -7083.759556264825, 5798.400139617937, -4528.284612689568, -28135.61596102905, -32965.067978509425, 0.06, -0.006, 1.028, 192.0, 0.0, 0.0, 0.0, 0.0, 0.0, 0.0, 0.0, 0.0, 0.0, 1.747687266406313E9, 0.0, 2025-05-19 22:41:06.406
0.0, 19393.1781522248, 16775.945338719528, 46618.38520984474, 27899.96151923675, 29029.015186907673, -6224.290278469358, 9904.974389669227, -602.0889403926063, 0.0, 0.0, 19053.945726626604, -7078.5515998067385, 5790.912305225409, -4554.346746724456, -28145.853059989582, -32993.67821141222, 0.06, -0.004, 1.032, 192.0, 0.5, 112.0, 127.5, 112.0, 16.0, 32.0, 0.0, 0.0, 0.0, 1.74768726641434E9, 0.0, 2025-05-19 22:41:06.414
2.0, 19395.592140625973, 16772.905501473608, 46626.14126517073, 27905.61651058394, 29062.341637890535, -6172.143658655126, 9865.300043261057, -610.1579201409722, 0.0, 0.0, 19056.873805150248, -7074.975320693889, 5805.396235632448, -4513.957144493716, -28118.874504432024, -32952.059263236435, 0.06, -0.004, 1.032, 192.0, 0.0, 0.0, 0.0, 0.0, 0.0, 0.0, 0.0, 0.0, 0.0, 1.747687266421427E9, 0.0, 2025-05-19 22:41:06.421
4.0, 19402.610588384938, 16787.009452224906, 46628.01881170498, 27904.320109405533, 29053.04331219713, -6214.500214397934, 9853.073639044003, -603.3406380821035, 0.0, 0.0, 19060.00304937399, -7074.193009637954, 5799.070691951596, -4545.920139064806, -28139.1922401419, -32981.45180719517, 0.06, -0.004, 1.032, 192.0, 0.0, 0.0, 0.0, 0.0, 0.0, 0.0, 0.0, 0.0, 0.0, 1.747687266430427E9, 0.0, 2025-05-19 22:41:06.430
6.0, 19397.55909413804, 16774.98421370795, 46613.02079117546, 27903.47074311623, 29051.724559274266, -6191.813193775796, 9902.515697779143, -612.4601498198688, 0.0, 0.0, 19059.734828440527, -7067.822762468191, 5800.970590230298, -4529.111627234415, -28118.762745709748, -32967.95135354416, 0.06, -0.004, 1.032, 192.0, 0.0, 0.0, 0.0, 0.0, 0.0, 0.0, 0.0, 0.0, 0.0, 1.74768726643844E9, 0.0, 2025-05-19 22:41:06.438
8.0, 19389.49011438967, 16767.74224850443, 46605.95763992758, 27894.23947265619, 29047.433024338847, -6202.072644480782, 9830.431321910777, -614.5165103097571, 0.0, 0.0, 19045.563822455864, -7078.909227718023, 5800.054168707629, -4531.995002269149, -28138.52168780824, -32963.950391286664, 0.06, -0.004, 1.032, 192.0, 0.0, 0.0, 0.0, 0.0, 0.0, 0.0, 0.0, 0.0, 0.0, 1.747687266445485E9, 0.0, 2025-05-19 22:41:06.445
10.0, 19391.233550457186, 16773.643109040633, 46617.64760227771, 27898.598062824974, 29054.205602908805, -6236.717848386508, 9887.249456316169, -609.2862021072152, 0.0, 0.0, 19050.838834147315, -7078.283378873275, 5789.839421491554, -4557.52069443711, -28144.57901055563, -32997.29919401398, 0.056, -0.006, 1.03, 192.0, 0.5, 96.0, 127.5, 104.0, 16.0, 24.0, 0.0, 0.0, 0.0, 1.747687266453505E9, 0.0, 2025-05-19 22:41:06.453
12.0, 19383.008108497634, 16765.238853125436, 46613.400770831206, 27897.167551179835, 29045.46607082678, -6204.866612537696, 9870.28448227459, -616.5058155662794, 0.0, 0.0, 19055.73386618303, -7074.237713126864, 5803.630447820478, -4518.203975940225, -28118.159248609456, -32958.58597261739, 0.056, -0.006, 1.03, 192.0, 0.0, 0.0, 0.0, 0.0, 0.0, 0.0, 0.0, 0.0, 0.0, 1.747687266462499E9, 0.0, 2025-05-19 22:41:06.462
14.0, 19387.903140533344, 16769.440981083033, 46619.86042497879, 27896.362888379444, 29035.676006755355, -6192.953132743017, 9855.62173791191, -608.392132329003, 0.0, 0.0, 19045.608525944775, -7082.105527175132, 5787.045453434641, -4553.475028690699, -28152.312714137166, -32989.72195264363, 0.056, -0.006, 1.03, 192.0, 0.0, 0.0, 0.0, 0.0, 0.0, 0.0, 0.0, 0.0, 0.0, 1.747687266470571E9, 0.0, 2025-05-19 22:41:06.470
16.0, 19387.21023645523, 16773.84427474073, 46623.21318664708, 27905.728269306215, 29055.233783153748, -6216.444816165545, 9905.220258858235, -609.7555887407767, 0.0, 0.0, 19053.588098715318, -7073.075422415188, 5793.706273282322, -4524.7530370656295, -28116.102888119567, -32969.828900078406, 0.056, -0.006, 1.03, 192.0, 0.0, 0.0, 0.0, 0.0, 0.0, 0.0, 0.0, 0.0, 0.0, 1.747687266477614E9, 0.0, 2025-05-19 22:41:06.477
18.0, 19385.131524220888, 16769.485684571944, 46609.55627078489, 27892.786609266594, 29029.350463074505, -6183.6324553051545, 9846.032839540583, -604.1229491380393, 0.0, 0.0, 19044.87091837775, -7077.992806195356, 5797.237848906261, -4525.714162077208, -28130.74328073779, -32964.24096396458, 0.056, -0.006, 1.03, 192.0, 0.0, 0.0, 0.0, 0.0, 0.0, 0.0, 0.0, 0.0, 0.0, 1.74768726648562E9, 0.0, 2025-05-19 22:41:06.485
20.0, 19397.156762737843, 16784.103725445715, 46620.866253479275, 27907.874036773926, 29032.345596831514, -6175.228199389959, 9906.494308292187, -594.1540711109724, 0.0, 0.0, 19051.732903925527, -7071.443745069951, 5791.895781981442, -4550.524598422599, -28142.61205704356, -32988.51495844304, 0.06, -0.002, 1.024, 192.0, 0.5, 112.0, 127.5, 120.0, 16.0, 0.0, 0.0, 0.0, 0.0, 1.74768726649564E9, 0.0, 2025-05-19 22:41:06.495
22.0, 19388.998376011656, 16776.995870708928, 46621.87208197977, 27904.275405916622, 29053.065663941583, -6189.399205374623, 9863.176627537803, -614.4047515874805, 0.0, 0.0, 19056.560880727873, -7071.242579369853, 5806.29030541066, -4513.554813093521, -28117.242827086786, -32952.95333301465, 0.06, -0.002, 1.024, 192.0, 0.0, 0.0, 0.0, 0.0, 0.0, 0.0, 0.0, 0.0, 0.0, 1.74768726650268E9, 0.0, 2025-05-19 22:41:06.502
24.0, 19390.78651556808, 16770.916196217084, 46615.39007608772, 27898.799228525073, 29026.869419439965, -6225.340810458757, 9865.009470583138, -601.6866089924108, 0.0, 0.0, 19051.039999847413, -7077.501067817339, 5793.818032004599, -4551.5751304119985, -28149.42933910243, -32987.24090900909, 0.06, -0.002, 1.024, 192.0, 0.0, 0.0, 0.0, 0.0, 0.0, 0.0, 0.0, 0.0, 0.0, 1.747687266509713E9, 0.0, 2025-05-19 22:41:06.509
26.0, 19394.340442936475, 16774.492475329935, 46621.73797151303, 27906.33176640651, 29049.623495295466, -6194.361292643702, 9907.746005981686, -605.6875712499108, 0.0, 0.0, 19052.29169753691, -7072.695442759448, 5794.443880849348, -4531.011525513116, -28124.41773705694, -32972.42170243522, 0.06, -0.002, 1.024, 192.0, 0.0, 0.0, 0.0, 0.0, 0.0, 0.0, 0.0, 0.0, 0.0, 1.747687266517767E9, 0.0, 2025-05-19 22:41:06.517
28.0, 19377.755448550637, 16758.60038502221, 46612.26083186398, 27892.47368484422, 29048.908239472898, -6202.206754947514, 9833.404103923334, -609.8449957185979, 0.0, 0.0, 19047.888403879217, -7081.390271352562, 5794.95797097182, -4524.931851021272, -28126.585856269106, -32961.60345811885, 0.06, -0.002, 1.024, 192.0, 0.0, 0.0, 0.0, 0.0, 0.0, 0.0, 0.0, 0.0, 0.0, 1.747687266526792E9, 0.0, 2025-05-19 22:41:06.526
30.0, 19384.684489331783, 16767.78695199334, 46615.52418655446, 27897.815751769038, 29040.481631813247, -6215.237821964958, 9899.498212277676, -604.8605567050644, 0.0, 0.0, 19041.38404624272, -7083.111355675621, 5777.56831378559, -4555.75490662514, -28142.388539599007, -32996.00279283557, 0.062, -0.002, 1.03, 192.0, 0.5, 120.0, 127.5, 120.0, 16.0, 24.0, 0.0, 0.0, 0.0, 1.747687266533799E9, 0.0, 2025-05-19 22:41:06.533
32.0, 19378.761277051126, 16762.98132693545, 46614.04897142041, 27894.865321500936, 29051.299876129615, -6186.314664639791, 9870.440944485777, -607.1404346395058, 0.0, 0.0, 19045.474415478042, -7081.792602752758, 5793.952142471331, -4516.818167783996, -28114.538266007694, -32958.496565639565, 0.062, -0.002, 1.03, 192.0, 0.0, 0.0, 0.0, 0.0, 0.0, 0.0, 0.0, 0.0, 0.0, 1.747687266542839E9, 0.0, 2025-05-19 22:41:06.542
34.0, 19380.348250907453, 16759.65091701161, 46604.90710793819, 27888.919757475825, 29021.12502111495, -6196.037673477849, 9868.921025862817, -601.619553759045, 0.0, 0.0, 19030.834022859817, -7093.415509869517, 5775.310787595605, -4560.627586916397, -28157.90065025099, -32996.5392347025, 0.062, -0.002, 1.03, 192.0, 0.0, 0.0, 0.0, 0.0, 0.0, 0.0, 0.0, 0.0, 0.0, 1.747687266549875E9, 0.0, 2025-05-19 22:41:06.549
36.0, 19395.2792162036, 16774.492475329935, 46631.706849540096, 27912.076164731523, 29067.99662923773, -6190.405033875112, 9899.229991344213, -609.5320712962236, 0.0, 0.0, 19053.744560926505, -7074.125954404588, 5793.572162815591, -4526.541176622054, -28117.42164104243, -32972.51110941304, 0.062, -0.002, 1.03, 192.0, 0.0, 0.0, 0.0, 0.0, 0.0, 0.0, 0.0, 0.0, 0.0, 1.747687266558917E9, 0.0, 2025-05-19 22:41:06.558
38.0, 19396.21798947072, 16778.292271887334, 46615.43477957664, 27898.195731424777, 29040.41457657988, -6183.721862282975, 9837.293307458558, -611.3649143415588, 0.0, 0.0, 19051.308220780877, -7076.338777105663, 5802.311694897616, -4524.4177608988, -28127.301112091674, -32961.71521684113, 0.062, -0.002, 1.03, 192.0, 0.0, 0.0, 0.0, 0.0, 0.0, 0.0, 0.0, 0.0, 0.0, 1.747687266565941E9, 0.0, 2025-05-19 22:41:06.565
40.0, 19392.306434191043, 16778.068754442782, 46617.55819529989, 27901.95082449327, 29035.296027099615, -6192.550801342822, 9913.177479884325, -598.35619906857, 0.0, 0.0, 19048.313087023867, -7075.489410816362, 5786.799584245633, -4554.838485102473, -28147.641199546004, -32994.996964335085, 0.064, -0.004, 1.032, 192.0, 1.0, 0.0, 127.5, 112.0, 16.0, 32.0, 0.0, 0.0, 0.0, 1.747687266573957E9, 0.0, 2025-05-19 22:41:06.573
42.0, 19378.716573562215, 16760.03089666735, 46622.49793082452, 27905.0353652281, 29058.899469244418, -6188.885115252151, 9862.863703115429, -611.6778387639331, 0.0, 0.0, 19050.928241125137, -7076.2046666389315, 5799.584782074068, -4511.945487492739, -28114.538266007694, -32954.786176059984, 0.064, -0.004, 1.032, 192.0, 0.0, 0.0, 0.0, 0.0, 0.0, 0.0, 0.0, 0.0, 0.0, 1.747687266583002E9, 0.0, 2025-05-19 22:41:06.583
44.0, 19381.48818987467, 16760.23206236745, 46622.27441337996, 27904.700089061273, 29043.36500684798, -6193.936609499051, 9859.510941447132, -604.1900043714052, 0.0, 0.0, 19051.95642137008, -7077.344605606152, 5792.5216308261915, -4546.903615820839, -28144.444900088896, -32985.1845485192, 0.064, -0.004, 1.032, 192.0, 0.0, 0.0, 0.0, 0.0, 0.0, 0.0, 0.0, 0.0, 0.0, 1.747687266590015E9, 0.0, 2025-05-19 22:41:06.590
46.0, 19379.297718918053, 16752.18543436354, 46621.849730235306, 27908.410478640853, 29057.245440154726, -6195.277714166369, 9905.399072813878, -608.6380015180113, 0.0, 0.0, 19058.170206328658, -7071.711966003414, 5797.1037384395295, -4523.970726009694, -28117.533399764707, -32966.85611806585, 0.064, -0.004, 1.032, 192.0, 0.0, 0.0, 0.0, 0.0, 0.0, 0.0, 0.0, 0.0, 0.0, 1.747687266598056E9, 0.0, 2025-05-19 22:41:06.598
