%OpenBCI Raw EXG Data
%Number of channels = 16
%Sample Rate = 125 Hz
%Board = OpenBCI_GUI$BoardCytonSerialDaisy
Sample Index, EXG Channel 0, EXG Channel 1, EXG Channel 2, EXG Channel 3, EXG Channel 4, EXG Channel 5, EXG Channel 6, EXG Channel 7, EXG Channel 8, EXG Channel 9, EXG Channel 10, EXG Channel 11, EXG Channel 12, EXG Channel 13, EXG Channel 14, EXG Channel 15, Accel Channel 0, Accel Channel 1, Accel Channel 2, Not Used, Digital Channel 0 (D11), Digital Channel 1 (D12), Digital Channel 2 (D13), Digital Channel 3 (D17), Not Used, Digital Channel 4 (D18), Analog Channel 0, Analog Channel 1, Analog Channel 2, Timestamp, Marker Channel, Timestamp (Formatted)
0.0, 22553.31248680502, 17412.321855106577, 47618.491663753, 30045.8407456685, 34820.17336132209, -183.99956035608773, 8445.04784882639, 488.0056366927191, 0.0, 0.0, 0.0, 0.0, 0.0, 0.0, 0.0, 0.0, 0.0, 0.0, 0.0, 192.0, 0.0, 0.0, 0.0, 0.0, 0.0, 0.0, 0.0, 0.0, 0.0, 1.747687870546208E9, 0.0, 2025-05-19 22:51:10.546
160.0, 22560.375638052898, 17419.34030286554, 47626.47123652354, 30058.692998730305, 34848.24715235796, -152.28243497400703, 8493.618189527773, 493.86179374000955, 0.0, 0.0, 17015.08665264686, -11761.42087714921, 7204.838955979223, -1293.1825272062454, -26736.821441271477, -33540.491287766854, 0.062, -0.004, 1.034, 192.0, 0.5, 120.0, 127.5, 112.0, 16.0, 40.0, 0.0, 0.0, 0.0, 1.747687870546649E9, 0.0, 2025-05-19 22:51:10.546
0.0, 11434.727780190442, 8753.993660687645, 23883.19657840688, 15093.887161479852, 17526.449862295372, -122.28639391498494, 4195.511841238957, 284.2471342381399, 0.0, 0.0, 8501.798927998416, -5882.129774347517, 3605.8728225079567, -646.5689118586674, -13376.714393700886, -16761.930794946053, 0.056, -0.004, 1.032, 192.0, 0.5, 96.0, 127.5, 112.0, 16.0, 32.0, 0.0, 0.0, 0.0, 1.747687870627566E9, 0.0, 2025-05-19 22:51:10.627
2.0, 22882.28546169823, 17521.13014711501, 47775.289151106976, 30195.664488752427, 35047.71411987711, -252.10532571140837, 8438.297622000888, 575.7362336797993, 0.0, 0.0, 16890.878008708718, -12121.194555901833, 7403.836536864822, -1016.8032070163736, -26620.525314870516, -33543.50877326832, 0.056, -0.004, 1.032, 192.0, 0.0, 0.0, 0.0, 0.0, 0.0, 0.0, 0.0, 0.0, 0.0, 1.747687870634582E9, 0.0, 2025-05-19 22:51:10.634
4.0, 22887.940453045423, 17527.120414629033, 47783.93927621118, 30207.39915459146, 35072.681018433694, -224.54562479801476, 8443.349116247788, 559.9782538388079, 0.0, 0.0, 16904.31140712636, -12106.576515028062, 7427.305868542894, -980.1016426207594, -26586.617718531816, -33511.478723463864, 0.056, -0.004, 1.032, 192.0, 0.0, 0.0, 0.0, 0.0, 0.0, 0.0, 0.0, 0.0, 0.0, 1.747687870641602E9, 0.0, 2025-05-19 22:51:10.641
6.0, 22882.82190356516, 17524.304094827665, 47778.79837498646, 30205.029869679198, 35051.17864026769, -239.633052305347, 8402.244258194478, 575.6244749575228, 0.0, 0.0, 16899.259912879457, -12109.146965640422, 7430.658630211191, -993.9597241830497, -26607.74011704208, -33515.14440955453, 0.056, -0.004, 1.032, 192.0, 0.0, 0.0, 0.0, 0.0, 0.0, 0.0, 0.0, 0.0, 0.0, 1.747687870649681E9, 0.0, 2025-05-19 22:51:10.649
8.0, 22898.088145028134, 17540.37499909103, 47792.8799739933, 30218.68678554139, 35062.488622962075, -235.1627034142856, 8467.801924681893, 578.8878296479976, 0.0, 0.0, 16906.09954668278, -12097.412299801386, 7423.70723768559, -991.5457357818766, -26596.49718958106, -33521.29113927974, 0.06, -0.006, 1.03, 192.0, 0.5, 112.0, 127.5, 104.0, 16.0, 24.0, 0.0, 0.0, 0.0, 1.747687870657651E9, 0.0, 2025-05-19 22:51:10.657
10.0, 22879.53619713023, 17517.889144168992, 47774.64095051777, 30197.474980053306, 35056.051320558945, -224.3668108423723, 8402.71364482804, 567.197867297872, 0.0, 0.0, 16908.82645950633, -12101.323855081066, 7443.7791042064555, -972.0773663613041, -26585.611890031327, -33496.39129595653, 0.06, -0.006, 1.03, 192.0, 0.0, 0.0, 0.0, 0.0, 0.0, 0.0, 0.0, 0.0, 0.0, 1.747687870665683E9, 0.0, 2025-05-19 22:51:10.665
12.0, 22883.492455898817, 17523.1865076049, 47773.948046439655, 30194.233977107288, 35044.96485530912, -260.33076767096134, 8429.915717830148, 576.1832685689054, 0.0, 0.0, 16886.094735395283, -12125.262573392698, 7403.478908953537, -1016.2667651494462, -26620.16768695923, -33544.626360491086, 0.06, -0.006, 1.03, 192.0, 0.0, 0.0, 0.0, 0.0, 0.0, 0.0, 0.0, 0.0, 0.0, 1.747687870673725E9, 0.0, 2025-05-19 22:51:10.673
14.0, 22884.67709835495, 17525.354626817065, 47775.89264820727, 30199.35252658755, 35067.60717244234, -227.98779344413205, 8449.562901206364, 562.3475387510704, 0.0, 0.0, 16894.498991310476, -12112.96911394228, 7421.449711495604, -980.2357530874913, -26586.036573175978, -33515.0102990878, 0.06, -0.006, 1.03, 192.0, 0.0, 0.0, 0.0, 0.0, 0.0, 0.0, 0.0, 0.0, 0.0, 1.747687870683764E9, 0.0, 2025-05-19 22:51:10.683
16.0, 22879.49149364132, 17520.124318614522, 47772.11520339432, 30188.40017180445, 35044.853096586834, -243.11992444037492, 8409.732092587006, 571.0647190886401, 0.0, 0.0, 16889.469848808032, -12120.993390201735, 7418.923964372154, -999.5253085524213, -26608.589483331383, -33526.40968876001, 0.06, -0.006, 1.03, 192.0, 0.0, 0.0, 0.0, 0.0, 0.0, 0.0, 0.0, 0.0, 0.0, 1.747687870689739E9, 0.0, 2025-05-19 22:51:10.689
18.0, 22890.265034468775, 17530.651990252973, 47775.53502029598, 30192.78111371769, 35060.387558983275, -245.73507854164583, 8458.704764688584, 566.2814457752045, 0.0, 0.0, 16894.81191573285, -12115.338398854543, 7409.156252045185, -1005.2697068774352, -26603.672099551215, -33542.167668600996, 0.06, 0.0, 1.03, 192.0, 0.5, 112.0, 0.0, 0.0, 16.0, 24.0, 0.0, 0.0, 0.0, 1.747687870697795E9, 0.0, 2025-05-19 22:51:10.697
20.0, 22874.1494267165, 17513.03881562219, 47763.93446492368, 30183.125160113, 35058.51001244903, -235.22975864765152, 8396.723377314018, 555.552608436657, 0.0, 0.0, 16886.20649411756, -12123.653247791917, 7423.416665007671, -993.4232823161224, -26605.437887363183, -33521.42524974648, 0.06, 0.0, 1.03, 192.0, 0.0, 0.0, 0.0, 0.0, 0.0, 0.0, 0.0, 0.0, 0.0, 1.747687870705844E9, 0.0, 2025-05-19 22:51:10.705
22.0, 22880.117342486068, 17521.420719792928, 47773.389252828274, 30189.629517749494, 35047.06591928791, -254.38520364584969, 8430.563918419351, 577.2114488138496, 0.0, 0.0, 16883.613691760744, -12130.895212995436, 7400.349664729794, -1025.4756838650328, -26630.963579531144, -33554.10350014013, 0.06, 0.0, 1.03, 192.0, 0.0, 0.0, 0.0, 0.0, 0.0, 0.0, 0.0, 0.0, 0.0, 1.747687870712865E9, 0.0, 2025-05-19 22:51:10.712
24.0, 22877.68100234044, 17519.878449425512, 47771.69052024967, 30194.815122463126, 35068.434186987186, -236.6826220372465, 8437.358848733766, 564.426250985414, 0.0, 0.0, 16894.1860668881, -12117.886497722448, 7420.175662061652, -983.2979420778684, -26594.284366879987, -33514.87618862107, 0.06, 0.0, 1.03, 192.0, 0.0, 0.0, 0.0, 0.0, 0.0, 0.0, 0.0, 0.0, 0.0, 1.747687870720922E9, 0.0, 2025-05-19 22:51:10.720
26.0, 22876.876339540046, 17517.933847657903, 47770.371767326804, 30191.21649160582, 35044.22724774209, -247.5008663536151, 8403.786528561894, 578.1949255698831, 0.0, 0.0, 16883.05489814936, -12130.78345427316, 7412.03962707992, -1002.6545527761642, -26618.781878803, -33523.48161023636, 0.06, 0.0, 1.03, 192.0, 0.0, 0.0, 0.0, 0.0, 0.0, 0.0, 0.0, 0.0, 0.0, 1.747687870729931E9, 0.0, 2025-05-19 22:51:10.729
28.0, 22892.231987980842, 17535.88229845551, 47787.15792741274, 30211.601282549058, 35062.488622962075, -243.3881453738386, 8462.124581590246, 578.1278703365172, 0.0, 0.0, 16897.896456467683, -12112.007988930702, 7412.240792780018, -993.4009305716671, -26599.69348903817, -33524.554493970216, 0.06, 0.002, 1.03, 192.0, 0.5, 112.0, 0.0, 8.0, 16.0, 24.0, 0.0, 0.0, 0.0, 1.747687870736966E9, 0.0, 2025-05-19 22:51:10.736
30.0, 22874.3505924166, 17522.024216893224, 47772.562238283426, 30198.59256727607, 35052.922076335206, -224.29975560900638, 8405.149984973668, 570.4388702438915, 0.0, 0.0, 16893.493162809988, -12108.990503429235, 7433.5643569903805, -972.3679390392232, -26591.98213720109, -33497.5088831793, 0.06, 0.002, 1.03, 192.0, 0.0, 0.0, 0.0, 0.0, 0.0, 0.0, 0.0, 0.0, 0.0, 1.747687870745017E9, 0.0, 2025-05-19 22:51:10.745
32.0, 22885.593519877617, 17532.66364725395, 47776.83142147439, 30197.94436668687, 35039.37691919529, -251.47947686665975, 8437.984697578513, 591.1142338650506, 0.0, 0.0, 16887.502895295966, -12121.529832068663, 7406.362283988272, -1010.6788290356194, -26619.16185845874, -33539.083127866164, 0.06, 0.002, 1.03, 192.0, 0.0, 0.0, 0.0, 0.0, 0.0, 0.0, 0.0, 0.0, 0.0, 1.747687870753046E9, 0.0, 2025-05-19 22:51:10.753
34.0, 22883.648918110004, 17532.2389641093, 47778.776023242004, 30205.29809061266, 35065.03672182998, -227.40664808829405, 8453.474456486041, 580.8994866489752, 0.0, 0.0, 16897.62823553422, -12109.236372618243, 7424.601307463802, -973.2396570729801, -26584.091971408365, -33505.51080769429, 0.06, 0.002, 1.03, 192.0, 0.0, 0.0, 0.0, 0.0, 0.0, 0.0, 0.0, 0.0, 0.0, 1.747687870762075E9, 0.0, 2025-05-19 22:51:10.762
36.0, 22874.439999394417, 17521.443071537386, 47770.70704349364, 30192.95992767333, 35040.2709889735, -246.8750175088665, 8412.57076413283, 591.7177309653439, 0.0, 0.0, 16889.648662763677, -12121.909811724403, 7418.029894593942, -993.4232823161224, -26609.438849620685, -33517.558397955705, 0.06, 0.002, 1.03, 192.0, 0.0, 0.0, 0.0, 0.0, 0.0, 0.0, 0.0, 0.0, 0.0, 1.747687870769041E9, 0.0, 2025-05-19 22:51:10.769
38.0, 22887.67223211196, 17537.111644400557, 47783.06755817742, 30208.092058669576, 35055.73839613657, -240.05773544999786, 8471.221741583555, 587.4485477743802, 0.0, 0.0, 16896.644758778188, -12113.63966627594, 7412.151385802196, -990.3163898368347, -26596.050154691955, -33521.961691613404, 0.056, 0.002, 1.03, 192.0, 0.5, 96.0, 0.0, 8.0, 16.0, 24.0, 0.0, 0.0, 0.0, 1.74768787077711E9, 0.0, 2025-05-19 22:51:10.777
40.0, 22881.681964597938, 17529.80262396367, 47773.65747376174, 30198.480808553795, 35054.19612576916, -231.3852586013387, 8411.587287376797, 577.5243732362239, 0.0, 0.0, 16894.72250875503, -12115.1595848989, 7430.390409277727, -971.9656076390277, -26589.992831944568, -33495.72074362287, 0.056, 0.002, 1.03, 192.0, 0.0, 0.0, 0.0, 0.0, 0.0, 0.0, 0.0, 0.0, 0.0, 1.747687870785135E9, 0.0, 2025-05-19 22:51:10.785
42.0, 22893.349575203607, 17539.480929312816, 47781.68175002119, 30205.901587712957, 35043.78021285298, -255.03340423505358, 8438.498787700986, 597.1715566124388, 0.0, 0.0, 16893.359052343258, -12117.528869811162, 7410.027970078942, -1006.8343289893066, -26616.12202121282, -33531.37177602908, 0.056, 0.002, 1.03, 192.0, 0.0, 0.0, 0.0, 0.0, 0.0, 0.0, 0.0, 0.0, 0.0, 1.747687870793218E9, 0.0, 2025-05-19 22:51:10.793
44.0, 22889.259205968287, 17535.189394377398, 47780.16183139823, 30210.17077090392, 35067.67422767571, -231.98875570163202, 8447.864168627759, 574.7527569237658, 0.0, 0.0, 16908.267665894946, -12100.206267858299, 7434.190205835129, -966.4894302474773, -26580.49334055106, -33494.40199070001, 0.056, 0.002, 1.03, 192.0, 0.0, 0.0, 0.0, 0.0, 0.0, 0.0, 0.0, 0.0, 0.0, 1.747687870801233E9, 0.0, 2025-05-19 22:51:10.801
46.0, 22889.080392012645, 17532.17190887593, 47776.98788368558, 30199.486637054284, 35041.70150061864, -247.4785146091598, 8405.775833818416, 580.8994866489752, 0.0, 0.0, 16894.655453521664, -12117.685332022349, 7423.014333607475, -994.272648605424, -26611.98694848859, -33517.133714811054, 0.056, 0.002, 1.03, 192.0, 0.0, 0.0, 0.0, 0.0, 0.0, 0.0, 0.0, 0.0, 0.0, 1.747687870809241E9, 0.0, 2025-05-19 22:51:10.809
48.0, 22898.356365961597, 17546.36526660505, 47783.380482599794, 30206.616843535525, 35060.43226247219, -243.61166281839166, 8461.208160067577, 576.2503238022714, 0.0, 0.0, 16907.999444961482, -12103.983712671246, 7420.309772528383, -992.1045293932593, -26598.17357041521, -33523.92864512547, 0.058, -0.002, 1.034, 192.0, 0.5, 104.0, 127.5, 120.0, 16.0, 40.0, 0.0, 0.0, 0.0, 1.747687870817299E9, 0.0, 2025-05-19 22:51:10.817
50.0, 22893.282519970242, 17543.481891570318, 47768.002482414544, 30190.568291016614, 35056.811279870424, -235.38622085883867, 8403.920639028625, 565.1191550635284, 0.0, 0.0, 16898.76817450144, -12115.07017792108, 7432.893804656721, -980.0122356429382, -26597.54772157046, -33507.67892690646, 0.058, -0.002, 1.034, 192.0, 0.0, 0.0, 0.0, 0.0, 0.0, 0.0, 0.0, 0.0, 0.0, 1.747687870825335E9, 0.0, 2025-05-19 22:51:10.825
52.0, 22898.557531661696, 17542.990153192302, 47772.2269621166, 30191.30589858364, 35044.20489599763, -263.79528806153394, 8430.1392352747, 572.7634516672434, 0.0, 0.0, 16888.82164821883, -12122.200384402322, 7406.809318877378, -1020.4912448514992, -26626.515582384538, -33550.147241371546, 0.058, -0.002, 1.034, 192.0, 0.0, 0.0, 0.0, 0.0, 0.0, 0.0, 0.0, 0.0, 0.0, 1.747687870833401E9, 0.0, 2025-05-19 22:51:10.833
54.0, 22902.71495613038, 17541.336124102607, 47784.095738422366, 30203.64406152297, 35077.26312604703, -234.38039235834987, 8443.058543569869, 561.7440416507771, 0.0, 0.0, 16906.97126471654, -12109.124613895967, 7428.445807510115, -975.5195350074215, -26584.337840597374, -33511.72459265287, 0.058, -0.002, 1.034, 192.0, 0.0, 0.0, 0.0, 0.0, 0.0, 0.0, 0.0, 0.0, 0.0, 1.747687870840413E9, 0.0, 2025-05-19 22:51:10.840
56.0, 22904.34663347562, 17538.206879878864, 47779.3795203423, 30192.065857895122, 35052.56444842392, -258.34146241443904, 8392.52124935642, 568.5613237096458, 0.0, 0.0, 16901.76330825845, -12123.385026858454, 7426.6353162092355, -997.8042242293626, -26612.0316519775, -33527.571979471686, 0.058, -0.002, 1.034, 192.0, 0.0, 0.0, 0.0, 0.0, 0.0, 0.0, 0.0, 0.0, 0.0, 1.747687870849427E9, 0.0, 2025-05-19 22:51:10.849
58.0, 22930.654636699517, 17562.704391801883, 47799.87607000781, 30215.378727362007, 35075.47498649061, -259.2802356815619, 8462.459857757076, 575.3562540240591, 0.0, 0.0, 16922.259857923968, -12105.548334783118, 7428.490510999026, -985.1978403565694, -26590.708087767136, -33522.54283696924, 0.064, -0.008, 1.032, 192.0, 1.0, 0.0, 127.5, 96.0, 16.0, 32.0, 0.0, 0.0, 0.0, 1.747687870857461E9, 0.0, 2025-05-19 22:51:10.857
60.0, 22918.651749927016, 17549.04747593969, 47786.196802401166, 30200.73833474378, 35075.05030334596, -256.8662472803888, 8401.797223305372, 557.7430793932772, 0.0, 0.0, 16917.856564266272, -12113.058520920102, 7444.561415262391, -966.7352994364858, -26584.427247575197, -33499.63229890255, 0.064, -0.008, 1.032, 192.0, 0.0, 0.0, 0.0, 0.0, 0.0, 0.0, 0.0, 0.0, 0.0, 1.747687870865474E9, 0.0, 2025-05-19 22:51:10.865
62.0, 22927.190116308942, 17557.004696965778, 47792.4329391042, 30204.538131301182, 35061.70631190614, -279.95559930272094, 8426.3394387173, 569.8800766325089, 0.0, 0.0, 16914.01206421996, -12118.646457033929, 7423.193147563118, -1004.2862301214017, -26610.31056765444, -33539.28429356626, 0.064, -0.008, 1.032, 192.0, 0.0, 0.0, 0.0, 0.0, 0.0, 0.0, 0.0, 0.0, 0.0, 1.747687870872513E9, 0.0, 2025-05-19 22:51:10.872
64.0, 22933.985046623355, 17560.80449352318, 47794.154023427254, 30209.969605203823, 35088.483701763595, -251.14420069983015, 8441.806845880372, 557.1172305485285, 0.0, 0.0, 16926.752558559485, -12102.955532426302, 7445.254319340506, -965.1930290690696, -26573.899575936746, -33502.40391521501, 0.064, -0.008, 1.032, 192.0, 0.0, 0.0, 0.0, 0.0, 0.0, 0.0, 0.0, 0.0, 0.0, 1.747687870881555E9, 0.0, 2025-05-19 22:51:10.881
66.0, 22928.799441909727, 17553.0931416861, 47776.11616565182, 30185.65090723645, 35064.76850089651, -272.06543350999755, 8393.840002279283, 561.4758207173135, 0.0, 0.0, 16907.842982750295, -12127.140119926944, 7427.149406331708, -998.0277416739157, -26609.68471880969, -33529.06954635019, 0.064, -0.008, 1.032, 192.0, 0.0, 0.0, 0.0, 0.0, 0.0, 0.0, 0.0, 0.0, 0.0, 1.747687870889538E9, 0.0, 2025-05-19 22:51:10.889
68.0, 22939.997665881834, 17566.19126393691, 47787.582610557394, 30199.55369228765, 35079.45359700365, -273.0489102660311, 8458.123619332746, 565.9685213528302, 0.0, 0.0, 16912.022758963438, -12122.647419291428, 7415.70531317059, -997.9383346960944, -26599.425268104707, -33538.07729936568, 0.062, -0.002, 1.028, 192.0, 0.5, 120.0, 127.5, 120.0, 16.0, 16.0, 0.0, 0.0, 0.0, 1.747687870896577E9, 0.0, 2025-05-19 22:51:10.896
70.0, 22924.597313952127, 17552.869624241546, 47776.94318019667, 30189.562462516125, 35077.5313469805, -260.91191302679937, 8396.298694169367, 552.5127711907353, 0.0, 0.0, 16906.658340294165, -12124.726131525771, 7433.7431709460225, -981.2192298435248, -26594.50788432454, -33515.70320316592, 0.062, -0.002, 1.028, 192.0, 0.0, 0.0, 0.0, 0.0, 0.0, 0.0, 0.0, 0.0, 0.0, 1.747687870905589E9, 0.0, 2025-05-19 22:51:10.905
72.0, 22933.58271522316, 17559.396333622495, 47782.57581979941, 30193.36225907353, 35064.41087298523, -293.2995907425393, 8422.249069481977, 568.8071928986541, 0.0, 0.0, 16899.282264623915, -12132.951573485325, 7410.050321823397, -1018.0772564503261, -26621.955826515656, -33552.62828500608, 0.062, -0.002, 1.028, 192.0, 0.0, 0.0, 0.0, 0.0, 0.0, 0.0, 0.0, 0.0, 0.0, 1.747687870913672E9, 0.0, 2025-05-19 22:51:10.913
74.0, 22939.885907159558, 17569.61108083857, 47791.74003502608, 30204.51577955673, 35092.99875414357, -259.5484566150256, 8439.370505734743, 557.2736927597157, 0.0, 0.0, 16917.63304682172, -12118.06531167809, 7434.704295957601, -975.7654041964298, -26581.74503824056, -33515.07735432117, 0.062, -0.002, 1.028, 192.0, 0.0, 0.0, 0.0, 0.0, 0.0, 0.0, 0.0, 0.0, 0.0, 1.747687870920745E9, 0.0, 2025-05-19 22:51:10.920
76.0, 22938.030712369768, 17562.48087435733, 47785.36978785632, 30198.011421920233, 35066.35547475284, -270.72432884267914, 8401.305484927356, 565.6332451860005, 0.0, 0.0, 16909.653474051174, -12122.289791380143, 7432.491473256526, -997.6030585292648, -26607.69541355317, -33530.47770625087, 0.062, -0.002, 1.028, 192.0, 0.0, 0.0, 0.0, 0.0, 0.0, 0.0, 0.0, 0.0, 0.0, 1.747687870928736E9, 0.0, 2025-05-19 22:51:10.928
78.0, 22951.285296831764, 17577.68006058694, 47793.952857727156, 30206.7286022578, 35083.14163483878, -267.7068433412127, 8449.406438995176, 554.3009107471598, 0.0, 0.0, 16920.896401512196, -12110.599829030018, 7429.429284266149, -995.0773114058151, -26595.55841631394, -33534.63513071956, 0.058, 0.0, 1.032, 192.0, 0.5, 104.0, 0.0, 0.0, 16.0, 32.0, 0.0, 0.0, 0.0, 1.747687870937784E9, 0.0, 2025-05-19 22:51:10.937
80.0, 22942.054026371723, 17571.28746167272, 47787.22498264611, 30198.7266777428, 35082.73930343858, -255.68160482425748, 8397.639798836684, 545.8519513430538, 0.0, 0.0, 16921.5446021014, -12112.075044164068, 7449.90348218721, -978.2911513198795, -26589.434038333184, -33513.512732209296, 0.058, 0.0, 1.032, 192.0, 0.0, 0.0, 0.0, 0.0, 0.0, 0.0, 0.0, 0.0, 0.0, 1.747687870947806E9, 0.0, 2025-05-19 22:51:10.947
82.0, 22950.614744498103, 17578.752944320793, 47790.62244780332, 30202.325308600106, 35070.82582364391, -274.0323870220646, 8431.614450408752, 555.7537741367548, 0.0, 0.0, 16916.38134913222, -12116.92537271087, 7426.501205742504, -1011.9081749806613, -26615.69733806817, -33547.80030820374, 0.058, 0.0, 1.032, 192.0, 0.0, 0.0, 0.0, 0.0, 0.0, 0.0, 0.0, 0.0, 0.0, 1.7476878709538E9, 0.0, 2025-05-19 22:51:10.953
84.0, 22952.425235798986, 17580.809304810682, 47791.8294420039, 30207.510913313738, 35095.032762889, -254.407555390305, 8433.782569620917, 550.5458176786683, 0.0, 0.0, 16922.930410257628, -12107.627047017462, 7440.761618704989, -976.503011763455, -26582.952032441146, -33515.79261014373, 0.058, 0.0, 1.032, 192.0, 0.0, 0.0, 0.0, 0.0, 0.0, 0.0, 0.0, 0.0, 0.0, 1.747687870960826E9, 0.0, 2025-05-19 22:51:10.960
86.0, 22938.85772691461, 17569.521673860752, 47776.40673832974, 30192.870520695513, 35071.69754167766, -278.5474394020366, 8386.732147542494, 554.815000869632, 0.0, 0.0, 16907.641817050197, -12121.619239046484, 7431.284479055939, -1002.8110149873513, -26615.049137478967, -33534.23279931937, 0.058, 0.0, 1.032, 192.0, 0.0, 0.0, 0.0, 0.0, 0.0, 0.0, 0.0, 0.0, 0.0, 1.747687870969829E9, 0.0, 2025-05-19 22:51:10.969
88.0, 22955.53212827827, 17582.61979611156, 47791.1812414147, 30207.55561680265, 35086.85202441836, -272.93715154375457, 8442.38799123621, 548.7576781222436, 0.0, 0.0, 16914.637913064707, -12114.35492209851, 7423.953106874598, -996.9772096845162, -26600.520503583015, -33536.87030516509, 0.06, -0.004, 1.034, 192.0, 0.5, 112.0, 127.5, 112.0, 16.0, 40.0, 0.0, 0.0, 0.0, 1.747687870976879E9, 0.0, 2025-05-19 22:51:10.976
90.0, 22946.390264796053, 17573.52263611825, 47784.07338667791, 30198.30199459815, 35085.39916102876, -259.10142172591947, 8402.579534361308, 538.7888000951767, 0.0, 0.0, 16917.051901465882, -12117.797090744627, 7442.907386172698, -971.7867936833852, -26587.176512143196, -33509.71293565189, 0.06, -0.004, 1.034, 192.0, 0.0, 0.0, 0.0, 0.0, 0.0, 0.0, 0.0, 0.0, 0.0, 1.74768787098495E9, 0.0, 2025-05-19 22:51:10.984
92.0, 22954.861575944615, 17582.932720533936, 47781.94997095466, 30194.88217769649, 35065.617867185814, -287.3763784618829, 8421.980848548514, 555.0161665697296, 0.0, 0.0, 16909.58641881781, -12128.97296297228, 7417.493452727014, -1007.370770856234, -26614.64680607877, -33545.27456108029, 0.06, -0.004, 1.034, 192.0, 0.0, 0.0, 0.0, 0.0, 0.0, 0.0, 0.0, 0.0, 0.0, 1.747687870992967E9, 0.0, 2025-05-19 22:51:10.992
94.0, 22951.933497420967, 17582.932720533936, 47783.49224132207, 30200.067782410122, 35090.316544808935, -266.99158751864286, 8437.984697578513, 543.6391286419783, 0.0, 0.0, 16918.3930061332, -12116.277172121665, 7434.257261068495, -974.178430340103, -26582.7732184855, -33515.50203746582, 0.06, -0.004, 1.034, 192.0, 0.0, 0.0, 0.0, 0.0, 0.0, 0.0, 0.0, 0.0, 0.0, 1.747687871002003E9, 0.0, 2025-05-19 22:51:11.002
96.0, 22943.84216592815, 17573.187359951422, 47767.68955799217, 30182.49931126825, 35063.06976831791, -282.1907737482517, 8388.006196976447, 550.4787624453023, 0.0, 0.0, 16901.45038383608, -12131.54341358464, 7424.511900485981, -1003.4368638321, -26615.987910746087, -33538.613741232606, 0.06, -0.004, 1.034, 192.0, 0.0, 0.0, 0.0, 0.0, 0.0, 0.0, 0.0, 0.0, 0.0, 1.747687871008979E9, 0.0, 2025-05-19 22:51:11.008
98.0, 22946.01028514031, 17574.32729891864, 47772.15990688323, 30189.338945071573, 35075.206765557145, -272.06543350999755, 8445.830159882327, 554.6808904029001, 0.0, 0.0, 16902.63502629221, -12130.336419384053, 7409.782100889934, -1004.6438580326866, -26607.181323430697, -33543.93345641297, 0.058, -0.006, 1.03, 192.0, 0.5, 104.0, 127.5, 104.0, 16.0, 24.0, 0.0, 0.0, 0.0, 1.74768787101705E9, 0.0, 2025-05-19 22:51:11.017
100.0, 22933.023921611777, 17564.023144724746, 47765.65554924674, 30181.292317067662, 35072.479852733595, -267.34921542992777, 8390.151964444156, 543.326204219604, 0.0, 0.0, 16895.01308143295, -12139.478282866274, 7419.058074838887, -991.7469014819744, -26606.82369551941, -33525.38150851506, 0.058, -0.006, 1.03, 192.0, 0.0, 0.0, 0.0, 0.0, 0.0, 0.0, 0.0, 0.0, 0.0, 1.747687871026095E9, 0.0, 2025-05-19 22:51:11.026
102.0, 22942.188136838453, 17571.734496561825, 47767.98013067009, 30185.44974153635, 35063.89678286276, -290.4832709411706, 8424.774816605428, 565.5438382081793, 0.0, 0.0, 16892.554389542867, -12140.372352644486, 7399.589705418313, -1023.8663582642506, -26629.0860329969, -33558.104462397634, 0.058, -0.006, 1.03, 192.0, 0.0, 0.0, 0.0, 0.0, 0.0, 0.0, 0.0, 0.0, 0.0, 1.747687871033138E9, 0.0, 2025-05-19 22:51:11.033
104.0, 22942.59046823865, 17572.270938428752, 47773.45630806164, 30192.468189295316, 35087.32141105192, -262.9682735166876, 8429.021648051936, 552.6468816574671, 0.0, 0.0, 16904.222000148537, -12123.429730347363, 7421.18149056214, -988.6176572582314, -26596.653651792247, -33523.12398232508, 0.058, -0.006, 1.03, 192.0, 0.0, 0.0, 0.0, 0.0, 0.0, 0.0, 0.0, 0.0, 0.0, 1.747687871041175E9, 0.0, 2025-05-19 22:51:11.041
106.0, 22939.193003081444, 17574.215540196365, 47760.73816546657, 30177.49252051026, 35064.45557647414, -275.9993405341316, 8393.929409257104, 563.2192567848274, 0.0, 0.0, 16890.609787775255, -12140.193538688844, 7411.302019512895, -1018.6584018061641, -26628.951922530166, -33546.05687213622, 0.058, -0.006, 1.03, 192.0, 0.0, 0.0, 0.0, 0.0, 0.0, 0.0, 0.0, 0.0, 0.0, 1.747687871049143E9, 0.0, 2025-05-19 22:51:11.049
108.0, 22949.675971230983, 17584.407935667987, 47773.88099120629, 30192.289375339675, 35070.26703003252, -268.35504393041657, 8457.72128793255, 567.1084603200508, 0.0, 0.0, 16902.322101869835, -12126.938954226847, 7407.613981677769, -1010.3882563577005, -26609.640015320783, -33546.146279114044, 0.058, -0.003, 1.034, 192.0, 0.5, 104.0, 0.0, 0.0, 16.0, 56.0, 0.0, 0.0, 0.0, 1.747687871058207E9, 0.0, 2025-05-19 22:51:11.058
110.0, 22926.385453508552, 17557.563490577162, 47766.08023239139, 30183.996878146754, 35068.88122187629, -258.5873316034474, 8406.982828019003, 553.7421171357772, 0.0, 0.0, 16899.326968112822, -12128.101244938523, 7425.495377242015, -987.3883113131895, -26600.140523927275, -33518.608929945105, 0.058, -0.003, 1.034, 192.0, 0.0, 0.0, 0.0, 0.0, 0.0, 0.0, 0.0, 0.0, 0.0, 1.747687871064261E9, 0.0, 2025-05-19 22:51:11.064
112.0, 22934.11915709009, 17567.24179592631, 47768.80714521494, 30186.20970084783, 35055.31371299192, -289.74566337414547, 8434.073142298836, 568.0919370760843, 0.0, 0.0, 16890.67684300862, -12142.384009645464, 7398.628580406736, -1025.0286489759267, -26627.096727740376, -33557.09863389714, 0.058, -0.003, 1.034, 192.0, 0.0, 0.0, 0.0, 0.0, 0.0, 0.0, 0.0, 0.0, 0.0, 1.74768787107325E9, 0.0, 2025-05-19 22:51:11.073
114.0, 22937.382511780565, 17574.32729891864, 47772.24931386105, 30196.200930619354, 35078.51482373653, -260.2413606931401, 8436.353020233277, 553.4962479467688, 0.0, 0.0, 16904.19964840408, -12120.389893101441, 7423.684885941135, -986.3377793237901, -26592.965613957123, -33522.36402301359, 0.058, -0.003, 1.034, 192.0, 0.0, 0.0, 0.0, 0.0, 0.0, 0.0, 0.0, 0.0, 0.0, 1.747687871081246E9, 0.0, 2025-05-19 22:51:11.081
116.0, 22935.884944902056, 17570.639261083517, 47767.22017135861, 30185.337982814075, 35052.60915191283, -274.7476428446344, 8392.454194123053, 559.039480571685, 0.0, 0.0, 16896.82357273383, -12131.006971717712, 7420.8015109064, -1012.9587069700608, -26622.626378849316, -33541.07243312269, 0.058, -0.003, 1.034, 192.0, 0.0, 0.0, 0.0, 0.0, 0.0, 0.0, 0.0, 0.0, 0.0, 1.74768787108831E9, 0.0, 2025-05-19 22:51:11.088
118.0, 22948.31251481921, 17579.33408967663, 47776.965531941125, 30196.044468408167, 35070.803471899446, -267.23745670765123, 8444.466703470553, 555.2173322698275, 0.0, 0.0, 16907.127726927727, -12124.077930936568, 7413.47013872506, -1011.7070092805636, -26610.087050209888, -33547.621494248095, 0.056, -0.0015, 1.032, 192.0, 0.5, 88.0, 0.0, 0.0, 16.0, 24.0, 0.0, 0.0, 0.0, 1.747687871097351E9, 0.0, 2025-05-19 22:51:11.097
120.0, 22941.316418804698, 17573.05324948469, 47773.76923248402, 30191.752933472748, 35076.61492545783, -256.4415641357379, 8401.484298882997, 547.7071461328443, 0.0, 0.0, 16905.764270515952, -12126.15664317091, 7433.273784312461, -990.0928723922816, -26601.347518127863, -33522.453429991416, 0.056, -0.0015, 1.032, 192.0, 0.0, 0.0, 0.0, 0.0, 0.0, 0.0, 0.0, 0.0, 0.0, 1.747687871105441E9, 0.0, 2025-05-19 22:51:11.105
122.0, 22944.40095953953, 17576.227197197342, 47772.6739970057, 30191.998802661754, 35060.56637293892, -278.1898114907517, 8415.878822312216, 554.971463080819, 0.0, 0.0, 16905.853677493775, -12126.827195504571, 7416.554679459892, -1020.401837873678, -26623.185172460697, -33553.9693896734, 0.056, -0.0015, 1.032, 192.0, 0.0, 0.0, 0.0, 0.0, 0.0, 0.0, 0.0, 0.0, 0.0, 1.747687871112404E9, 0.0, 2025-05-19 22:51:11.112
124.0, 22945.83147118467, 17575.95897626388, 47781.77115699901, 30200.715982999325, 35087.90255640776, -255.9721775021765, 8433.402589965175, 548.198884510861, 0.0, 0.0, 16914.704968298076, -12115.830137232559, 7432.46912151207, -985.823689201318, -26591.22217788961, -33523.28044453626, 0.056, -0.0015, 1.032, 192.0, 0.0, 0.0, 0.0, 0.0, 0.0, 0.0, 0.0, 0.0, 0.0, 1.747687871120441E9, 0.0, 2025-05-19 22:51:11.120
126.0, 22938.43304376996, 17568.71701106036, 47772.003444672046, 30185.60620374754, 35066.13195730829, -281.0061312921204, 8397.99742674797, 558.391279982481, 0.0, 0.0, 16904.24435189299, -12131.565765329095, 7423.260202796484, -1005.5155760664435, -26612.478686866605, -33538.27846506578, 0.056, -0.0015, 1.032, 192.0, 0.0, 0.0, 0.0, 0.0, 0.0, 0.0, 0.0, 0.0, 0.0, 1.747687871129427E9, 0.0, 2025-05-19 22:51:11.129
128.0, 22948.804253197224, 17580.51873213276, 47783.08990992188, 30196.06682015262, 35076.61492545783, -274.4123666778048, 8442.43269472512, 553.7868206246878, 0.0, 0.0, 16913.274456652936, -12120.63576229045, 7416.666438182168, -1003.3474568542788, -26600.766372772025, -33544.69341572445, 0.057999999999999996, -0.00175, 1.033, 192.0, 0.5, 112.0, 127.5, 120.0, 16.0, 40.0, 0.0, 0.0, 0.0, 1.747687871137462E9, 0.0, 2025-05-19 22:51:11.137
130.0, 22946.25615432932, 17580.161104221475, 47781.19001164318, 30197.11735214202, 35077.933678380694, -253.33467165645024, 8401.774871560916, 548.5118089332353, 0.0, 0.0, 16916.58251483232, -12118.489994822741, 7441.476874527559, -985.0860816342929, -26593.63616629078, -33520.575883457175, 0.057999999999999996, -0.00175, 1.033, 192.0, 0.0, 0.0, 0.0, 0.0, 0.0, 0.0, 0.0, 0.0, 0.0, 1.747687871144508E9, 0.0, 2025-05-19 22:51:11.144
132.0, 22956.40384631203, 17585.838447313126, 47787.113223923836, 30202.660584766938, 35065.55081195245, -275.1276225003746, 8419.186880491601, 565.3203207636262, 0.0, 0.0, 16920.650532323187, -12115.226640132267, 7428.8034354214, -1016.8255587608289, -26617.37371890232, -33551.465994294405, 0.057999999999999996, -0.00175, 1.033, 192.0, 0.0, 0.0, 0.0, 0.0, 0.0, 0.0, 0.0, 0.0, 0.0, 1.747687871152511E9, 0.0, 2025-05-19 22:51:11.152
134.0, 22948.87130843059, 17579.267034443266, 47789.30369488045, 30204.471076067817, 35087.38846628529, -248.64080532083577, 8434.85545335477, 551.6634049014336, 0.0, 0.0, 16927.221945193047, -12110.286904607643, 7441.968612905576, -977.8664681752286, -26582.057962662933, -33516.48551422185, 0.057999999999999996, -0.00175, 1.033, 192.0, 0.0, 0.0, 0.0, 0.0, 0.0, 0.0, 0.0, 0.0, 0.0, 1.747687871161561E9, 0.0, 2025-05-19 22:51:11.161
136.0, 22942.41165428301, 17569.946357005403, 47779.625389531306, 30199.68780275438, 35063.2262305291, -267.4162706632937, 8390.688406311085, 560.7382131502883, 0.0, 0.0, 16915.688445054107, -12121.619239046484, 7435.799531435911, -996.0607881618487, -26607.27073040852, -33528.01901436079, 0.057999999999999996, -0.00175, 1.033, 192.0, 0.0, 0.0, 0.0, 0.0, 0.0, 0.0, 0.0, 0.0, 0.0, 1.747687871168532E9, 0.0, 2025-05-19 22:51:11.168
138.0, 22951.799386954237, 17578.350612920596, 47793.34936062686, 30214.775230261712, 35080.01239061503, -268.33269218596126, 8449.875825628736, 568.4719167318245, 0.0, 0.0, 16923.95859050257, -12106.82238421707, 7432.156197089696, -989.1764508696141, -26593.859683735336, -33527.81784866069, 0.057999999999999996, -8.75E-4, 1.0325, 192.0, 0.5, 104.0, 0.0, 0.0, 16.0, 32.0, 0.0, 0.0, 0.0, 1.747687871176569E9, 0.0, 2025-05-19 22:51:11.176
140.0, 22935.035578612755, 17564.0454964692, 47781.61469478783, 30200.98420393279, 35079.29713479247, -264.93522702875464, 8402.266609938933, 558.2795212602045, 0.0, 0.0, 16920.359959645266, -12111.940933697335, 7447.847121697322, -969.2386948154801, -26583.801398730448, -33502.85095010411, 0.057999999999999996, -8.75E-4, 1.0325, 192.0, 0.0, 0.0, 0.0, 0.0, 0.0, 0.0, 0.0, 0.0, 0.0, 1.747687871185582E9, 0.0, 2025-05-19 22:51:11.185
142.0, 22937.427215269472, 17566.52654010374, 47780.49710756506, 30195.038639907678, 35059.60524792734, -295.2218407656957, 8421.824386337326, 566.8849428754977, 0.0, 0.0, 16910.72635778503, -12124.770835014682, 7420.198013806107, -1009.4941865794882, -26613.708032811646, -33543.32995931267, 0.057999999999999996, -8.75E-4, 1.0325, 192.0, 0.0, 0.0, 0.0, 0.0, 0.0, 0.0, 0.0, 0.0, 0.0, 1.747687871193611E9, 0.0, 2025-05-19 22:51:11.193
144.0, 22933.20273556742, 17561.18447317892, 47784.565125055924, 30200.380706832497, 35084.996829628566, -265.1140409843971, 8434.631935910218, 553.295082246671, 0.0, 0.0, 16916.20253517658, -12118.959381456301, 7432.692638956623, -977.8664681752286, -26582.661459763225, -33517.33488051115, 0.057999999999999996, -8.75E-4, 1.0325, 192.0, 0.0, 0.0, 0.0, 0.0, 0.0, 0.0, 0.0, 0.0, 0.0, 1.747687871200626E9, 0.0, 2025-05-19 22:51:11.200
146.0, 22930.766395421793, 17555.551833576184, 47777.21140113013, 30190.031849149687, 35065.08142531889, -281.52022141459247, 8395.225810435511, 560.5146957057352, 0.0, 0.0, 16908.893514739695, -12132.035151962657, 7428.378752276749, -997.5136515514436, -26606.555474585948, -33532.89169465205, 0.057999999999999996, -8.75E-4, 1.0325, 192.0, 0.0, 0.0, 0.0, 0.0, 0.0, 0.0, 0.0, 0.0, 0.0, 1.747687871208644E9, 0.0, 2025-05-19 22:51:11.208
148.0, 22943.35042755013, 17566.794761037203, 47784.90040122276, 30199.441933565373, 35079.14067258128, -277.00516903462045, 8447.350078505287, 560.7158614058329, 0.0, 0.0, 16909.429956606622, -12124.100282681024, 7417.784025404933, -997.692465507086, -26597.257148892542, -33540.33482555566, 0.057999999999999996, -0.0024375, 1.03325, 192.0, 0.5, 104.0, 127.5, 112.0, 16.0, 40.0, 0.0, 0.0, 0.0, 1.747687871217698E9, 0.0, 2025-05-19 22:51:11.217
150.0, 22935.81788966869, 17561.43034236793, 47775.51266855153, 30191.015325905722, 35082.04639936047, -260.5766368599697, 8392.677711567607, 544.3096809756375, 0.0, 0.0, 16915.95666598757, -12121.820404746582, 7443.354421061805, -976.7935844413739, -26588.048230176955, -33513.80330488722, 0.057999999999999996, -0.0024375, 1.03325, 192.0, 0.0, 0.0, 0.0, 0.0, 0.0, 0.0, 0.0, 0.0, 0.0, 1.747687871224744E9, 0.0, 2025-05-19 22:51:11.224
152.0, 22949.608915997615, 17579.579958865637, 47781.59234304337, 30196.335041086084, 35071.94341086667, -273.3394829439501, 8414.940049045092, 557.9665968378303, 0.0, 0.0, 16908.692349039597, -12129.621163561484, 7417.672266682657, -1017.6078698167646, -26621.307625926453, -33553.03061640628, 0.057999999999999996, -0.0024375, 1.03325, 192.0, 0.0, 0.0, 0.0, 0.0, 0.0, 0.0, 0.0, 0.0, 0.0, 1.747687871232748E9, 0.0, 2025-05-19 22:51:11.232
154.0, 22951.59822125414, 17583.603272867593, 47791.69533153717, 30207.421506335915, 35094.8315971889, -239.94597672772133, 8422.629049137719, 543.1250385195063, 0.0, 0.0, 16923.60096259129, -12109.169317384878, 7442.706220472601, -975.2513140739578, -26582.16972138521, -33515.39027874354, 0.057999999999999996, -0.0024375, 1.03325, 192.0, 0.0, 0.0, 0.0, 0.0, 0.0, 0.0, 0.0, 0.0, 0.0, 1.747687871240786E9, 0.0, 2025-05-19 22:51:11.240
156.0, 22944.2668490728, 17571.399220394997, 47780.05007267596, 30193.58577651808, 35070.57995445489, -272.08778525445285, 8382.485316095986, 543.5944251530677, 0.0, 0.0, 16916.984846232517, -12123.049750691624, 7437.252394825506, -997.9159829516391, -26609.416497876227, -33533.986930130355, 0.057999999999999996, -0.0024375, 1.03325, 192.0, 0.0, 0.0, 0.0, 0.0, 0.0, 0.0, 0.0, 0.0, 0.0, 1.747687871249817E9, 0.0, 2025-05-19 22:51:11.249
158.0, 22943.059854872212, 17569.879301772035, 47783.35813085534, 30196.223282363808, 35075.36322776833, -272.24424746564, 8440.823369124339, 542.1192100190175, 0.0, 0.0, 16916.515459598955, -12122.580364058062, 7420.667400439668, -1002.2522213759687, -26604.297948395964, -33545.27456108029, 0.055, -0.0022187500000000002, 1.031625, 192.0, 0.5, 80.0, 127.5, 120.0, 16.0, 24.0, 0.0, 0.0, 0.0, 1.747687871256858E9, 0.0, 2025-05-19 22:51:11.256
160.0, 22928.687683187447, 17557.2952696437, 47774.998578429055, 30189.36129681603, 35074.290344034474, -273.0712620104864, 8368.09079266677, 534.5419686486684, 0.0, 0.0, 16909.899343240184, -12128.503576338719, 7435.6207174802685, -982.694444977575, -26595.31254712493, -33519.793572401235, 0.055, -0.0022187500000000002, 1.031625, 192.0, 0.0, 0.0, 0.0, 0.0, 0.0, 0.0, 0.0, 0.0, 0.0, 1.747687871264848E9, 0.0, 2025-05-19 22:51:11.264
162.0, 22941.227011826875, 17569.208749438378, 47782.82168898841, 30192.64700325096, 35063.15917529573, -291.9137825863102, 8430.452159697075, 555.3961462254699, 0.0, 0.0, 16904.24435189299, -12134.78441653066, 7412.129034057741, -1020.0889134513037, -26623.788669560992, -33556.33867458566, 0.055, -0.0022187500000000002, 1.031625, 192.0, 0.0, 0.0, 0.0, 0.0, 0.0, 0.0, 0.0, 0.0, 0.0, 1.747687871272888E9, 0.0, 2025-05-19 22:51:11.272
164.0, 22938.813023425704, 17566.794761037203, 47786.44267159017, 30199.710154498836, 35086.29323080698, -266.7904218185451, 8445.919566860148, 540.8898640739756, 0.0, 0.0, 16922.10339571278, -12118.78056750066, 7435.240737824529, -977.2182675860248, -26582.147369640756, -33518.675985178474, 0.055, -0.0022187500000000002, 1.031625, 192.0, 0.0, 0.0, 0.0, 0.0, 0.0, 0.0, 0.0, 0.0, 0.0, 1.747687871280942E9, 0.0, 2025-05-19 22:51:11.280
166.0, 22925.71490117489, 17555.596537065096, 47770.68469174918, 30183.54984325765, 35060.96870433912, -289.5892011629583, 8380.205438161545, 542.2533204857493, 0.0, 0.0, 16904.490221082, -12133.666829307895, 7425.13774933073, -1002.2075178870581, -26613.84214327838, -33536.75854644281, 0.055, -0.0022187500000000002, 1.031625, 192.0, 0.0, 0.0, 0.0, 0.0, 0.0, 0.0, 0.0, 0.0, 0.0, 1.74768787128895E9, 0.0, 2025-05-19 22:51:11.288
168.0, 22939.68474145946, 17566.146560448, 47783.93927621118, 30195.731543985792, 35076.257297546545, -283.08484352646394, 8454.43558149762, 547.4836286882912, 0.0, 0.0, 16907.239485650003, -12128.63768680545, 7412.777234646945, -1004.8673754772396, -26604.812038518434, -33546.146279114044, 0.0555, -1.093750000000001E-4, 1.0338125, 192.0, 0.5, 96.0, 0.0, 8.0, 16.0, 48.0, 0.0, 0.0, 0.0, 1.747687871297015E9, 0.0, 2025-05-19 22:51:11.297
170.0, 22926.78778490875, 17555.305964387175, 47772.78575572798, 30186.366163059018, 35076.681980691195, -266.4104421628049, 8395.762252302438, 537.4700471723137, 0.0, 0.0, 16905.697215282587, -12132.97392522978, 7429.362229032783, -982.9179624221281, -26593.658518035238, -33519.77122065678, 0.0555, -1.093750000000001E-4, 1.0338125, 192.0, 0.0, 0.0, 0.0, 0.0, 0.0, 0.0, 0.0, 0.0, 0.0, 1.747687871305994E9, 0.0, 2025-05-19 22:51:11.305
172.0, 22934.610895468104, 17563.531406346727, 47779.93831395368, 30193.719886984814, 35066.3778264973, -287.6669511398019, 8419.745674102984, 554.6138351695341, 0.0, 0.0, 16901.20451464707, -12132.862166507502, 7409.111548556274, -1012.757541269963, -26616.233779935097, -33551.0189594053, 0.0555, -1.093750000000001E-4, 1.0338125, 192.0, 0.0, 0.0, 0.0, 0.0, 0.0, 0.0, 0.0, 0.0, 0.0, 1.74768787131409E9, 0.0, 2025-05-19 22:51:11.314
174.0, 22934.29797104573, 17561.60915632357, 47790.51068908104, 30202.63823302248, 35088.79662618597, -254.1393344568413, 8436.19655802209, 542.9685763083191, 0.0, 0.0, 16917.25306716598, -12121.373369857476, 7430.5692232333695, -972.7255669505081, -26577.87818644979, -33517.35723225561, 0.0555, -1.093750000000001E-4, 1.0338125, 192.0, 0.0, 0.0, 0.0, 0.0, 0.0, 0.0, 0.0, 0.0, 0.0, 1.747687871322156E9, 0.0, 2025-05-19 22:51:11.322
176.0, 22925.73725291935, 17551.90849922997, 47778.55250579745, 30192.870520695513, 35065.55081195245, -288.29279998455047, 8392.163621445134, 551.328128734604, 0.0, 0.0, 16908.804107761873, -12132.482186851763, 7426.99294412052, -994.1385381386922, -26602.018070461523, -33532.4670115074, 0.0555, -1.093750000000001E-4, 1.0338125, 192.0, 0.0, 0.0, 0.0, 0.0, 0.0, 0.0, 0.0, 0.0, 0.0, 1.747687871329153E9, 0.0, 2025-05-19 22:51:11.329
178.0, 22934.432081512463, 17562.391467379508, 47785.906229723245, 30202.03473592219, 35077.88897489178, -280.6708551252908, 8449.138218061713, 557.9665968378303, 0.0, 0.0, 16913.319160141848, -12123.429730347363, 7413.827766636345, -994.6526282611643, -26592.987965701577, -33538.613741232606, 0.05675, 9.453125E-4, 1.03390625, 192.0, 0.5, 104.0, 0.0, 8.0, 16.0, 40.0, 0.0, 0.0, 0.0, 1.747687871337197E9, 0.0, 2025-05-19 22:51:11.337
180.0, 22920.752813905816, 17550.209766651365, 47774.88681970678, 30195.485674796782, 35081.308791793446, -261.6942240827351, 8397.192763947578, 548.6906228888778, 0.0, 0.0, 16907.284189138914, -12127.631858304961, 7429.719856944068, -974.8489826737622, -26586.103628409342, -33511.94811009742, 0.05675, 9.453125E-4, 1.03390625, 192.0, 0.0, 0.0, 0.0, 0.0, 0.0, 0.0, 0.0, 0.0, 0.0, 1.747687871345135E9, 0.0, 2025-05-19 22:51:11.345
182.0, 22924.552610463215, 17554.255432397775, 47776.76436624103, 30195.88800619698, 35059.53819269397, -291.243230252651, 8417.421092679631, 561.4981724617687, 0.0, 0.0, 16895.750688999975, -12136.97488748728, 7404.641199665213, -1008.9577447125608, -26614.51269561204, -33544.87222968009, 0.05675, 9.453125E-4, 1.03390625, 192.0, 0.0, 0.0, 0.0, 0.0, 0.0, 0.0, 0.0, 0.0, 0.0, 1.747687871353169E9, 0.0, 2025-05-19 22:51:11.353
184.0, 22929.738215176847, 17558.70342954438, 47786.50972682354, 30207.063878424633, 35088.19312908568, -260.7554508156122, 8424.506595671965, 551.1493147789615, 0.0, 0.0, 16913.96736073105, -12121.194555901833, 7426.098874342308, -970.1104128492372, -26576.60413701584, -33510.070563563175, 0.05675, 9.453125E-4, 1.03390625, 192.0, 0.0, 0.0, 0.0, 0.0, 0.0, 0.0, 0.0, 0.0, 0.0, 1.747687871361253E9, 0.0, 2025-05-19 22:51:11.361
186.0, 22919.992854594333, 17551.349705618584, 47776.76436624103, 30196.02211666371, 35061.90747760623, -275.55230564502546, 8393.907057512648, 561.8558003730536, 0.0, 0.0, 16905.831325749317, -12130.44817810633, 7424.646010952713, -992.2162881155358, -26603.515637340028, -33526.47674399337, 0.05675, 9.453125E-4, 1.03390625, 192.0, 0.0, 0.0, 0.0, 0.0, 0.0, 0.0, 0.0, 0.0, 0.0, 1.747687871368265E9, 0.0, 2025-05-19 22:51:11.368
188.0, 22937.091939102644, 17568.62760408254, 47796.50095659506, 30215.915169228934, 35079.31948653692, -269.6737968532797, 8466.617282225763, 562.615759684534, 0.0, 0.0, 16915.800203776384, -12122.178032657866, 7419.393351005716, -986.6060002572538, -26588.53996855497, -33529.13660158355, 0.061375, -5.2734375E-4, 1.033953125, 192.0, 1.0, 8.0, 127.5, 120.0, 16.0, 40.0, 0.0, 0.0, 0.0, 1.747687871377266E9, 0.0, 2025-05-19 22:51:11.377
190.0, 22922.764470906794, 17554.300135886686, 47784.05103493346, 30206.54978830216, 35078.8277481589, -255.9945292466318, 8411.05084550987, 557.2513410152603, 0.0, 0.0, 16920.494070112, -12113.840831976036, 7446.640127496735, -960.7673836669188, -26575.15127362624, -33497.53123492375, 0.061375, -5.2734375E-4, 1.033953125, 192.0, 0.0, 0.0, 0.0, 0.0, 0.0, 0.0, 0.0, 0.0, 0.0, 1.747687871385273E9, 0.0, 2025-05-19 22:51:11.385
192.0, 22933.515659989796, 17560.357458634076, 47791.33770362588, 30208.8296662366, 35066.08725381938, -277.02752077907576, 8440.398685979688, 570.103594077062, 0.0, 0.0, 16905.987787960505, -12126.827195504571, 7416.465272482071, -997.7818724849072, -26603.11330593983, -33535.50684875332, 0.061375, -5.2734375E-4, 1.033953125, 192.0, 0.0, 0.0, 0.0, 0.0, 0.0, 0.0, 0.0, 0.0, 0.0, 1.747687871392416E9, 0.0, 2025-05-19 22:51:11.392
194.0, 22931.50400298882, 17558.77048477775, 47793.952857727156, 30214.574064561617, 35085.689733706684, -255.90512226881057, 8442.879729614226, 553.0268613132073, 0.0, 0.0, 16926.551392859386, -12110.06338716309, 7442.214482094584, -960.052127844349, -26566.456445033127, -33502.314508237185, 0.061375, -5.2734375E-4, 1.033953125, 192.0, 0.0, 0.0, 0.0, 0.0, 0.0, 0.0, 0.0, 0.0, 0.0, 1.747687871402423E9, 0.0, 2025-05-19 22:51:11.402
196.0, 22922.20567729541, 17551.215595151854, 47782.15113665476, 30197.16205563093, 35059.31467524942, -276.0216922785869, 8397.840964536783, 557.5419136931794, 0.0, 0.0, 16910.972226974038, -12128.190651916344, 7431.932679645143, -987.5894770132873, -26598.061811692933, -33522.09580208013, 0.061375, -5.2734375E-4, 1.033953125, 192.0, 0.0, 0.0, 0.0, 0.0, 0.0, 0.0, 0.0, 0.0, 0.0, 1.747687871409393E9, 0.0, 2025-05-19 22:51:11.409
198.0, 22929.64880819903, 17556.781179521226, 47786.532078567994, 30205.588663290582, 35074.06682658992, -277.1616312458076, 8454.770857664449, 562.0793178176067, 0.0, 0.0, 16915.040244464904, -12122.669771035884, 7419.505109727992, -989.1988026140693, -26587.35532609884, -33528.98013937237, 0.06268750000000001, -2.63671875E-4, 1.0349765625, 192.0, 1.0, 0.0, 0.0, 0.0, 16.0, 48.0, 0.0, 0.0, 0.0, 1.747687871417427E9, 0.0, 2025-05-19 22:51:11.417
200.0, 22916.975369092866, 17544.95710670437, 47773.389252828274, 30188.377820059995, 35075.81026265744, -257.35798565840554, 8399.09266222628, 545.3378612205818, 0.0, 0.0, 16908.11120368376, -12133.152739185422, 7432.714990701079, -975.4971832629661, -26584.337840597374, -33510.495246707826, 0.06268750000000001, -2.63671875E-4, 1.0349765625, 192.0, 0.0, 0.0, 0.0, 0.0, 0.0, 0.0, 0.0, 0.0, 0.0, 1.74768787142746E9, 0.0, 2025-05-19 22:51:11.427
202.0, 22922.697415673425, 17549.33804861761, 47775.60207552935, 30189.607166005037, 35062.01923632852, -290.95265757473203, 8424.171319505134, 558.8159631271319, 0.0, 0.0, 16899.90811346866, -12142.227547434277, 7405.222345021051, -1013.62925930372, -26612.99277698908, -33552.516526283805, 0.06268750000000001, -2.63671875E-4, 1.0349765625, 192.0, 0.0, 0.0, 0.0, 0.0, 0.0, 0.0, 0.0, 0.0, 0.0, 1.747687871433492E9, 0.0, 2025-05-19 22:51:11.433
204.0, 22924.843183141136, 17553.897804486493, 47780.43005233169, 30197.385573075484, 35090.115379108836, -267.0362910075535, 8433.983735321013, 543.9520530643526, 0.0, 0.0, 16911.352206629777, -12129.040018205646, 7422.120263829263, -980.7721949544186, -26581.521520796006, -33523.05692709171, 0.06268750000000001, -2.63671875E-4, 1.0349765625, 192.0, 0.0, 0.0, 0.0, 0.0, 0.0, 0.0, 0.0, 0.0, 0.0, 1.747687871441512E9, 0.0, 2025-05-19 22:51:11.441
206.0, 22920.886924372546, 17547.102874172077, 47769.43299405969, 30187.170825859408, 35070.13291956579, -282.2578289816176, 8382.798240518361, 551.9986810682632, 0.0, 0.0, 16905.652511793676, -12134.762064786204, 7423.908403385688, -999.8829364637062, -26605.750811785558, -33535.90918015351, 0.06268750000000001, -2.63671875E-4, 1.0349765625, 192.0, 0.0, 0.0, 0.0, 0.0, 0.0, 0.0, 0.0, 0.0, 0.0, 1.74768787144854E9, 0.0, 2025-05-19 22:51:11.448
208.0, 22932.44277625594, 17556.28944114321, 47780.2288866316, 30198.30199459815, 35075.16206206824, -274.83704982245564, 8450.121694817746, 553.4738962023135, 0.0, 0.0, 16907.217133905546, -12134.560899086107, 7410.586763690325, -1003.3474568542788, -26600.45344834965, -33545.29691282474, 0.05934375, -1.318359375E-4, 1.03348828125, 192.0, 0.5, 96.0, 0.0, 0.0, 16.0, 32.0, 0.0, 0.0, 0.0, 1.747687871456558E9, 0.0, 2025-05-19 22:51:11.456
210.0, 22920.462241227895, 17547.79577825019, 47769.25418010404, 30188.199006104354, 35073.35157076735, -260.01784324858704, 8398.936200015092, 541.3368989630817, 0.0, 0.0, 16908.692349039597, -12131.185785673355, 7431.530348244947, -978.402910042156, -26586.952994698644, -33516.083182821654, 0.05934375, -1.318359375E-4, 1.03348828125, 192.0, 0.0, 0.0, 0.0, 0.0, 0.0, 0.0, 0.0, 0.0, 0.0, 1.747687871465585E9, 0.0, 2025-05-19 22:51:11.465
212.0, 22927.190116308942, 17555.752999276283, 47773.16573538372, 30189.182482860386, 35057.9735705821, -282.5707534039919, 8420.505633414465, 562.5487044511682, 0.0, 0.0, 16900.019872190936, -12141.758160800715, 7404.37297873175, -1017.6525733056752, -26620.36885265933, -33554.885811196065, 0.05934375, -1.318359375E-4, 1.03348828125, 192.0, 0.0, 0.0, 0.0, 0.0, 0.0, 0.0, 0.0, 0.0, 0.0, 1.747687871473609E9, 0.0, 2025-05-19 22:51:11.473
214.0, 22922.25038078432, 17551.863795741057, 47778.35134009735, 30196.625613764005, 35082.7840069275, -263.77293631707863, 8442.008011580469, 552.0657363016292, 0.0, 0.0, 16909.96639847355, -12131.252840906722, 7421.89674638471, -979.2522763314578, -26581.633279518283, -33521.35819451311, 0.05934375, -1.318359375E-4, 1.03348828125, 192.0, 0.0, 0.0, 0.0, 0.0, 0.0, 0.0, 0.0, 0.0, 0.0, 1.747687871480655E9, 0.0, 2025-05-19 22:51:11.480
216.0, 22916.573037692673, 17548.0416474392, 47767.935427181175, 30188.51193052673, 35058.88999210477, -278.65919812431315, 8393.057691223346, 559.2406462717827, 0.0, 0.0, 16899.52813381292, -12137.131349698468, 7420.108606828286, -997.4018928291671, -26606.309605396942, -33531.99762487383, 0.05934375, -1.318359375E-4, 1.03348828125, 192.0, 0.0, 0.0, 0.0, 0.0, 0.0, 0.0, 0.0, 0.0, 0.0, 1.747687871488656E9, 0.0, 2025-05-19 22:51:11.488
218.0, 22924.597313952127, 17555.730647531826, 47778.79837498646, 30200.872445210513, 35077.3301812804, -267.4162706632937, 8456.648404198695, 570.7294429218106, 0.0, 0.0, 16899.371671601733, -12130.045846706134, 7406.518746199459, -997.5807067848095, -26597.011279703533, -33536.87030516509, 0.059671875, 9.3408203125E-4, 1.029744140625, 192.0, 0.5, 112.0, 0.0, 8.0, 16.0, 8.0, 0.0, 0.0, 0.0, 1.747687871496689E9, 0.0, 2025-05-19 22:51:11.496
220.0, 22921.02103483928, 17547.482853827816, 47775.8255929739, 30195.731543985792, 35075.6761521907, -258.69909032572394, 8398.399758148165, 560.0453090721737, 0.0, 0.0, 16904.2890553819, -12129.330590883565, 7429.18341507714, -972.2338285724913, -26581.946203940657, -33505.48845594984, 0.059671875, 9.3408203125E-4, 1.029744140625, 192.0, 0.0, 0.0, 0.0, 0.0, 0.0, 0.0, 0.0, 0.0, 0.0, 1.747687871506686E9, 0.0, 2025-05-19 22:51:11.506
222.0, 22926.005473852812, 17550.70150502938, 47776.78671798548, 30193.429314306894, 35063.405044484745, -281.3637592034053, 8426.3394387173, 566.102631819562, 0.0, 0.0, 16901.40568034717, -12136.997239231736, 7406.22817352154, -1009.404779601667, -26609.88588450979, -33546.1686308585, 0.059671875, 9.3408203125E-4, 1.029744140625, 192.0, 0.0, 0.0, 0.0, 0.0, 0.0, 0.0, 0.0, 0.0, 0.0, 1.747687871512716E9, 0.0, 2025-05-19 22:51:11.512
224.0, 22927.793613409238, 17553.85310099758, 47779.200706386655, 30195.88800619698, 35091.41178028724, -264.44348865073783, 8441.04688656889, 547.3718699660146, 0.0, 0.0, 16911.352206629777, -12124.569669314584, 7422.544946973914, -975.3854245406897, -26576.738247482568, -33517.848970633626, 0.059671875, 9.3408203125E-4, 1.029744140625, 192.0, 0.0, 0.0, 0.0, 0.0, 0.0, 0.0, 0.0, 0.0, 0.0, 1.74768787152074E9, 0.0, 2025-05-19 22:51:11.520
226.0, 22919.09878481612, 17541.738455502804, 47762.05691838943, 30176.59845073205, 35065.908439863735, -284.49300342714827, 8391.135441200191, 547.7742013662101, 0.0, 0.0, 16896.331834355813, -12144.64153583545, 7411.65964742418, -1001.2240411310246, -26607.44954436416, -33538.949017399435, 0.059671875, 9.3408203125E-4, 1.029744140625, 192.0, 0.0, 0.0, 0.0, 0.0, 0.0, 0.0, 0.0, 0.0, 0.0, 1.747687871529781E9, 0.0, 2025-05-19 22:51:11.529
228.0, 22921.423366239473, 17547.41579859445, 47762.36984281181, 30179.772398444704, 35069.90940212124, -284.5824104049695, 8434.117845787745, 542.8568175860427, 0.0, 0.0, 16892.666148265143, -12144.26155617971, 7394.135879771219, -1009.2036139015692, -26606.734288541593, -33553.05296815073, 0.059671875, 9.3408203125E-4, 1.029744140625, 192.0, 0.0, 0.0, 0.0, 0.0, 0.0, 0.0, 0.0, 0.0, 0.0, 1.747687871536786E9, 0.0, 2025-05-19 22:51:11.536
230.0, 22913.62260742457, 17542.319600858642, 47760.71581372211, 30180.130026355986, 35075.54204172397, -268.9585410307099, 8398.824441292816, 542.4991896747578, 0.0, 0.0, 16888.285206351902, -12147.279041681177, 7410.877336368244, -993.0433026603822, -26601.906311739247, -33529.24836030583, 0.06, 0.0, 1.024, 192.0, 0.5, 112.0, 0.0, 0.0, 16.0, 0.0, 0.0, 0.0, 0.0, 1.74768787154483E9, 0.0, 2025-05-19 22:51:11.544
232.0, 22924.753776163314, 17552.981382963822, 47766.9743021696, 30186.343811314564, 35058.018274071015, -293.9701430761985, 8422.874918326726, 560.3135300056374, 0.0, 0.0, 16891.235636620004, -12144.060390479612, 7395.544039671903, -1019.3960093731893, -26620.771184059526, -33555.98104667438, 0.06, 0.0, 1.024, 192.0, 0.0, 0.0, 0.0, 0.0, 0.0, 0.0, 0.0, 0.0, 0.0, 1.747687871552891E9, 0.0, 2025-05-19 22:51:11.552
234.0, 22923.770299407282, 17556.62471731004, 47773.54571503946, 30193.764590473726, 35080.593535970875, -264.890523539844, 8436.218909766545, 545.8519513430538, 0.0, 0.0, 16902.1879914031, -12130.649343806428, 7414.520670714459, -983.4991077779661, -26588.472913321606, -33522.028746846765, 0.06, 0.0, 1.024, 192.0, 0.0, 0.0, 0.0, 0.0, 0.0, 0.0, 0.0, 0.0, 0.0, 1.747687871560856E9, 0.0, 2025-05-19 22:51:11.560
236.0, 22920.909276117003, 17552.80256900818, 47765.20851435763, 30183.9745264023, 35059.24762001605, -277.407500434816, 8394.018816234924, 549.5176374337242, 0.0, 0.0, 16894.051956421372, -12141.646402078439, 7411.391426490716, -1006.7449220114854, -26616.300835168462, -33538.21140983241, 0.06, 0.0, 1.024, 192.0, 0.0, 0.0, 0.0, 0.0, 0.0, 0.0, 0.0, 0.0, 0.0, 1.747687871568922E9, 0.0, 2025-05-19 22:51:11.568
238.0, 22927.480688986863, 17560.692734800905, 47774.708005751134, 30196.424448063906, 35070.803471899446, -274.56882888899196, 8451.239282040511, 562.5710561956234, 0.0, 0.0, 16902.63502629221, -12131.342247884542, 7405.714083399068, -1005.4708725775329, -26602.88978849528, -33542.43588953446, 0.06, 0.0, 1.024, 192.0, 0.0, 0.0, 0.0, 0.0, 0.0, 0.0, 0.0, 0.0, 0.0, 1.747687871576953E9, 0.0, 2025-05-19 22:51:11.576
240.0, 22915.991892336835, 17546.9911154498, 47761.49812477805, 30184.64507873596, 35070.445843988164, -265.35991017340547, 8398.533868614897, 542.9462245638639, 0.0, 0.0, 16899.34931985728, -12132.124558940479, 7423.483720241037, -984.7061019785526, -26590.082238922387, -33518.40776424501, 0.054, -0.006, 1.028, 192.0, 0.5, 88.0, 127.5, 104.0, 16.0, 16.0, 0.0, 0.0, 0.0, 1.747687871585997E9, 0.0, 2025-05-19 22:51:11.585
242.0, 22922.38449125105, 17554.255432397775, 47765.38732831327, 30189.093075882563, 35055.157250780736, -287.6669511398019, 8422.897270071182, 557.877189860009, 0.0, 0.0, 16890.85565696426, -12141.936974756358, 7398.360359473272, -1022.9052332526724, -26621.84406779338, -33558.86442170911, 0.054, -0.006, 1.028, 192.0, 0.0, 0.0, 0.0, 0.0, 0.0, 0.0, 0.0, 0.0, 0.0, 1.747687871593003E9, 0.0, 2025-05-19 22:51:11.593
244.0, 22918.875267371568, 17555.48477834282, 47774.05980516193, 30197.027945164198, 35083.812187172436, -260.68839558224624, 8435.213081266056, 544.6002536535566, 0.0, 0.0, 16906.077194938327, -12123.653247791917, 7420.689752184124, -980.2134013430359, -26582.817921974412, -33518.899502623026, 0.054, -0.006, 1.028, 192.0, 0.0, 0.0, 0.0, 0.0, 0.0, 0.0, 0.0, 0.0, 0.0, 1.747687871601032E9, 0.0, 2025-05-19 22:51:11.601
246.0, 22915.477802214362, 17548.175757905934, 47765.34262482436, 30182.16403510142, 35059.98522758308, -275.88758181185506, 8382.060632951336, 547.0365937991851, 0.0, 0.0, 16891.72737499802, -12142.004029989725, 7411.190260790618, -1005.6049830442647, -26611.003471732554, -33538.032595876764, 0.054, -0.006, 1.028, 192.0, 0.0, 0.0, 0.0, 0.0, 0.0, 0.0, 0.0, 0.0, 0.0, 1.747687871609039E9, 0.0, 2025-05-19 22:51:11.609
248.0, 22920.685758672447, 17551.52851957423, 47773.14338363927, 30188.06489563762, 35071.585782955386, -273.7641660886009, 8443.52793020343, 548.5565124221459, 0.0, 0.0, 16900.623369291232, -12139.008896232712, 7400.394368218705, -1007.6389917896977, -26602.800381517456, -33548.69437798195, 0.054, -0.006, 1.028, 192.0, 0.0, 0.0, 0.0, 0.0, 0.0, 0.0, 0.0, 0.0, 0.0, 1.747687871617069E9, 0.0, 2025-05-19 22:51:11.617
250.0, 22909.91221784499, 17542.833690981115, 47768.024834159, 30185.136817113977, 35072.81512890042, -269.9420177867434, 8406.781662318905, 536.6206808830119, 0.0, 0.0, 16899.48343032401, -12137.891309009947, 7420.198013806107, -980.3475118097678, -26587.087105165378, -33517.80426714471, 0.056, -0.002, 1.022, 192.0, 0.5, 96.0, 127.5, 120.0, 15.5, 120.0, 0.0, 0.0, 0.0, 1.747687871624137E9, 0.0, 2025-05-19 22:51:11.624
252.0, 22915.790726636737, 17548.42162709494, 47770.5729330269, 30185.53914851417, 35055.20195426964, -291.8020238640337, 8428.462854440553, 551.5069426902464, 0.0, 0.0, 16889.11222089675, -12143.21102419031, 7395.432280949626, -1017.2725936499351, -26616.479649124107, -33554.66229375151, 0.056, -0.002, 1.022, 192.0, 0.0, 0.0, 0.0, 0.0, 0.0, 0.0, 0.0, 0.0, 0.0, 1.74768787163313E9, 0.0, 2025-05-19 22:51:11.633
254.0, 22920.21637203889, 17552.55669981917, 47777.63608427478, 30195.485674796782, 35077.598402213865, -259.1461252148301, 8433.737866132005, 544.5108466757354, 0.0, 0.0, 16904.400814104178, -12131.92339324038, 7414.99005734802, -982.7838519553962, -26583.98021268609, -33522.58754045815, 0.056, -0.002, 1.022, 192.0, 0.0, 0.0, 0.0, 0.0, 0.0, 0.0, 0.0, 0.0, 0.0, 1.747687871641207E9, 0.0, 2025-05-19 22:51:11.641
0.0, 22914.784898136248, 17549.248641639788, 47769.768270226516, 30186.96966015931, 35054.33023623589, -272.84774456593334, 8390.420185377621, 553.5185996912242, 0.0, 0.0, 16897.04709017838, -12140.059428222112, 7414.99005734802, -1002.8333667318067, -26609.796477531967, -33535.0151103753, 0.056, -0.002, 1.022, 192.0, 0.0, 0.0, 0.0, 0.0, 0.0, 0.0, 0.0, 0.0, 0.0, 1.747687871648201E9, 0.0, 2025-05-19 22:51:11.648
2.0, 22924.329093018663, 17559.821016767146, 47781.25706687654, 30202.03473592219, 35067.249544531056, -268.3773956748719, 8446.05367732688, 557.7654311377324, 0.0, 0.0, 16904.44551759309, -12129.01766646119, 7406.22817352154, -1001.5816690423095, -26599.738192527082, -33539.10547961062, 0.056, -0.002, 1.022, 192.0, 0.0, 0.0, 0.0, 0.0, 0.0, 0.0, 0.0, 0.0, 0.0, 1.747687871656236E9, 0.0, 2025-05-19 22:51:11.656
4.0, 22914.91900860298, 17550.209766651365, 47772.96456968362, 30190.702401483348, 35071.09404457737, -255.16751470178542, 8401.126670971713, 541.8733408300092, 0.0, 0.0, 16902.702081525575, -12128.861204250003, 7427.32822028735, -976.7041774635527, -26586.103628409342, -33510.89757810802, 0.06, -0.002, 1.028, 192.0, 0.5, 112.0, 127.5, 120.0, 16.0, 16.0, 0.0, 0.0, 0.0, 1.747687871665268E9, 0.0, 2025-05-19 22:51:11.665
6.0, 22922.138622062044, 17553.60723180857, 47776.38438658528, 30193.0269829067, 35057.14655603726, -286.4152534503047, 8425.870052083737, 555.8208293701207, 0.0, 0.0, 16895.326005855324, -12138.517157854696, 7401.221382763551, -1013.62925930372, -26614.04330897848, -33551.175421616485, 0.06, -0.002, 1.028, 192.0, 0.0, 0.0, 0.0, 0.0, 0.0, 0.0, 0.0, 0.0, 0.0, 1.747687871672305E9, 0.0, 2025-05-19 22:51:11.672
8.0, 22916.01424408129, 17550.433284095918, 47774.41743307322, 30195.664488752427, 35080.57118422642, -261.761279316101, 8436.487130700008, 542.2533204857493, 0.0, 0.0, 16901.226866391524, -12132.437483362852, 7413.246621280507, -978.1346891086923, -26580.44863706215, -33519.54770321223, 0.06, -0.002, 1.028, 192.0, 0.0, 0.0, 0.0, 0.0, 0.0, 0.0, 0.0, 0.0, 0.0, 1.747687871680325E9, 0.0, 2025-05-19 22:51:11.680
10.0, 22919.09878481612, 17550.835615496115, 47767.28722659197, 30188.86955843801, 35060.49931770555, -272.6018753769249, 8384.340510885777, 547.3495182215594, 0.0, 0.0, 16892.19676163158, -12140.685277066861, 7411.257316023984, -1000.1064539082593, -26609.237683920586, -33533.092860352146, 0.06, -0.002, 1.028, 192.0, 0.0, 0.0, 0.0, 0.0, 0.0, 0.0, 0.0, 0.0, 0.0, 1.747687871689418E9, 0.0, 2025-05-19 22:51:11.689
12.0, 22928.710034931904, 17558.055228955178, 47773.41160457273, 30195.195102118865, 35070.19997479916, -275.6193608783914, 8434.989563821502, 549.3835269669923, 0.0, 0.0, 16901.38332860271, -12133.175090929877, 7404.149461287197, -1002.1404626536921, -26601.794553016967, -33541.92179941199, 0.06, -0.002, 1.028, 192.0, 0.0, 0.0, 0.0, 0.0, 0.0, 0.0, 0.0, 0.0, 0.0, 1.747687871697405E9, 0.0, 2025-05-19 22:51:11.697
14.0, 22912.10268880161, 17541.559641547163, 47761.721642222605, 30181.6722967234, 35071.854003888846, -271.2831224540618, 8395.382272646699, 539.7052216178444, 0.0, 0.0, 16894.83426747731, -12139.277117166177, 7417.56050796038, -989.0870438917929, -26598.59825355986, -33522.49813348033, 0.058, -0.002, 1.03, 192.0, 0.5, 104.0, 127.5, 120.0, 16.0, 24.0, 0.0, 0.0, 0.0, 1.747687871704478E9, 0.0, 2025-05-19 22:51:11.704
16.0, 22925.78195640826, 17555.641240554007, 47761.587531755875, 30177.917203654913, 35061.90747760623, -298.99928557864257, 8415.185918234101, 548.3106432331375, 0.0, 0.0, 16889.42514531912, -12144.708591068817, 7394.851135593789, -1019.8430442622954, -26619.452431136662, -33554.684645495974, 0.058, -0.002, 1.03, 192.0, 0.0, 0.0, 0.0, 0.0, 0.0, 0.0, 0.0, 0.0, 0.0, 1.747687871712443E9, 0.0, 2025-05-19 22:51:11.712
18.0, 22913.913180102492, 17549.47215908434, 47764.11327887932, 30184.39920954695, 35077.017256858024, -266.7904218185451, 8420.058598525358, 532.2397389697718, 0.0, 0.0, 16886.83234296231, -12147.234338192266, 7398.069786795353, -1001.2240411310246, -26602.06277395043, -33539.440755777454, 0.058, -0.002, 1.03, 192.0, 0.0, 0.0, 0.0, 0.0, 0.0, 0.0, 0.0, 0.0, 0.0, 1.747687871721499E9, 0.0, 2025-05-19 22:51:11.721
20.0, 22916.9083138595, 17553.51782483075, 47767.041357402966, 30183.751008957748, 35058.33119849339, -283.71069237121253, 8385.256932408445, 548.6906228888778, 0.0, 0.0, 16887.324081340324, -12143.680410823872, 7406.675208410646, -1004.8897272216949, -26611.383451388294, -33539.30664531072, 0.058, -0.002, 1.03, 192.0, 0.0, 0.0, 0.0, 0.0, 0.0, 0.0, 0.0, 0.0, 0.0, 1.747687871728514E9, 0.0, 2025-05-19 22:51:11.728
22.0, 22928.53122097626, 17566.839464526114, 47781.63704653228, 30202.235901622287, 35063.4273962292, -275.3287882004724, 8458.123619332746, 557.4301549709029, 0.0, 0.0, 16900.33279661331, -12128.54827982763, 7404.238868265018, -999.4359015746, -26596.385430858783, -33539.2172383329, 0.058, -0.002, 1.03, 192.0, 0.0, 0.0, 0.0, 0.0, 0.0, 0.0, 0.0, 0.0, 0.0, 1.74768787173653E9, 0.0, 2025-05-19 22:51:11.736
24.0, 22923.92676161847, 17567.845293026603, 47776.74201449657, 30201.63240452199, 35068.18831779818, -246.38327913084976, 8408.882726297705, 548.5341606776906, 0.0, 0.0, 16903.372633859235, -12123.340323369543, 7430.8597959112885, -971.2727035609131, -26581.387410329273, -33506.85191236161, 0.062, -0.01, 1.034, 192.0, 0.5, 120.0, 127.5, 88.0, 16.0, 40.0, 0.0, 0.0, 0.0, 1.747687871744582E9, 0.0, 2025-05-19 22:51:11.744
26.0, 22927.570095964682, 17574.461409385374, 47780.944142454166, 30205.812180735134, 35047.04356754346, -263.2811979390619, 8435.928337088626, 569.2765795322156, 0.0, 0.0, 16898.54465705689, -12125.620201303984, 7411.145557301707, -1008.1307301677144, -26609.841181020878, -33542.391186045556, 0.062, -0.01, 1.034, 192.0, 0.0, 0.0, 0.0, 0.0, 0.0, 0.0, 0.0, 0.0, 0.0, 1.747687871753651E9, 0.0, 2025-05-19 22:51:11.753
28.0, 22929.00060760982, 17580.406973410485, 47784.18514540019, 30212.003613949255, 35069.01533234303, -240.77299127256768, 8443.170302292145, 560.2017712833609, 0.0, 0.0, 16914.92848574263, -12105.347169083021, 7436.313621558384, -967.9422936370723, -26571.172663113197, -33504.43792396044, 0.062, -0.01, 1.034, 192.0, 0.0, 0.0, 0.0, 0.0, 0.0, 0.0, 0.0, 0.0, 0.0, 1.747687871760713E9, 0.0, 2025-05-19 22:51:11.760
30.0, 22930.87815414407, 17580.026993754745, 47778.17252614171, 30204.046392923166, 35045.65775938723, -254.20638969020723, 8403.227734950511, 569.164820809939, 0.0, 0.0, 16903.976130959527, -12116.411282588397, 7433.474950012559, -986.6507037461644, -26597.12303842581, -33516.865493877594, 0.062, -0.01, 1.034, 192.0, 0.0, 0.0, 0.0, 0.0, 0.0, 0.0, 0.0, 0.0, 0.0, 1.747687871768688E9, 0.0, 2025-05-19 22:51:11.768
32.0, 22940.847032171136, 17595.069717773167, 47786.35326461235, 30217.055108196153, 35059.694654905164, -248.52904659855923, 8455.664927442662, 574.8868673904976, 0.0, 0.0, 16914.10147119778, -12104.900134193915, 7425.51772898647, -987.4777182910108, -26588.428209832695, -33522.56518871369, 0.062, -0.01, 1.034, 192.0, 0.0, 0.0, 0.0, 0.0, 0.0, 0.0, 0.0, 0.0, 0.0, 1.747687871776643E9, 0.0, 2025-05-19 22:51:11.776
34.0, 22925.87136338608, 17579.803476310193, 47770.50587779354, 30200.805389977148, 35060.544021194466, -236.50380808160403, 8402.937162272592, 561.2746550172157, 0.0, 0.0, 16904.266703637448, -12108.766985984683, 7438.839368681833, -973.3067123063461, -26584.69546850866, -33501.66630764798, 0.062, -0.006, 1.034, 192.0, 0.5, 120.0, 127.5, 104.0, 16.0, 40.0, 0.0, 0.0, 0.0, 1.747687871784659E9, 0.0, 2025-05-19 22:51:11.784
36.0, 22937.427215269472, 17589.593540381615, 47774.14921213975, 30205.8792359685, 35047.64706464375, -259.5931601039362, 8427.032342795414, 577.5690767251346, 0.0, 0.0, 16894.297825610378, -12117.30535236661, 7411.458481724082, -1008.8906894791949, -26613.84214327838, -33538.14435459904, 0.062, -0.006, 1.034, 192.0, 0.0, 0.0, 0.0, 0.0, 0.0, 0.0, 0.0, 0.0, 0.0, 1.747687871792716E9, 0.0, 2025-05-19 22:51:11.792
38.0, 22943.082206616666, 17593.147467750012, 47781.63704653228, 30213.009442449744, 35074.60326845685, -231.76523825707892, 8443.460874970064, 567.3543295090592, 0.0, 0.0, 16910.793413018397, -12104.989541171735, 7432.9161564011765, -968.0764041038042, -26574.748942226048, -33501.263976247785, 0.062, -0.006, 1.034, 192.0, 0.0, 0.0, 0.0, 0.0, 0.0, 0.0, 0.0, 0.0, 0.0, 1.747687871800695E9, 0.0, 2025-05-19 22:51:11.800
40.0, 22934.163860579, 17586.643110113517, 47771.53405803848, 30199.665451009925, 35045.09896577585, -254.4746106236709, 8396.097528469269, 569.9247801214195, 0.0, 0.0, 16899.706947768565, -12123.094454180535, 7426.367095275771, -991.8139567153403, -26602.666271050726, -33520.01708984579, 0.062, -0.006, 1.034, 192.0, 0.0, 0.0, 0.0, 0.0, 0.0, 0.0, 0.0, 0.0, 0.0, 1.747687871808693E9, 0.0, 2025-05-19 22:51:11.808
42.0, 22937.06958735819, 17591.62754912705, 47779.78185174249, 30209.544922059173, 35054.03966355797, -254.96634900168766, 8459.554130977886, 563.8898091184866, 0.0, 0.0, 16903.2385233925, -12114.645494776429, 7413.760711402979, -991.724549737519, -26591.333936611885, -33529.20365681692, 0.062, -0.006, 1.034, 192.0, 0.0, 0.0, 0.0, 0.0, 0.0, 0.0, 0.0, 0.0, 0.0, 1.747687871816818E9, 0.0, 2025-05-19 22:51:11.816
44.0, 22940.623514726583, 17598.95892130839, 47777.94900869716, 30209.522570314715, 35060.544021194466, -234.1568749137968, 8408.390987919687, 552.0210328127185, 0.0, 0.0, 16905.5407530714, -12108.92344819587, 7439.889900671233, -970.4233372716114, -26583.466122563615, -33503.76737162678, 0.058, -0.004, 1.032, 192.0, 0.5, 104.0, 127.5, 112.0, 16.0, 32.0, 0.0, 0.0, 0.0, 1.747687871824739E9, 0.0, 2025-05-19 22:51:11.824
46.0, 22957.253212601332, 17614.716901149382, 47784.81099424494, 30216.339852373585, 35044.76368960902, -246.5173895975816, 8420.818557836837, 569.2542277877603, 0.0, 0.0, 16911.173392674136, -12102.508497537196, 7431.731513945046, -1003.1015876652704, -26609.192980431675, -33535.37273828658, 0.058, -0.004, 1.032, 192.0, 0.0, 0.0, 0.0, 0.0, 0.0, 0.0, 0.0, 0.0, 0.0, 1.747687871832877E9, 0.0, 2025-05-19 22:51:11.832
48.0, 22958.460206801916, 17617.77909013976, 47796.76917752853, 30229.080346713108, 35070.57995445489, -227.67486902175773, 8441.42686622463, 560.0453090721737, 0.0, 0.0, 16922.282209668425, -12088.002215385703, 7453.658575255701, -966.9141133921282, -26574.659535248225, -33501.97923207036, 0.058, -0.004, 1.032, 192.0, 0.0, 0.0, 0.0, 0.0, 0.0, 0.0, 0.0, 0.0, 0.0, 1.747687871839908E9, 0.0, 2025-05-19 22:51:11.839
50.0, 22951.508814276316, 17611.52060169227, 47789.86248849183, 30221.324291387118, 35052.51974493501, -239.2530726496068, 8387.916789998626, 570.0141870992408, 0.0, 0.0, 16921.186974190114, -12091.422032287364, 7460.453505570114, -981.6662647326309, -26594.08320117989, -33510.27172926327, 0.058, -0.004, 1.032, 192.0, 0.0, 0.0, 0.0, 0.0, 0.0, 0.0, 0.0, 0.0, 0.0, 1.747687871848876E9, 0.0, 2025-05-19 22:51:11.848
52.0, 22965.948041194446, 17625.35633151011, 47804.927564254715, 30234.109489215552, 35066.86956487531, -228.4571800776935, 8458.01186061047, 581.8829634050088, 0.0, 0.0, 16925.00912249197, -12083.218942072266, 7448.6517844977125, -981.1074711212482, -26586.170683642707, -33514.138581054045, 0.058, -0.004, 1.032, 192.0, 0.0, 0.0, 0.0, 0.0, 0.0, 0.0, 0.0, 0.0, 0.0, 1.747687871856975E9, 0.0, 2025-05-19 22:51:11.856
54.0, 22947.641962485548, 17608.10078479061, 47790.19776465867, 30220.11729718653, 35070.42349224371, -222.37750558584997, 8399.047958737368, 565.6779486749111, 0.0, 0.0, 16924.740901558507, -12084.381232783942, 7467.963691707098, -956.341738264768, -26572.089084635867, -33485.23777547333, 0.06, -0.006, 1.03, 192.0, 0.5, 112.0, 127.5, 104.0, 16.0, 24.0, 0.0, 0.0, 0.0, 1.74768787186491E9, 0.0, 2025-05-19 22:51:11.864
56.0, 22951.419407298497, 17610.850049358614, 47791.3824071148, 30221.614864065035, 35053.36911122431, -246.13740994184138, 8429.021648051936, 576.6303034580116, 0.0, 0.0, 16907.95474147257, -12100.67565449186, 7432.849101167811, -996.6866370065973, -26605.41553561873, -33527.16964807149, 0.06, -0.006, 1.03, 192.0, 0.0, 0.0, 0.0, 0.0, 0.0, 0.0, 0.0, 0.0, 0.0, 1.747687871871931E9, 0.0, 2025-05-19 22:51:11.871
58.0, 22953.945154421945, 17612.81700287068, 47795.3833693723, 30226.55459958966, 35076.883146391294, -216.65545900529136, 8443.930261603626, 562.5934079400788, 0.0, 0.0, 16923.220982935545, -12083.218942072266, 7456.072563656875, -954.5312469638881, -26564.981229899076, -33489.730476108845, 0.06, -0.006, 1.03, 192.0, 0.0, 0.0, 0.0, 0.0, 0.0, 0.0, 0.0, 0.0, 0.0, 1.747687871880966E9, 0.0, 2025-05-19 22:51:11.880
60.0, 22945.69736071794, 17602.401089954506, 47780.69827326516, 30210.55075055966, 35051.60332341234, -242.56113082899225, 8392.56595284533, 561.7216899063218, 0.0, 0.0, 16908.379424617222, -12101.502669036707, 7445.500188529514, -981.3309885658012, -26596.720707025615, -33510.51759845229, 0.06, -0.006, 1.03, 192.0, 0.0, 0.0, 0.0, 0.0, 0.0, 0.0, 0.0, 0.0, 0.0, 1.747687871888985E9, 0.0, 2025-05-19 22:51:11.888
62.0, 22953.29695383274, 17611.2076772699, 47785.30273262295, 30220.02789020871, 35066.266067775025, -237.17436041526324, 8455.933148376125, 574.2833702902044, 0.0, 0.0, 16913.989712475504, -12092.092584621023, 7435.352496546805, -980.7721949544186, -26586.1259801538, -33515.79261014373, 0.06, -0.006, 1.03, 192.0, 0.0, 0.0, 0.0, 0.0, 0.0, 0.0, 0.0, 0.0, 0.0, 1.747687871896053E9, 0.0, 2025-05-19 22:51:11.896
64.0, 22943.305724061218, 17599.58477015314, 47773.948046439655, 30206.21451213533, 35063.025064829, -232.07816267945324, 8394.823479035316, 556.7819543816989, 0.0, 0.0, 16905.96543621605, -12104.810727216092, 7445.164912362685, -966.176505825103, -26581.87914870729, -33495.94426106742, 0.056, -0.006, 1.034, 192.0, 0.5, 96.0, 127.5, 104.0, 16.0, 40.0, 0.0, 0.0, 0.0, 1.747687871906091E9, 0.0, 2025-05-19 22:51:11.906
66.0, 22956.180328867475, 17613.554610437706, 47782.754633755045, 30213.232959894296, 35045.88127683178, -244.3045668965062, 8437.649421411685, 578.4631465033468, 0.0, 0.0, 16903.573799559334, -12112.186802886345, 7423.059037096386, -1004.9120789661503, -26610.17645718771, -33535.0151103753, 0.056, -0.006, 1.034, 192.0, 0.0, 0.0, 0.0, 0.0, 0.0, 0.0, 0.0, 0.0, 0.0, 1.747687871913091E9, 0.0, 2025-05-19 22:51:11.913
68.0, 22945.965581651402, 17604.94918882241, 47783.44753783316, 30219.69261404188, 35067.92009686471, -221.28227010753992, 8450.702840173584, 569.3883382544922, 0.0, 0.0, 16913.833250264317, -12095.355939311497, 7444.360249562294, -963.7401656794747, -26572.223195102597, -33497.9559180684, 0.056, -0.006, 1.034, 192.0, 0.0, 0.0, 0.0, 0.0, 0.0, 0.0, 0.0, 0.0, 0.0, 1.74768787192014E9, 0.0, 2025-05-19 22:51:11.920
70.0, 22937.91895364749, 17602.043462043224, 47761.00638640003, 30192.267023595217, 35039.15340175074, -244.9527674857101, 8388.430880121097, 562.101669562062, 0.0, 0.0, 16896.53300005591, -12113.68436976485, 7433.5643569903805, -992.5515642823655, -26604.36500362933, -33520.39706950153, 0.056, -0.006, 1.034, 192.0, 0.0, 0.0, 0.0, 0.0, 0.0, 0.0, 0.0, 0.0, 0.0, 1.747687871928182E9, 0.0, 2025-05-19 22:51:11.928
72.0, 22946.85965142961, 17609.508944691293, 47774.41743307322, 30204.560483045636, 35056.16307928122, -240.8176947614783, 8457.810694910371, 567.1308120645061, 0.0, 0.0, 16897.20355238957, -12112.96911394228, 7418.901612627699, -1001.8275382313178, -26601.951015228155, -33536.82560167618, 0.056, -0.006, 1.034, 192.0, 0.0, 0.0, 0.0, 0.0, 0.0, 0.0, 0.0, 0.0, 0.0, 1.747687871937102E9, 0.0, 2025-05-19 22:51:11.937
74.0, 22941.87521241608, 17604.34569172212, 47773.7245289951, 30203.241730122776, 35057.88416360428, -228.1666073997745, 8402.333665172298, 561.1852480393944, 0.0, 0.0, 16900.980997202518, -12109.348131340521, 7443.868511184277, -978.7605379534409, -26589.299927866454, -33507.72363039537, 0.052000000000000005, 0.0, 1.034, 192.0, 0.5, 80.0, 0.0, 0.0, 16.0, 40.0, 0.0, 0.0, 0.0, 1.747687871945234E9, 0.0, 2025-05-19 22:51:11.945
76.0, 22954.146320122043, 17615.81213662769, 47783.71575876662, 30213.255311638753, 35050.038701300466, -238.85074124941127, 8430.452159697075, 578.1949255698831, 0.0, 0.0, 16905.47369783803, -12105.503631294207, 7428.714028443579, -1008.5107098234547, -26610.914064754736, -33538.34552029914, 0.052000000000000005, 0.0, 1.034, 192.0, 0.0, 0.0, 0.0, 0.0, 0.0, 0.0, 0.0, 0.0, 0.0, 1.747687871952204E9, 0.0, 2025-05-19 22:51:11.952
78.0, 22955.018038155802, 17614.06870056018, 47791.60592455935, 30224.922922244423, 35076.525518480004, -216.0966653939087, 8447.752409905483, 568.8295446431094, 0.0, 0.0, 16921.879878268228, -12083.19659032781, 7454.306775844905, -964.6118837132316, -26571.239718346565, -33496.48070293435, 0.052000000000000005, 0.0, 1.034, 192.0, 0.0, 0.0, 0.0, 0.0, 0.0, 0.0, 0.0, 0.0, 0.0, 1.747687871960207E9, 0.0, 2025-05-19 22:51:11.960
80.0, 22948.513680519307, 17604.748023122316, 47784.36395935583, 30211.243654637776, 35058.1747362822, -231.9440522127214, 8399.405586648654, 571.8023266556653, 0.0, 0.0, 16913.29680839739, -12096.719395723272, 7449.52350253147, -985.466061290033, -26596.54189306997, -33511.63518567505, 0.052000000000000005, 0.0, 1.034, 192.0, 0.0, 0.0, 0.0, 0.0, 0.0, 0.0, 0.0, 0.0, 0.0, 1.747687871969253E9, 0.0, 2025-05-19 22:51:11.969
82.0, 22956.44854980094, 17612.34761623712, 47794.31048563844, 30224.69940479987, 35070.870527132814, -240.12479068336378, 8466.773744436949, 577.0326348582071, 0.0, 0.0, 16919.4435381226, -12091.556142754096, 7438.817016937378, -983.6108665002427, -26584.606061530838, -33518.49717122283, 0.052000000000000005, 0.0, 1.034, 192.0, 0.0, 0.0, 0.0, 0.0, 0.0, 0.0, 0.0, 0.0, 0.0, 1.747687871976214E9, 0.0, 2025-05-19 22:51:11.976
84.0, 22937.941305391945, 17597.886037574535, 47780.56416279843, 30213.74705001677, 35069.50707072104, -224.9926596871209, 8417.108168257257, 562.3698904955257, 0.0, 0.0, 16913.92265724214, -12097.457003290298, 7453.502113044515, -962.4884679899774, -26574.257203848032, -33492.613851143586, 0.058, -0.002, 1.03, 192.0, 0.5, 104.0, 127.5, 120.0, 16.0, 24.0, 0.0, 0.0, 0.0, 1.74768787198428E9, 0.0, 2025-05-19 22:51:11.984
86.0, 22952.425235798986, 17611.654712159005, 47789.974247214115, 30219.93848323089, 35052.340930979364, -243.63401456284697, 8436.442427211097, 579.9830651263077, 0.0, 0.0, 16911.553372329876, -12101.167392869878, 7434.212557579584, -997.0889684067928, -26601.50398033905, -33529.40482251702, 0.058, -0.002, 1.03, 192.0, 0.0, 0.0, 0.0, 0.0, 0.0, 0.0, 0.0, 0.0, 0.0, 1.747687871992388E9, 0.0, 2025-05-19 22:51:11.992
88.0, 22947.68666597446, 17608.212543512887, 47791.8294420039, 30228.521553101727, 35077.9783818696, -205.14431061080822, 8449.518197717452, 571.8917336334865, 0.0, 0.0, 16919.86822126725, -12089.320968308564, 7450.596386265324, -962.7566889234411, -26567.73049446708, -33496.54775816772, 0.058, -0.002, 1.03, 192.0, 0.0, 0.0, 0.0, 0.0, 0.0, 0.0, 0.0, 0.0, 0.0, 1.747687872001433E9, 0.0, 2025-05-19 22:51:12.001
90.0, 22949.519509019796, 17616.52739245026, 47787.73907276858, 30222.464230354337, 35048.60818965533, -230.4017818453052, 8406.513441385441, 579.6924924483886, 0.0, 0.0, 16911.62042756324, -12096.182953856345, 7450.61873800978, -978.2017443420583, -26589.255224377543, -33504.549682682715, 0.058, -0.002, 1.03, 192.0, 0.0, 0.0, 0.0, 0.0, 0.0, 0.0, 0.0, 0.0, 0.0, 1.747687872008418E9, 0.0, 2025-05-19 22:51:12.008
92.0, 22959.577794024684, 17629.513755978795, 47803.05001772047, 30237.194029950388, 35062.354512495345, -223.87507246435553, 8462.057526356879, 579.9607133818523, 0.0, 0.0, 16924.517384113955, -12081.721375193762, 7447.690659486135, -975.7207007075192, -26579.10753239483, -33510.495246707826, 0.058, -0.002, 1.03, 192.0, 0.0, 0.0, 0.0, 0.0, 0.0, 0.0, 0.0, 0.0, 0.0, 1.7476878720164E9, 0.0, 2025-05-19 22:51:12.016
94.0, 22948.804253197224, 17617.53322095075, 47795.94216298368, 30228.342739146083, 35063.27093401801, -213.86149094837796, 8410.782624576404, 568.9189516209307, 0.0, 0.0, 16930.619410350253, -12077.00515711369, 7475.317415632894, -949.6138631837206, -26564.802415943435, -33480.4545021599, 0.05500000000000001, -0.004, 1.0310000000000001, 192.0, 0.5, 80.0, 127.5, 104.0, 16.0, 32.0, 0.0, 0.0, 0.0, 1.74768787202446E9, 0.0, 2025-05-19 22:51:12.024
96.0, 22952.40288405453, 17620.34954075212, 47790.82361350342, 30221.83838150959, 35046.484773932076, -242.94111048473246, 8438.163511534156, 587.6944169633886, 0.0, 0.0, 16920.203497434082, -12087.219904329766, 7447.958880419598, -987.6341805021979, -26593.390297101774, -33519.525351467775, 0.05500000000000001, -0.004, 1.0310000000000001, 192.0, 0.0, 0.0, 0.0, 0.0, 0.0, 0.0, 0.0, 0.0, 0.0, 1.747687872032426E9, 0.0, 2025-05-19 22:51:12.032
98.0, 22942.948096149936, 17613.37579648206, 47791.1812414147, 30223.514762343737, 35065.640218930275, -216.85662470538912, 8451.596909951795, 576.2726755467266, 0.0, 0.0, 16917.230715421523, -12092.2043433433, 7451.624566510269, -960.566217966821, -26566.478796777585, -33495.07254303367, 0.05500000000000001, -0.004, 1.0310000000000001, 192.0, 0.0, 0.0, 0.0, 0.0, 0.0, 0.0, 0.0, 0.0, 0.0, 1.747687872040503E9, 0.0, 2025-05-19 22:51:12.040
100.0, 22944.49036651735, 17612.325264492665, 47790.64479954777, 30224.900570499965, 35051.93859957917, -234.536854569537, 8402.221906450022, 588.1414518524947, 0.0, 0.0, 16910.122860684736, -12099.491012035729, 7449.18822636464, -978.4476135310666, -26590.01518368902, -33504.99671757183, 0.05500000000000001, -0.004, 1.0310000000000001, 192.0, 0.0, 0.0, 0.0, 0.0, 0.0, 0.0, 0.0, 0.0, 0.0, 1.747687872048517E9, 0.0, 2025-05-19 22:51:12.048
102.0, 22969.099637162642, 17635.302857792718, 47805.37459914382, 30237.730471817315, 35074.916192879224, -218.3541915838947, 8463.175113579646, 594.9363821669081, 0.0, 0.0, 16930.485299883523, -12078.39096526992, 7452.228063610562, -973.3737675397119, -26576.06769514891, -33506.06960130568, 0.05500000000000001, -0.004, 1.0310000000000001, 192.0, 0.0, 0.0, 0.0, 0.0, 0.0, 0.0, 0.0, 0.0, 0.0, 1.747687872057568E9, 0.0, 2025-05-19 22:51:12.057
104.0, 22960.181291124976, 17625.468090232385, 47795.02574146101, 30228.052166468166, 35077.08431209139, -200.3163338084619, 8415.85647056776, 580.0501203596735, 0.0, 0.0, 16930.5970586058, -12080.849657160004, 7471.897598731232, -953.5701219523099, -26564.176567098686, -33480.789778326725, 0.05450000000000001, -0.006, 1.0305, 192.0, 0.5, 88.0, 127.5, 96.0, 16.0, 24.0, 0.0, 0.0, 0.0, 1.74768787206358E9, 0.0, 2025-05-19 22:51:12.063
106.0, 22952.939325921456, 17618.382587240052, 47788.700197780156, 30222.397175120972, 35056.99009382607, -232.03345919054263, 8426.04886603938, 585.1463180954836, 0.0, 0.0, 16916.336645643314, -12092.941950910325, 7440.1357698602405, -994.7196834945302, -26599.20175066015, -33522.58754045815, 0.05450000000000001, -0.006, 1.0305, 192.0, 0.0, 0.0, 0.0, 0.0, 0.0, 0.0, 0.0, 0.0, 0.0, 1.747687872072573E9, 0.0, 2025-05-19 22:51:12.072
108.0, 22936.108462346612, 17600.121212020065, 47781.50293606555, 30214.037622694686, 35072.211631800135, -222.06458116347568, 8439.236395268012, 566.5273149642128, 0.0, 0.0, 16915.286113653914, -12095.937084667336, 7446.371906563271, -965.2600843024355, -26571.172663113197, -33497.44182794593, 0.05450000000000001, -0.006, 1.0305, 192.0, 0.0, 0.0, 0.0, 0.0, 0.0, 0.0, 0.0, 0.0, 0.0, 1.747687872080605E9, 0.0, 2025-05-19 22:51:12.080
110.0, 22931.034616355257, 17594.1532962505, 47775.40090982925, 30209.366108103528, 35043.80256459744, -243.45520060720452, 8397.863316281238, 578.552553481168, 0.0, 0.0, 16894.230770377013, -12113.706721509305, 7431.932679645143, -991.6351427596978, -26602.710974539637, -33519.100668323124, 0.05450000000000001, -0.006, 1.0305, 192.0, 0.0, 0.0, 0.0, 0.0, 0.0, 0.0, 0.0, 0.0, 0.0, 1.747687872088656E9, 0.0, 2025-05-19 22:51:12.088
112.0, 22946.792596196246, 17612.839354615135, 47795.85275600586, 30228.275683912718, 35058.39825372675, -232.52519756855938, 8470.417078783164, 588.3202658081372, 0.0, 0.0, 16907.641817050197, -12096.942913167824, 7432.223252323062, -978.984055397994, -26581.856796962835, -33513.9597670984, 0.05450000000000001, -0.006, 1.0305, 192.0, 0.0, 0.0, 0.0, 0.0, 0.0, 0.0, 0.0, 0.0, 0.0, 1.747687872096668E9, 0.0, 2025-05-19 22:51:12.096
114.0, 22939.55063099273, 17604.323339977665, 47792.27647689301, 30223.42535536592, 35061.728663650596, -224.85854922038905, 8424.350133460777, 578.4631465033468, 0.0, 0.0, 16910.838116507308, -12097.568762012574, 7455.8713979567765, -951.9384446070725, -26564.981229899076, -33483.315525450176, 0.05525000000000001, -0.005, 1.03225, 192.0, 0.5, 96.0, 127.5, 112.0, 16.0, 40.0, 0.0, 0.0, 0.0, 1.747687872104772E9, 0.0, 2025-05-19 22:51:12.104
116.0, 22949.631267742072, 17612.97346508187, 47796.120976939324, 30224.8335152666, 35047.870582088304, -251.56888384448098, 8440.868072613248, 589.035521630707, 0.0, 0.0, 16913.989712475504, -12093.321930566066, 7440.113418115786, -984.2814188339019, -26590.037535433476, -33516.73138341086, 0.05525000000000001, -0.005, 1.03225, 192.0, 0.0, 0.0, 0.0, 0.0, 0.0, 0.0, 0.0, 0.0, 0.0, 1.747687872112738E9, 0.0, 2025-05-19 22:51:12.112
118.0, 22943.57394499468, 17609.620703413573, 47793.55052632696, 30225.884047256, 35070.51289922153, -222.60102303040304, 8451.663965185162, 574.7527569237658, 0.0, 0.0, 16919.376482889234, -12088.24808457471, 7452.563339777392, -956.2746830314021, -26561.896689164245, -33492.43503718794, 0.05525000000000001, -0.005, 1.03225, 192.0, 0.0, 0.0, 0.0, 0.0, 0.0, 0.0, 0.0, 0.0, 0.0, 1.747687872119779E9, 0.0, 2025-05-19 22:51:12.119
120.0, 22937.15899433601, 17601.19409575392, 47780.98884594308, 30214.79758200617, 35047.69176813266, -225.97613644315442, 8401.841926794283, 582.553515738668, 0.0, 0.0, 16904.400814104178, -12103.782546971148, 7443.555586761902, -983.5438112668767, -26594.910215724733, -33512.931586853454, 0.05525000000000001, -0.005, 1.03225, 192.0, 0.0, 0.0, 0.0, 0.0, 0.0, 0.0, 0.0, 0.0, 0.0, 1.747687872128832E9, 0.0, 2025-05-19 22:51:12.128
122.0, 22946.032636884767, 17611.833526114646, 47791.49416583707, 30225.12408794452, 35060.40991072773, -241.30943313949504, 8462.72807869054, 582.262943060749, 0.0, 0.0, 16909.96639847355, -12092.33845381003, 7435.955993647099, -982.627389744209, -26585.991869687066, -33518.09483982263, 0.05525000000000001, -0.005, 1.03225, 192.0, 0.0, 0.0, 0.0, 0.0, 0.0, 0.0, 0.0, 0.0, 0.0, 1.747687872136807E9, 0.0, 2025-05-19 22:51:12.136
124.0, 22934.700302445926, 17602.021110298767, 47783.827517488906, 30216.295148884674, 35065.70727416364, -229.64182253382475, 8412.57076413283, 569.0977655765731, 0.0, 0.0, 16912.425090363635, -12099.178087613356, 7455.0443834119305, -959.3368720217792, -26574.16779687021, -33492.09976102111, 0.05662500000000001, -0.006500000000000001, 1.036125, 192.0, 0.5, 104.0, 127.5, 96.0, 16.0, 64.0, 0.0, 0.0, 0.0, 1.74768787214385E9, 0.0, 2025-05-19 22:51:12.143
126.0, 22941.9646193939, 17605.485630689338, 47794.534003083, 30222.732451287804, 35051.60332341234, -252.77587804506757, 8435.838930110804, 587.2473820742824, 0.0, 0.0, 16907.932389728117, -12105.436576060842, 7430.233947066539, -994.7196834945302, -26600.922834983212, -33527.72844168287, 0.05662500000000001, -0.006500000000000001, 1.036125, 192.0, 0.0, 0.0, 0.0, 0.0, 0.0, 0.0, 0.0, 0.0, 0.0, 1.747687872151943E9, 0.0, 2025-05-19 22:51:12.151
128.0, 22943.238668827853, 17605.977369067357, 47798.02087521802, 30227.89570425698, 35079.72181793712, -219.87411020685556, 8447.305375016376, 572.070547589129, 0.0, 0.0, 16923.53390735792, -12087.286959563133, 7453.077429899863, -954.8218196418071, -26561.382599041775, -33491.67507787646, 0.05662500000000001, -0.006500000000000001, 1.036125, 192.0, 0.0, 0.0, 0.0, 0.0, 0.0, 0.0, 0.0, 0.0, 0.0, 1.747687872160893E9, 0.0, 2025-05-19 22:51:12.160
130.0, 22936.19786932443, 17597.9530928079, 47781.41352908773, 30209.679032525903, 35057.19125952617, -251.43477337774914, 8393.638836579184, 571.8023266556653, 0.0, 0.0, 16911.508668840965, -12101.569724270073, 7445.790761207433, -984.4825845339996, -26595.98309945859, -33515.07735432117, 0.05662500000000001, -0.006500000000000001, 1.036125, 192.0, 0.0, 0.0, 0.0, 0.0, 0.0, 0.0, 0.0, 0.0, 0.0, 1.747687872168905E9, 0.0, 2025-05-19 22:51:12.168
132.0, 22944.356256050618, 17607.966674323878, 47788.83430824689, 30222.106602443055, 35063.20387878465, -244.81865701897826, 8458.458895499574, 579.6030854705674, 0.0, 0.0, 16915.040244464904, -12096.62998874545, 7435.106627357796, -988.1259188802146, -26590.193997644663, -33524.82271490368, 0.05662500000000001, -0.006500000000000001, 1.036125, 192.0, 0.0, 0.0, 0.0, 0.0, 0.0, 0.0, 0.0, 0.0, 0.0, 1.747687872176924E9, 0.0, 2025-05-19 22:51:12.176
134.0, 22936.466090257894, 17602.088165532132, 47782.68757852168, 30217.21157040734, 35063.8744311183, -228.41247658878288, 8407.47456639702, 567.7566609092547, 0.0, 0.0, 16910.838116507308, -12100.34037832503, 7452.5856915218465, -966.1541540806478, -26581.275651606997, -33497.46417969038, 0.0573125, -0.00525, 1.0340625, 192.0, 0.5, 104.0, 127.5, 112.0, 16.0, 32.0, 0.0, 0.0, 0.0, 1.74768787218496E9, 0.0, 2025-05-19 22:51:12.184
136.0, 22950.994724153847, 17615.990950583335, 47792.634104804296, 30228.879181013013, 35051.40215771224, -249.9595582436989, 8437.537662689409, 588.4096727859584, 0.0, 0.0, 16913.49797409749, -12097.836982946037, 7439.778141948956, -992.8197852158291, -26603.292119895475, -33526.49909573783, 0.0573125, -0.00525, 1.0340625, 192.0, 0.0, 0.0, 0.0, 0.0, 0.0, 0.0, 0.0, 0.0, 0.0, 1.747687872192986E9, 0.0, 2025-05-19 22:51:12.192
138.0, 22947.418445040996, 17614.538087193738, 47794.80222401646, 30230.577913591616, 35071.31756202192, -228.23366263314043, 8446.791284893905, 571.8693818890312, 0.0, 0.0, 16927.557221359875, -12080.022642615157, 7461.705203259612, -953.503066718944, -26566.679962477683, -33490.55749065369, 0.0573125, -0.00525, 1.0340625, 192.0, 0.0, 0.0, 0.0, 0.0, 0.0, 0.0, 0.0, 0.0, 0.0, 1.747687872200015E9, 0.0, 2025-05-19 22:51:12.200
140.0, 22938.231878069866, 17601.14939226501, 47783.76046225554, 30212.808276749645, 35048.0717477884, -244.12575294086375, 8401.551354116364, 573.2104865563497, 0.0, 0.0, 16913.274456652936, -12101.949703925813, 7448.920005431177, -980.1910495985807, -26595.089029680377, -33512.86453162009, 0.0573125, -0.00525, 1.0340625, 192.0, 0.0, 0.0, 0.0, 0.0, 0.0, 0.0, 0.0, 0.0, 0.0, 1.747687872208043E9, 0.0, 2025-05-19 22:51:12.208
142.0, 22945.20562233992, 17612.19115402593, 47793.59522981587, 30227.023986223223, 35061.34868399485, -236.97319471516548, 8468.807753182382, 580.6983209488775, 0.0, 0.0, 16907.91003798366, -12099.20043935781, 7432.580880234347, -979.6546077316533, -26585.231910375587, -33521.49230497984, 0.0573125, -0.00525, 1.0340625, 192.0, 0.0, 0.0, 0.0, 0.0, 0.0, 0.0, 0.0, 0.0, 0.0, 1.747687872217089E9, 0.0, 2025-05-19 22:51:12.217
144.0, 22940.824680426682, 17613.912238348992, 47790.44363384767, 30226.107564700553, 35063.963838096126, -218.7118194951796, 8413.733054844506, 574.9315708794082, 0.0, 0.0, 16918.169488688647, -12086.325834551553, 7463.448639327126, -951.8937411181619, -26571.68675323567, -33487.71881910787, 0.057656250000000006, -0.003625, 1.03303125, 192.0, 0.5, 104.0, 127.5, 120.0, 16.0, 32.0, 0.0, 0.0, 0.0, 1.74768787222511E9, 0.0, 2025-05-19 22:51:12.225
146.0, 22944.44566302844, 17616.23681977234, 47787.515555324026, 30221.950140231867, 35046.70829137663, -248.55139834301454, 8434.989563821502, 583.6934547058886, 0.0, 0.0, 16904.467869337543, -12097.255837590199, 7435.330144802349, -991.8586602042509, -26604.36500362933, -33527.92960738297, 0.057656250000000006, -0.003625, 1.03303125, 192.0, 0.0, 0.0, 0.0, 0.0, 0.0, 0.0, 0.0, 0.0, 0.0, 1.747687872232136E9, 0.0, 2025-05-19 22:51:12.232
148.0, 22946.569078751694, 17618.20377328441, 47796.545660083975, 30231.762556047746, 35068.79181489847, -223.4280375752494, 8454.301471030889, 572.2493615447714, 0.0, 0.0, 16920.06938696735, -12088.024567130156, 7452.384525821749, -953.4360114855781, -26567.886956678267, -33493.73143836635, 0.057656250000000006, -0.003625, 1.03303125, 192.0, 0.0, 0.0, 0.0, 0.0, 0.0, 0.0, 0.0, 0.0, 0.0, 1.747687872240172E9, 0.0, 2025-05-19 22:51:12.240
150.0, 22940.042369370745, 17613.06287205969, 47786.10739542334, 30216.518666329226, 35049.345797222355, -240.214197661185, 8406.267572196433, 581.2124110713496, 0.0, 0.0, 16913.430918864124, -12095.646511989416, 7451.803380465911, -972.5691047393209, -26593.83733199088, -33507.142485039534, 0.057656250000000006, -0.003625, 1.03303125, 192.0, 0.0, 0.0, 0.0, 0.0, 0.0, 0.0, 0.0, 0.0, 0.0, 1.747687872249215E9, 0.0, 2025-05-19 22:51:12.249
152.0, 22951.084131131665, 17621.86945937508, 47797.50678509555, 30231.65079732547, 35066.75780615304, -241.5105988395928, 8475.625035241252, 583.7828616837098, 0.0, 0.0, 16917.96832298855, -12088.985692141736, 7442.370944305771, -970.177468082603, -26580.426285317695, -33510.96463334139, 0.057656250000000006, -0.003625, 1.03303125, 192.0, 0.0, 0.0, 0.0, 0.0, 0.0, 0.0, 0.0, 0.0, 0.0, 1.747687872256237E9, 0.0, 2025-05-19 22:51:12.256
154.0, 22938.88007865907, 17607.363177223586, 47787.26968613502, 30218.396212863474, 35067.47306197561, -230.44648533421582, 8419.164528747146, 568.2931027761821, 0.0, 0.0, 16911.4416136076, -12093.523096266163, 7454.977328178565, -953.5477702078546, -26572.178491613686, -33490.13280750904, 0.059828125, -0.0018125, 1.034515625, 192.0, 0.5, 120.0, 0.0, 0.0, 16.0, 48.0, 0.0, 0.0, 0.0, 1.747687872264267E9, 0.0, 2025-05-19 22:51:12.264
156.0, 22947.77607295228, 17614.38162498255, 47790.398930358766, 30223.805335021658, 35055.85015485885, -248.3725843873721, 8448.713534917062, 589.102576864073, 0.0, 0.0, 16907.798279261384, -12100.742709725228, 7435.71012445809, -987.8353462022957, -26594.59729130236, -33525.42621200397, 0.059828125, -0.0018125, 1.034515625, 192.0, 0.0, 0.0, 0.0, 0.0, 0.0, 0.0, 0.0, 0.0, 0.0, 1.747687872272312E9, 0.0, 2025-05-19 22:51:12.272
158.0, 22949.094825875145, 17615.38745348304, 47793.88580249379, 30228.521553101727, 35079.90063189276, -222.55631954149243, 8455.977851865036, 576.227972057816, 0.0, 0.0, 16919.465889867057, -12087.890456663425, 7455.491418301037, -946.886950360173, -26556.666380961702, -33487.87528131906, 0.059828125, -0.0018125, 1.034515625, 192.0, 0.0, 0.0, 0.0, 0.0, 0.0, 0.0, 0.0, 0.0, 0.0, 1.747687872281407E9, 0.0, 2025-05-19 22:51:12.281
160.0, 22940.891735660047, 17607.541991179227, 47783.246372133064, 30214.9316924729, 35053.324407735396, -241.64470930632464, 8405.909944285148, 577.747890680777, 0.0, 0.0, 16905.29488388239, -12105.369520827475, 7445.276671084961, -977.9558751530499, -26591.736268012082, -33513.15510429801, 0.059828125, -0.0018125, 1.034515625, 192.0, 0.0, 0.0, 0.0, 0.0, 0.0, 0.0, 0.0, 0.0, 0.0, 1.7476878722884E9, 0.0, 2025-05-19 22:51:12.288
162.0, 22952.40288405453, 17618.226125028865, 47797.26091590654, 30230.488506613794, 35070.803471899446, -233.8663022358778, 8470.238264827522, 598.2891438352042, 0.0, 0.0, 16917.700102055085, -12093.076061377056, 7445.18726410714, -969.4845640044886, -26571.798511957946, -33512.57395894217, 0.059828125, -0.0018125, 1.034515625, 192.0, 0.0, 0.0, 0.0, 0.0, 0.0, 0.0, 0.0, 0.0, 0.0, 1.747687872296395E9, 0.0, 2025-05-19 22:51:12.296
164.0, 22946.904354918523, 17621.176555296966, 47791.67297979272, 30223.537114088194, 35070.91523062172, -217.68363925023547, 8423.366656704744, 588.6555419749668, 0.0, 0.0, 16919.30942765587, -12089.186857841833, 7468.544837062936, -950.150305050648, -26562.276668819984, -33487.227080729856, 0.060914062500000005, -0.00190625, 1.0352578125, 192.0, 0.5, 120.0, 127.5, 120.0, 16.0, 48.0, 0.0, 0.0, 0.0, 1.747687872304433E9, 0.0, 2025-05-19 22:51:12.304
166.0, 22959.555442280227, 17629.044369345233, 47796.61271531734, 30227.426317623416, 35056.90068684825, -234.29098538052864, 8461.05169785639, 618.875100478542, 0.0, 0.0, 16913.05093920838, -12093.076061377056, 7451.982194421554, -983.7449769669745, -26588.98700344408, -33521.84993289113, 0.060914062500000005, -0.00190625, 1.0352578125, 192.0, 0.0, 0.0, 0.0, 0.0, 0.0, 0.0, 0.0, 0.0, 0.0, 1.747687872312445E9, 0.0, 2025-05-19 22:51:12.312
168.0, 22953.341657321653, 17619.366063996087, 47808.59325034538, 30237.59636135058, 35085.37680928431, -204.69727572170208, 8481.905875433193, 610.3590858410699, 0.0, 0.0, 16925.59026784781, -12084.694157206317, 7470.914121975198, -934.9511188210391, -26542.71889242159, -33479.69454284842, 0.060914062500000005, -0.00190625, 1.0352578125, 192.0, 0.0, 0.0, 0.0, 0.0, 0.0, 0.0, 0.0, 0.0, 0.0, 1.747687872320463E9, 0.0, 2025-05-19 22:51:12.320
170.0, 22947.44079678545, 17610.425366213964, 47795.629238561305, 30225.12408794452, 35064.45557647414, -236.50380808160403, 8420.527985158918, 608.7274084958325, 0.0, 0.0, 16920.561125345364, -12097.501706779207, 7468.030746940464, -956.9452353650613, -26574.391314314762, -33499.6099471581, 0.060914062500000005, -0.00190625, 1.0352578125, 192.0, 0.0, 0.0, 0.0, 0.0, 0.0, 0.0, 0.0, 0.0, 0.0, 1.747687872329448E9, 0.0, 2025-05-19 22:51:12.329
172.0, 22947.709017718917, 17605.418575455973, 47803.31823865393, 30231.628445581013, 35077.017256858024, -248.66315706529107, 8496.188640140133, 607.8556904620756, 0.0, 0.0, 16927.601924848786, -12084.045956617112, 7462.174589893173, -953.5924736967652, -26563.126035109286, -33503.789723371236, 0.060914062500000005, -0.00190625, 1.0352578125, 192.0, 0.0, 0.0, 0.0, 0.0, 0.0, 0.0, 0.0, 0.0, 0.0, 1.747687872338573E9, 0.0, 2025-05-19 22:51:12.338
174.0, 22946.01028514031, 17604.47980218885, 47787.6273140463, 30217.27862564071, 35078.358361525345, -228.74775275561248, 8431.301525986377, 585.5710012401345, 0.0, 0.0, 16918.86239276676, -12095.579456756052, 7470.154162663718, -939.4885229454665, -26560.60028798584, -33487.070618518665, 0.06245703125, -0.004953125, 1.03562890625, 192.0, 1.0, 0.0, 127.5, 96.0, 16.0, 48.0, 0.0, 0.0, 0.0, 1.747687872345602E9, 0.0, 2025-05-19 22:51:12.345
176.0, 22951.486462531862, 17609.374834224564, 47788.700197780156, 30215.40107910646, 35059.51584094952, -250.0042617326095, 8450.255805284478, 594.1540711109724, 0.0, 0.0, 16911.083985696314, -12103.581381271051, 7440.113418115786, -985.3990060566672, -26596.83246574789, -33528.756621927816, 0.06245703125, -0.004953125, 1.03562890625, 192.0, 0.0, 0.0, 0.0, 0.0, 0.0, 0.0, 0.0, 0.0, 0.0, 1.747687872352596E9, 0.0, 2025-05-19 22:51:12.352
178.0, 22951.330000320675, 17607.564342923684, 47791.427110603705, 30220.251407653264, 35084.84036741738, -237.33082262645038, 8450.09934307329, 564.3368440075927, 0.0, 0.0, 16924.360921902768, -12095.892381178426, 7456.09491540133, -954.7100609195305, -26567.462273533616, -33499.878168091556, 0.06245703125, -0.004953125, 1.03562890625, 192.0, 0.0, 0.0, 0.0, 0.0, 0.0, 0.0, 0.0, 0.0, 0.0, 1.747687872360638E9, 0.0, 2025-05-19 22:51:12.360
180.0, 22950.570041009196, 17607.609046412595, 47788.0296454465, 30213.210608149842, 35060.61107642783, -248.61845357638046, 8406.960476274548, 570.8635533885424, 0.0, 0.0, 16913.788546775406, -12110.756291241205, 7447.556549019403, -982.9179624221281, -26602.64391930627, -33521.78287765776, 0.06245703125, -0.004953125, 1.03562890625, 192.0, 0.0, 0.0, 0.0, 0.0, 0.0, 0.0, 0.0, 0.0, 0.0, 1.747687872368657E9, 0.0, 2025-05-19 22:51:12.368
182.0, 22971.446570330452, 17626.272753032776, 47811.074293979924, 30238.333968917606, 35083.253393561055, -247.92554949826595, 8477.033195141936, 584.1851930839053, 0.0, 0.0, 16934.64272435221, -12086.705814207295, 7454.507941545003, -964.2319040574914, -26573.139616625263, -33507.34365073963, 0.06245703125, -0.004953125, 1.03562890625, 192.0, 0.0, 0.0, 0.0, 0.0, 0.0, 0.0, 0.0, 0.0, 0.0, 1.747687872377716E9, 0.0, 2025-05-19 22:51:12.377
184.0, 22954.191023610954, 17607.027901056757, 47793.63993330478, 30222.397175120972, 35085.622678473315, -236.30264238150627, 8416.392912434687, 566.3037975196597, 0.0, 0.0, 16926.104357970282, -12090.438555531331, 7466.711994017601, -947.4010404826452, -26567.886956678267, -33486.91415630748, 0.06622851562500001, -0.0084765625, 1.034814453125, 192.0, 1.0, 24.0, 127.5, 80.0, 16.0, 40.0, 0.0, 0.0, 0.0, 1.747687872385809E9, 0.0, 2025-05-19 22:51:12.385
186.0, 22970.574852296693, 17620.282485518754, 47806.15691019975, 30229.482678113305, 35070.378788754795, -258.36381415889434, 8445.450180226586, 582.3747017830256, 0.0, 0.0, 16922.30456141288, -12097.501706779207, 7443.734400717545, -983.0744246333152, -26590.998660445057, -33520.82175264618, 0.06622851562500001, -0.0084765625, 1.034814453125, 192.0, 0.0, 0.0, 0.0, 0.0, 0.0, 0.0, 0.0, 0.0, 0.0, 1.747687872394798E9, 0.0, 2025-05-19 22:51:12.394
188.0, 22965.858634216624, 17619.187250040442, 47804.0334944765, 30230.868486269534, 35089.35541979736, -232.39108710182754, 8456.134314076224, 565.9908730972854, 0.0, 0.0, 16936.050884252894, -12089.991520642225, 7459.872360214277, -946.7975433823518, -26557.29222980645, -33486.89180456303, 0.06622851562500001, -0.0084765625, 1.034814453125, 192.0, 0.0, 0.0, 0.0, 0.0, 0.0, 0.0, 0.0, 0.0, 0.0, 1.747687872400795E9, 0.0, 2025-05-19 22:51:12.400
190.0, 22958.862538202113, 17614.58279068265, 47796.2327356616, 30221.50310534276, 35064.65674217424, -245.01982271907602, 8398.667979081629, 565.0520998301625, 0.0, 0.0, 16928.473642882545, -12094.260703833188, 7455.267900856484, -976.9947501414717, -26589.9257767112, -33509.69058390744, 0.06622851562500001, -0.0084765625, 1.034814453125, 192.0, 0.0, 0.0, 0.0, 0.0, 0.0, 0.0, 0.0, 0.0, 0.0, 1.747687872408825E9, 0.0, 2025-05-19 22:51:12.408
192.0, 22973.726448264893, 17630.05019784572, 47810.314334668445, 30239.429204395918, 35079.56535572593, -245.5786163304587, 8473.479267773542, 570.036538843696, 0.0, 0.0, 16933.43573015162, -12087.890456663425, 7450.417572309682, -972.0550146168489, -26573.11726488081, -33511.50107520832, 0.06622851562500001, -0.0084765625, 1.034814453125, 192.0, 0.0, 0.0, 0.0, 0.0, 0.0, 0.0, 0.0, 0.0, 0.0, 1.747687872417857E9, 0.0, 2025-05-19 22:51:12.417
194.0, 22964.763398738312, 17622.808232642205, 47795.495128094575, 30230.957893247356, 35077.35253302485, -227.45135157720466, 8394.398795890665, 550.2775967452046, 0.0, 0.0, 16934.665076096666, -12080.223808315255, 7472.031709197964, -952.0502033293491, -26566.188224099664, -33485.37188594006, 0.06611425781250001, -0.00923828125, 1.0344072265625002, 192.0, 1.0, 8.0, 127.5, 88.0, 16.0, 40.0, 0.0, 0.0, 0.0, 1.747687872424891E9, 0.0, 2025-05-19 22:51:12.424
196.0, 22972.60886104213, 17629.089072834144, 47804.52523285452, 30235.450593882873, 35062.86860261782, -241.5329505840481, 8431.413284708653, 574.037501101196, 0.0, 0.0, 16930.507651627977, -12089.231561330744, 7449.054115897909, -990.2493346034688, -26596.676003536704, -33520.64293869054, 0.06611425781250001, -0.00923828125, 1.0344072265625002, 192.0, 0.0, 0.0, 0.0, 0.0, 0.0, 0.0, 0.0, 0.0, 0.0, 1.747687872431908E9, 0.0, 2025-05-19 22:51:12.431
198.0, 22965.009267927322, 17626.406863499506, 47798.95964848514, 30231.628445581013, 35086.76261744054, -227.65251727730242, 8440.28692725741, 549.651747900456, 0.0, 0.0, 16939.291887198913, -12079.016814114668, 7465.4379445836485, -949.5244562058994, -26557.336933295363, -33483.69550510591, 0.06611425781250001, -0.00923828125, 1.0344072265625002, 192.0, 0.0, 0.0, 0.0, 0.0, 0.0, 0.0, 0.0, 0.0, 0.0, 1.747687872440961E9, 0.0, 2025-05-19 22:51:12.440
200.0, 22951.754683465326, 17610.850049358614, 47782.95579945514, 30212.473000582817, 35057.90651534874, -248.1043634539084, 8383.871124252215, 551.8869223459867, 0.0, 0.0, 16915.464927609555, -12104.140174882434, 7443.399124550716, -991.5233840374214, -26602.956843728643, -33519.07831657866, 0.06611425781250001, -0.00923828125, 1.0344072265625002, 192.0, 0.0, 0.0, 0.0, 0.0, 0.0, 0.0, 0.0, 0.0, 0.0, 1.747687872448981E9, 0.0, 2025-05-19 22:51:12.448
202.0, 22962.50587254833, 17619.321360507176, 47796.27743915051, 30224.185314677397, 35072.23398354459, -250.83127627745586, 8449.697011673095, 559.1512392939615, 0.0, 0.0, 16927.601924848786, -12095.177125355856, 7440.761618704989, -981.7556717104521, -26582.504997552038, -33515.747906654826, 0.06611425781250001, -0.00923828125, 1.0344072265625002, 192.0, 0.0, 0.0, 0.0, 0.0, 0.0, 0.0, 0.0, 0.0, 0.0, 1.747687872456008E9, 0.0, 2025-05-19 22:51:12.456
204.0, 22951.575869509685, 17605.39622371152, 47783.89457272227, 30207.93559645839, 35075.31852427942, -244.23751166314028, 8395.09169996878, 545.1143437760286, 0.0, 0.0, 16924.83030853633, -12101.569724270073, 7453.837389211344, -971.0044826274494, -26581.029782417987, -33499.07350529117, 0.06505712890625001, -0.0066191406250000005, 1.0322036132812502, 192.0, 1.0, 0.0, 127.5, 112.0, 16.0, 24.0, 0.0, 0.0, 0.0, 1.747687872463983E9, 0.0, 2025-05-19 22:51:12.463
206.0, 22956.0685701452, 17612.615837170582, 47788.297866379966, 30213.8811604835, 35055.73839613657, -259.9507880152211, 8426.294735228388, 573.3445970230815, 0.0, 0.0, 16918.86239276676, -12109.817517974081, 7429.518691243969, -1009.0024482014715, -26608.947111242665, -33535.64095922005, 0.06505712890625001, -0.0066191406250000005, 1.0322036132812502, 192.0, 0.0, 0.0, 0.0, 0.0, 0.0, 0.0, 0.0, 0.0, 0.0, 1.747687872474065E9, 0.0, 2025-05-19 22:51:12.474
208.0, 22948.647790986037, 17606.893790590024, 47785.52625006751, 30217.233922151798, 35076.43611150219, -243.67871805175758, 8439.504616201475, 557.2513410152603, 0.0, 0.0, 16924.360921902768, -12094.260703833188, 7448.338860075339, -966.757651180941, -26570.368000312807, -33495.96661281188, 0.06505712890625001, -0.0066191406250000005, 1.0322036132812502, 192.0, 0.0, 0.0, 0.0, 0.0, 0.0, 0.0, 0.0, 0.0, 0.0, 1.74768787248209E9, 0.0, 2025-05-19 22:51:12.482
210.0, 22944.82564268418, 17599.115383519576, 47775.624427273804, 30201.16301788843, 35056.90068684825, -259.34729091492784, 8389.481412110497, 561.0734893171178, 0.0, 0.0, 16908.15590717267, -12115.561916299095, 7433.385543034738, -1001.2463928754798, -26607.47189610862, -33524.77801141477, 0.06505712890625001, -0.0066191406250000005, 1.0322036132812502, 192.0, 0.0, 0.0, 0.0, 0.0, 0.0, 0.0, 0.0, 0.0, 0.0, 1.747687872488148E9, 0.0, 2025-05-19 22:51:12.488
212.0, 22949.29599157524, 17608.748985379814, 47786.196802401166, 30218.999709963766, 35070.26703003252, -249.55722684350334, 8460.559959478374, 570.5729807106234, 0.0, 0.0, 16916.224886921034, -12106.084776650045, 7428.646973210213, -994.8761457057174, -26590.21634938912, -33524.889770137044, 0.06505712890625001, -0.0066191406250000005, 1.0322036132812502, 192.0, 0.0, 0.0, 0.0, 0.0, 0.0, 0.0, 0.0, 0.0, 0.0, 1.747687872496168E9, 0.0, 2025-05-19 22:51:12.496
214.0, 22937.963657136403, 17599.24949398631, 47770.9752644271, 30202.794695233668, 35059.71700664962, -233.75454351360125, 8397.215115692034, 553.2056752688497, 0.0, 0.0, 16909.094680439794, -12105.347169083021, 7445.053153640409, -976.0559768743489, -26585.03074467549, -33501.688659392436, 0.06505712890625001, -0.0066191406250000005, 1.0322036132812502, 192.0, 0.0, 0.0, 0.0, 0.0, 0.0, 0.0, 0.0, 0.0, 0.0, 1.747687872505179E9, 0.0, 2025-05-19 22:51:12.505
216.0, 22941.003494382323, 17602.088165532132, 47771.80227897195, 30199.129009143, 35041.61209364082, -266.4774973961708, 8425.914755572649, 571.0870708330955, 0.0, 0.0, 16906.367767616244, -12118.735864011749, 7422.321429529361, -1016.0208959604379, -26613.484515367094, -33543.17349710149, 0.058, -0.006, 1.03, 192.0, 0.5, 104.0, 127.5, 104.0, 16.0, 24.0, 0.0, 0.0, 0.0, 1.747687872512232E9, 0.0, 2025-05-19 22:51:12.512
218.0, 22939.282410059262, 17596.880209074046, 47775.356206340344, 30205.476904568306, 35067.4283584867, -244.05869770749783, 8430.586270163807, 554.5691316806235, 0.0, 0.0, 16906.501878082978, -12110.800994730114, 7432.782045934445, -981.1968780990694, -26584.62841327529, -33514.11622930959, 0.058, -0.006, 1.03, 192.0, 0.0, 0.0, 0.0, 0.0, 0.0, 0.0, 0.0, 0.0, 0.0, 1.747687872520262E9, 0.0, 2025-05-19 22:51:12.520
220.0, 22926.385453508552, 17583.42445891195, 47756.334871808875, 30191.082381139087, 35040.78507909597, -267.32686368547246, 8382.284150395888, 560.7158614058329, 0.0, 0.0, 16893.046127920883, -12121.999218702224, 7424.735417930534, -1008.8906894791949, -26621.21821894863, -33536.04329062025, 0.058, -0.006, 1.03, 192.0, 0.0, 0.0, 0.0, 0.0, 0.0, 0.0, 0.0, 0.0, 0.0, 1.74768787252831E9, 0.0, 2025-05-19 22:51:12.528
222.0, 22934.163860579, 17595.404993939996, 47769.969435926614, 30208.15911390294, 35046.194201254155, -260.39782290432726, 8461.141104834212, 573.4116522564474, 0.0, 0.0, 16894.946026199585, -12114.53373605415, 7415.973534104054, -998.3853695852006, -26599.939358227177, -33531.70705219592, 0.058, -0.006, 1.03, 192.0, 0.0, 0.0, 0.0, 0.0, 0.0, 0.0, 0.0, 0.0, 0.0, 1.747687872536324E9, 0.0, 2025-05-19 22:51:12.536
224.0, 22924.507906974308, 17583.24564495631, 47761.69929047815, 30203.30878535614, 35052.273875746, -249.17724718776313, 8393.527077856908, 556.9160648484308, 0.0, 0.0, 16890.09569765278, -12118.892326222936, 7432.491473256526, -976.7041774635527, -26591.535102311984, -33505.24258676083, 0.058, -0.006, 1.03, 192.0, 0.0, 0.0, 0.0, 0.0, 0.0, 0.0, 0.0, 0.0, 0.0, 1.74768787254434E9, 0.0, 2025-05-19 22:51:12.544
226.0, 22928.285351787254, 17584.899674046002, 47763.71094747913, 30199.330174843097, 35034.70540460413, -280.58144814746953, 8424.104264271768, 569.5671522101346, 0.0, 0.0, 16888.084040651804, -12125.799015259627, 7411.70435091309, -1013.3163348813457, -26620.12298347032, -33543.285255823765, 0.058, -0.008, 1.036, 192.0, 0.5, 104.0, 127.5, 96.0, 16.0, 48.0, 0.0, 0.0, 0.0, 1.747687872552412E9, 0.0, 2025-05-19 22:51:12.552
228.0, 22928.19594480943, 17585.592578124117, 47767.46604054762, 30207.667375524925, 35058.66647466022, -251.99356698913184, 8433.939031832104, 558.1901142823833, 0.0, 0.0, 16894.946026199585, -12113.706721509305, 7427.484682498537, -975.5195350074215, -26585.45542782014, -33512.28338626425, 0.058, -0.008, 1.036, 192.0, 0.0, 0.0, 0.0, 0.0, 0.0, 0.0, 0.0, 0.0, 0.0, 1.747687872560414E9, 0.0, 2025-05-19 22:51:12.560
230.0, 22912.214447523886, 17570.549854105695, 47756.78190669798, 30187.751971215246, 35041.00859654052, -272.89244805484395, 8383.915827741126, 558.167762537928, 0.0, 0.0, 16882.741973726985, -12128.816500761093, 7417.0687695823635, -1001.3805033422117, -26617.485477624596, -33531.37177602908, 0.058, -0.008, 1.036, 192.0, 0.0, 0.0, 0.0, 0.0, 0.0, 0.0, 0.0, 0.0, 0.0, 1.747687872567442E9, 0.0, 2025-05-19 22:51:12.567
232.0, 22925.06670058569, 17584.027956012244, 47773.88099120629, 30210.975433704312, 35058.644122915764, -258.09559322543066, 8454.167360564155, 573.4340040009027, 0.0, 0.0, 16890.028642419416, -12123.87676523647, 7412.218441035562, -997.6701137626308, -26600.989890216577, -33535.2162760754, 0.058, -0.008, 1.036, 192.0, 0.0, 0.0, 0.0, 0.0, 0.0, 0.0, 0.0, 0.0, 0.0, 1.747687872576475E9, 0.0, 2025-05-19 22:51:12.576
234.0, 22921.53512496175, 17575.80251405269, 47763.68859573467, 30199.7772097322, 35061.68396016168, -249.78074428805644, 8395.382272646699, 560.4476404723692, 0.0, 0.0, 16898.857581479264, -12113.371445342476, 7437.766484947978, -972.6361599726869, -26590.752791256047, -33503.47679894886, 0.058, -0.008, 1.036, 192.0, 0.0, 0.0, 0.0, 0.0, 0.0, 0.0, 0.0, 0.0, 0.0, 1.747687872584531E9, 0.0, 2025-05-19 22:51:12.584
236.0, 22927.324226775676, 17586.754868835793, 47770.05884290444, 30207.17563714691, 35041.433279685174, -269.5843898754585, 8417.264630468444, 583.8275651726204, 0.0, 0.0, 16883.14430512718, -12128.570631572084, 7407.725740400046, -1012.9587069700608, -26622.246399193577, -33543.151145357035, 0.058, -0.012, 1.034, 192.0, 0.5, 104.0, 127.5, 80.0, 16.0, 40.0, 0.0, 0.0, 0.0, 1.747687872592561E9, 0.0, 2025-05-19 22:51:12.592
238.0, 22937.315456547196, 17590.19703748191, 47782.486412821585, 30215.7810587622, 35071.18345155519, -243.63401456284697, 8442.253880769478, 564.8062306411541, 0.0, 0.0, 16910.77106127394, -12103.53667778214, 7440.873377427266, -965.3941947691674, -26576.000639915543, -33501.73336288135, 0.058, -0.012, 1.034, 192.0, 0.0, 0.0, 0.0, 0.0, 0.0, 0.0, 0.0, 0.0, 0.0, 1.747687872599529E9, 0.0, 2025-05-19 22:51:12.599
240.0, 22918.830563882657, 17570.43809538342, 47763.71094747913, 30198.011421920233, 35043.824916341895, -269.6067416199138, 8388.207362676545, 565.879114375009, 0.0, 0.0, 16899.684596024108, -12119.518175067686, 7431.7538656895, -992.9762474270162, -26608.611835075837, -33524.554493970216, 0.058, -0.012, 1.034, 192.0, 0.0, 0.0, 0.0, 0.0, 0.0, 0.0, 0.0, 0.0, 0.0, 1.747687872608624E9, 0.0, 2025-05-19 22:51:12.608
242.0, 22924.709072674403, 17578.708240831882, 47773.97039818411, 30211.154247659953, 35064.20970728513, -270.05377650901994, 8458.213026310566, 573.0316726007071, 0.0, 0.0, 16898.745822756984, -12115.271343621176, 7421.494414984515, -990.9422386815833, -26596.251320392053, -33527.50492423832, 0.058, -0.012, 1.034, 192.0, 0.0, 0.0, 0.0, 0.0, 0.0, 0.0, 0.0, 0.0, 0.0, 1.747687872615633E9, 0.0, 2025-05-19 22:51:12.615
244.0, 22922.518601717784, 17574.416705896463, 47772.98692142808, 30203.21937837832, 35051.73743387907, -252.46295362269328, 8401.551354116364, 558.1901142823833, 0.0, 0.0, 16898.008215189962, -12117.327704111065, 7441.923909416665, -968.7022529485528, -26587.802360987946, -33500.928700080956, 0.058, -0.012, 1.034, 192.0, 0.0, 0.0, 0.0, 0.0, 0.0, 0.0, 0.0, 0.0, 0.0, 1.747687872624661E9, 0.0, 2025-05-19 22:51:12.624
246.0, 22924.23968604084, 17576.607176853082, 47764.31444457942, 30200.336003343586, 35041.03094828498, -281.9672563036986, 8432.776741120428, 577.2561523027603, 0.0, 0.0, 16901.651549536175, -12122.222736146778, 7421.606173706791, -1005.8508522332731, -26617.46312588014, -33539.03842437726, 0.058, -0.002, 1.03, 192.0, 0.5, 104.0, 127.5, 120.0, 16.0, 24.0, 0.0, 0.0, 0.0, 1.747687872632693E9, 0.0, 2025-05-19 22:51:12.632
248.0, 22920.305779016708, 17570.639261083517, 47776.94318019667, 30204.91811095692, 35063.181527040186, -251.07714546646423, 8449.808770395372, 565.7003004193665, 0.0, 0.0, 16898.72347101253, -12124.547317570128, 7429.384580777238, -971.9879593834829, -26584.49430280856, -33511.63518567505, 0.058, -0.002, 1.03, 192.0, 0.0, 0.0, 0.0, 0.0, 0.0, 0.0, 0.0, 0.0, 0.0, 1.747687872640712E9, 0.0, 2025-05-19 22:51:12.640
250.0, 22902.223217752366, 17558.07758069963, 47760.20172359964, 30189.763628216224, 35031.307939446924, -273.54064864404785, 8397.930371514603, 567.6225504425229, 0.0, 0.0, 16889.29103485239, -12128.525928083174, 7424.668362697168, -995.4572910615553, -26609.997643232065, -33527.37081377159, 0.058, -0.002, 1.03, 192.0, 0.0, 0.0, 0.0, 0.0, 0.0, 0.0, 0.0, 0.0, 0.0, 1.747687872647767E9, 0.0, 2025-05-19 22:51:12.647
252.0, 22908.660520155492, 17568.292327915708, 47767.01900565851, 30205.655718523947, 35051.446861201155, -275.9993405341316, 8469.187732838123, 574.037501101196, 0.0, 0.0, 16894.119011654737, -12125.061407692601, 7416.219403293062, -994.6973317500749, -26596.98892795908, -33530.72357543988, 0.058, -0.002, 1.03, 192.0, 0.0, 0.0, 0.0, 0.0, 0.0, 0.0, 0.0, 0.0, 0.0, 1.747687872655789E9, 0.0, 2025-05-19 22:51:12.655
254.0, 22907.989967821835, 17560.08923770061, 47763.30861607893, 30195.999764919256, 35044.9201518202, -255.48043912415972, 8404.233563451, 560.0229573277185, 0.0, 0.0, 16884.038374905394, -12120.658114034906, 7432.133845345241, -974.8266309293069, -26590.59632904486, -33504.21440651589, 0.058, -0.002, 1.03, 192.0, 0.0, 0.0, 0.0, 0.0, 0.0, 0.0, 0.0, 0.0, 0.0, 1.747687872664816E9, 0.0, 2025-05-19 22:51:12.664
0.0, 22916.997720837324, 17573.030897740235, 47773.97039818411, 30204.202855134354, 35039.30986396192, -271.2607707096065, 8443.28206101442, 585.8392221735982, 0.0, 0.0, 16888.66518600764, -12134.002105474723, 7415.347685259305, -1008.6448202901865, -26616.099669468364, -33540.40188078903, 0.06, -0.002, 1.036, 192.0, 0.5, 112.0, 127.5, 120.0, 16.0, 48.0, 0.0, 0.0, 0.0, 1.747687872671856E9, 0.0, 2025-05-19 22:51:12.671
2.0, 22898.803400850702, 17554.076618442134, 47763.44272654566, 30200.15718938794, 35048.787003610974, -265.02463400657587, 8439.1916917791, 555.7314223922995, 0.0, 0.0, 16896.287130866902, -12119.07114017858, 7428.535214487936, -970.4009855271561, -26579.73338123958, -33506.1590082835, 0.06, -0.002, 1.036, 192.0, 0.0, 0.0, 0.0, 0.0, 0.0, 0.0, 0.0, 0.0, 0.0, 1.747687872679886E9, 0.0, 2025-05-19 22:51:12.679
4.0, 22896.210598493886, 17550.410932351464, 47750.27754906149, 30188.109599126532, 35035.13008774878, -270.74668058713445, 8388.587342332285, 563.0404428291849, 0.0, 0.0, 16878.852770191763, -12137.757198543215, 7415.593554448314, -1001.1346341532034, -26617.32901541341, -33530.54476148424, 0.06, -0.002, 1.036, 192.0, 0.0, 0.0, 0.0, 0.0, 0.0, 0.0, 0.0, 0.0, 0.0, 1.74768787268991E9, 0.0, 2025-05-19 22:51:12.689
6.0, 22914.8072498807, 17570.773371550247, 47775.847944718356, 30208.047355180664, 35054.33023623589, -265.762241573601, 8467.399593281698, 578.5078499922574, 0.0, 0.0, 16888.285206351902, -12114.891363965437, 7418.074598082852, -989.1093956362481, -26594.284366879987, -33525.82854340417, 0.06, -0.002, 1.036, 192.0, 0.0, 0.0, 0.0, 0.0, 0.0, 0.0, 0.0, 0.0, 0.0, 1.747687872696936E9, 0.0, 2025-05-19 22:51:12.696
8.0, 22896.277653727255, 17549.315696873153, 47758.19006659867, 30192.848168951055, 35039.421622684196, -269.78555557555626, 8393.772947045916, 550.2775967452046, 0.0, 0.0, 16881.602034759766, -12138.204233432321, 7422.947278374109, -981.7780234549074, -26599.045288448968, -33515.23381653235, 0.06, -0.002, 1.036, 192.0, 0.0, 0.0, 0.0, 0.0, 0.0, 0.0, 0.0, 0.0, 0.0, 1.747687872704946E9, 0.0, 2025-05-19 22:51:12.704
10.0, 22899.29513922872, 17553.98721146431, 47754.859656674824, 30195.373916074506, 35043.824916341895, -277.4745556681819, 8427.47937768452, 575.0656813461401, 0.0, 0.0, 16885.267720850436, -12123.474433836274, 7412.441958480115, -1012.757541269963, -26619.139506714288, -33544.11227036861, 0.054, 0.0, 1.038, 192.0, 0.5, 88.0, 0.0, 0.0, 16.0, 56.0, 0.0, 0.0, 0.0, 1.747687872711972E9, 0.0, 2025-05-19 22:51:12.711
12.0, 22911.029805067756, 17574.014374496266, 47781.994674443566, 30219.826724508614, 35047.177678010186, -250.9653867441877, 8452.490979730008, 574.4621842458469, 0.0, 0.0, 16892.39792733168, -12120.993390201735, 7428.490510999026, -969.9763023825053, -26581.34270684036, -33506.06960130568, 0.054, 0.0, 1.038, 192.0, 0.0, 0.0, 0.0, 0.0, 0.0, 0.0, 0.0, 0.0, 0.0, 1.747687872720985E9, 0.0, 2025-05-19 22:51:12.720
14.0, 22896.434115938442, 17548.891013728502, 47761.229903844585, 30193.719886984814, 35033.967797037105, -275.88758181185506, 8393.03533947889, 567.9354748648972, 0.0, 0.0, 16896.980034945016, -12115.137233154444, 7434.078447112853, -986.047206645871, -26599.917006482723, -33516.03847933275, 0.054, 0.0, 1.038, 192.0, 0.0, 0.0, 0.0, 0.0, 0.0, 0.0, 0.0, 0.0, 0.0, 1.747687872728038E9, 0.0, 2025-05-19 22:51:12.728
16.0, 22886.95697628939, 17543.481891570318, 47746.902435648735, 30183.34867755755, 35058.66647466022, -279.66502662480195, 8458.347136777298, 567.5331434647017, 0.0, 0.0, 16862.51364499493, -12142.316954412097, 7395.968722816554, -1006.0520179333708, -26608.298910653462, -33543.50877326832, 0.054, 0.0, 1.038, 192.0, 0.0, 0.0, 0.0, 0.0, 0.0, 0.0, 0.0, 0.0, 0.0, 1.747687872737073E9, 0.0, 2025-05-19 22:51:12.737
18.0, 22894.422458937464, 17553.98721146431, 47757.251293331545, 30190.434180549884, 35057.392425226266, -253.64759607882453, 8404.85941229575, 559.262998016238, 0.0, 0.0, 16877.735182968998, -12148.284870181666, 7420.510938228481, -982.8732589332175, -26600.162875671733, -33517.08901132215, 0.054, 0.0, 1.038, 192.0, 0.0, 0.0, 0.0, 0.0, 0.0, 0.0, 0.0, 0.0, 0.0, 1.747687872744119E9, 0.0, 2025-05-19 22:51:12.744
20.0, 22894.176589748455, 17546.722894516337, 47737.045316343945, 30186.50027352575, 35055.358416480834, -308.23055603868437, 8424.57365090533, 566.5049632197575, 0.0, 0.0, 16867.788656686385, -12132.97392522978, 7401.9813420750315, -1019.5524715843763, -26627.856687051855, -33549.45433729343, 0.056, -0.002, 1.034, 192.0, 0.5, 96.0, 127.5, 120.0, 16.0, 40.0, 0.0, 0.0, 0.0, 1.747687872753109E9, 0.0, 2025-05-19 22:51:12.753
22.0, 22916.86361037059, 17574.70727857438, 47795.137500183286, 30224.02885246621, 35055.023140314, -241.64470930632464, 8456.58134896533, 575.713881935344, 0.0, 0.0, 16884.82068596133, -12118.802919245116, 7429.451636010604, -969.7304331934969, -26577.520558538505, -33506.40487747251, 0.056, -0.002, 1.034, 192.0, 0.0, 0.0, 0.0, 0.0, 0.0, 0.0, 0.0, 0.0, 0.0, 1.747687872760175E9, 0.0, 2025-05-19 22:51:12.760
24.0, 22897.797572350213, 17558.47991209983, 47766.10258413584, 30202.9288057004, 35033.185485981165, -269.9643695311987, 8398.444461637077, 575.4456610018804, 0.0, 0.0, 16900.95864545806, -12112.007988930702, 7434.748999446511, -987.276552590913, -26597.21244540363, -33516.7090316664, 0.056, -0.002, 1.034, 192.0, 0.0, 0.0, 0.0, 0.0, 0.0, 0.0, 0.0, 0.0, 0.0, 1.747687872768163E9, 0.0, 2025-05-19 22:51:12.768
26.0, 22916.170706292476, 17566.48183661483, 47774.19391562867, 30208.74025925878, 35056.49835544805, -267.7068433412127, 8465.924378147647, 576.3844342690032, 0.0, 0.0, 16887.726412740518, -12112.052692419613, 7422.902574885199, -985.4437095455778, -26588.651727277247, -33521.000566601826, 0.056, -0.002, 1.034, 192.0, 0.0, 0.0, 0.0, 0.0, 0.0, 0.0, 0.0, 0.0, 0.0, 1.7476878727762E9, 0.0, 2025-05-19 22:51:12.776
28.0, 22906.224180009864, 17562.592633079606, 47762.81687770091, 30193.16109337343, 35060.00757932754, -261.78363106055633, 8401.908982027648, 555.3737944810146, 0.0, 0.0, 16901.070404180336, -12132.348076385031, 7437.56531924788, -970.8480204162622, -26584.896634208755, -33507.94714783992, 0.056, -0.002, 1.034, 192.0, 0.0, 0.0, 0.0, 0.0, 0.0, 0.0, 0.0, 0.0, 0.0, 1.747687872784275E9, 0.0, 2025-05-19 22:51:12.784
30.0, 22908.548761433216, 17571.019240739257, 47779.468927320115, 30214.909340728445, 35043.48964017507, -266.32103518498366, 8450.680488429129, 596.2551350897712, 0.0, 0.0, 16875.745877712474, -12126.268401893187, 7417.314638771372, -1002.0287039314156, -26610.422326376716, -33536.69149120945, 0.058, -0.008, 1.036, 192.0, 0.5, 104.0, 127.5, 96.0, 16.0, 48.0, 0.0, 0.0, 0.0, 1.747687872792261E9, 0.0, 2025-05-19 22:51:12.792
32.0, 22899.071621784165, 17554.836577753613, 47768.47186904811, 30204.02404117871, 35077.08431209139, -245.37745063036093, 8460.381145522731, 568.9860068542965, 0.0, 0.0, 16901.092755924794, -12107.358826083997, 7439.308755315395, -957.5710842098099, -26569.228061345588, -33498.11238027959, 0.058, -0.008, 1.036, 192.0, 0.0, 0.0, 0.0, 0.0, 0.0, 0.0, 0.0, 0.0, 0.0, 1.747687872800235E9, 0.0, 2025-05-19 22:51:12.800
34.0, 22903.854895097604, 17568.56054884917, 47781.63704653228, 30207.466209824826, 35021.60728235332, -262.11890722738593, 8406.155813474157, 572.7858034116988, 0.0, 0.0, 16909.96639847355, -12117.35005585552, 7439.085237870841, -984.5719915118208, -26598.911177982234, -33519.39124100104, 0.058, -0.008, 1.036, 192.0, 0.0, 0.0, 0.0, 0.0, 0.0, 0.0, 0.0, 0.0, 0.0, 1.747687872808334E9, 0.0, 2025-05-19 22:51:12.808
36.0, 22916.43892722594, 17576.920101275457, 47781.726453510106, 30222.106602443055, 35063.44974797365, -246.00329947510954, 8490.958331937592, 584.8333936731093, 0.0, 0.0, 16901.740956513997, -12106.01772141668, 7432.893804656721, -977.1065088637482, -26581.0744859069, -33520.084145079156, 0.058, -0.008, 1.036, 192.0, 0.0, 0.0, 0.0, 0.0, 0.0, 0.0, 0.0, 0.0, 0.0, 1.747687872816413E9, 0.0, 2025-05-19 22:51:12.816
38.0, 22893.953072303902, 17563.24083366881, 47773.97039818411, 30210.0813639261, 35055.492526947564, -245.44450586372685, 8420.304467714366, 565.1415068079838, 0.0, 0.0, 16883.591340016286, -12099.736881224739, 7448.338860075339, -956.4311452425892, -26576.291212593464, -33493.03853428824, 0.058, -0.008, 1.036, 192.0, 0.0, 0.0, 0.0, 0.0, 0.0, 0.0, 0.0, 0.0, 0.0, 1.747687872824407E9, 0.0, 2025-05-19 22:51:12.824
40.0, 22915.43309872545, 17577.47889488684, 47790.71185478113, 30215.15520991745, 35030.190352224156, -257.2909304250396, 8451.261633784967, 582.9558471388635, 0.0, 0.0, 16915.53198284292, -12112.767948242183, 7433.452598268104, -991.6351427596978, -26598.754715771047, -33533.40578477452, 0.056, -0.006, 1.036, 192.0, 0.5, 96.0, 127.5, 104.0, 16.0, 48.0, 0.0, 0.0, 0.0, 1.747687872834406E9, 0.0, 2025-05-19 22:51:12.834
42.0, 22927.52539247577, 17587.805400825193, 47794.66811354973, 30218.575026819115, 35048.18350651068, -228.94891845571024, 8465.209122325077, 577.1667453249389, 0.0, 0.0, 16926.417282392656, -12100.094509136023, 7456.027860167964, -943.5118369474218, -26552.039569859455, -33490.19986274241, 0.056, -0.006, 1.036, 192.0, 0.0, 0.0, 0.0, 0.0, 0.0, 0.0, 0.0, 0.0, 0.0, 1.747687872841438E9, 0.0, 2025-05-19 22:51:12.841
