%OpenBCI Raw EXG Data
%Number of channels = 16
%Sample Rate = 125 Hz
%Board = OpenBCI_GUI$BoardCytonSerialDaisy
Sample Index, EXG Channel 0, EXG Channel 1, EXG Channel 2, EXG Channel 3, EXG Channel 4, EXG Channel 5, EXG Channel 6, EXG Channel 7, EXG Channel 8, EXG Channel 9, EXG Channel 10, EXG Channel 11, EXG Channel 12, EXG Channel 13, EXG Channel 14, EXG Channel 15, Accel Channel 0, Accel Channel 1, Accel Channel 2, Not Used, Digital Channel 0 (D11), Digital Channel 1 (D12), Digital Channel 2 (D13), Digital Channel 3 (D17), Not Used, Digital Channel 4 (D18), Analog Channel 0, Analog Channel 1, Analog Channel 2, Timestamp, Marker Channel, Timestamp (Formatted)
188.0, 20550.372666164956, 17586.933682791434, 47857.58827419142, 34099.17314042725, 42608.75047549611, 2199.5681166134023, 8035.5191869162545, 8244.128017917636, 0.0, 0.0, 5530.38037185435, -28042.49859362824, 19160.0718093004, 5750.477999505759, -5572.647520619335, -30468.154605407075, 0.0, 0.0, 0.0, 192.0, 0.0, 0.0, 0.0, 0.0, 0.0, 0.0, 0.0, 0.0, 0.0, 1.747692016297759E9, 0.0, 2025-05-20 00:00:16.297
190.0, 20574.601957154508, 17609.73246213585, 47871.8486871539, 34107.04095447552, 42625.93896698224, 2201.57977361438, 8036.547367161199, 8260.645957070108, 0.0, 0.0, 5495.556353992982, -28069.36539046352, 19127.17004146219, 5712.770606609655, -5602.889430867366, -30505.23614945843, 0.0, 0.0, 0.0, 192.0, 0.0, 0.0, 0.0, 0.0, 0.0, 0.0, 0.0, 0.0, 0.0, 1.747692016299188E9, 0.0, 2025-05-20 00:00:16.299
0.0, 10495.015739800423, 9008.311809100129, 24054.880327568095, 17152.460474069176, 22370.296403204968, 1434.937290541803, 4229.21827187756, 4122.6228025702, 0.0, 0.0, 2767.861219389584, -14016.175450822766, 9580.628225878267, 2876.75891837584, -2783.3733300415674, -15234.524337592644, 0.028, -0.003, 0.516, 192.0, 0.5, 96.0, 127.5, 104.0, 16.0, 32.0, 0.0, 0.0, 0.0, 1.747692016385358E9, 0.0, 2025-05-20 00:00:16.385
2.0, 21024.654331762118, 18066.915043224697, 48146.39516429844, 34335.8557624645, 44752.37217573788, 2908.05136061327, 8443.662040670162, 8253.403991866588, 0.0, 0.0, 5504.3182378194615, -28229.20271506342, 19622.708216036346, 6032.4899592983675, -4962.444896989453, -30314.061679132188, 0.028, -0.003, 0.516, 192.0, 0.0, 0.0, 0.0, 0.0, 0.0, 0.0, 0.0, 0.0, 0.0, 1.747692016392403E9, 0.0, 2025-05-20 00:00:16.392
4.0, 21007.957578654, 18046.150272625717, 48122.27763203116, 34313.45931452028, 44747.298329746525, 2884.850249868661, 8414.157737989157, 8249.760657520374, 0.0, 0.0, 5530.246261387618, -28208.23677876434, 19638.913230766444, 6031.327668586692, -4967.719908680905, -30313.145257609518, 0.028, -0.003, 0.516, 192.0, 0.0, 0.0, 0.0, 0.0, 0.0, 0.0, 0.0, 0.0, 0.0, 1.747692016400433E9, 0.0, 2025-05-20 00:00:16.400
6.0, 21037.864212735203, 18080.52725559798, 48159.13565863796, 34346.65165503641, 44750.06994605898, 2880.4246044665106, 8463.979776380036, 8261.964709992972, 0.0, 0.0, 5517.729284492646, -28218.049194580224, 19628.944352739378, 6031.819406964709, -4962.534303967274, -30314.575769254658, 0.028, -0.003, 0.516, 192.0, 0.0, 0.0, 0.0, 0.0, 0.0, 0.0, 0.0, 0.0, 0.0, 1.747692016409418E9, 0.0, 2025-05-20 00:00:16.409
8.0, 21017.43471830305, 18051.022952916974, 48139.42142002838, 34323.38348905843, 44737.84354184193, 2875.5966276641643, 8417.577554890819, 8249.805361009283, 0.0, 0.0, 5535.47656959016, -28196.412705947485, 19652.257222206263, 6048.963194961929, -4951.31372825071, -30295.37562076755, 0.06, -0.008, 1.034, 192.0, 0.5, 112.0, 127.5, 96.0, 16.0, 40.0, 0.0, 0.0, 0.0, 1.747692016417482E9, 0.0, 2025-05-20 00:00:16.417
10.0, 21005.29772106382, 18046.172624370174, 48124.51280647669, 34311.15708484138, 44746.65012915732, 2866.6782816264968, 8442.589156936307, 8241.311698116268, 0.0, 0.0, 5522.3337438504395, -28229.87326739708, 19619.221343901318, 6020.911755670519, -4972.056147105235, -30327.897408950023, 0.06, -0.008, 1.034, 192.0, 0.0, 0.0, 0.0, 0.0, 0.0, 0.0, 0.0, 0.0, 0.0, 1.747692016426494E9, 0.0, 2025-05-20 00:00:16.426
12.0, 21013.16553511209, 18047.312563337393, 48133.006469369706, 34320.72363146825, 44745.845466356936, 2889.5664679487313, 8427.14410151769, 8226.358381075666, 0.0, 0.0, 5513.683618746236, -28215.657557923503, 19629.100814950565, 6032.6017180206445, -4960.8802748775815, -30315.313376821683, 0.06, -0.008, 1.034, 192.0, 0.0, 0.0, 0.0, 0.0, 0.0, 0.0, 0.0, 0.0, 0.0, 1.747692016432533E9, 0.0, 2025-05-20 00:00:16.432
14.0, 21003.82250592977, 18041.970496412578, 48131.888882146945, 34316.052116877094, 44729.86396907139, 2861.760897846329, 8410.782624576404, 8237.601308536687, 0.0, 0.0, 5499.80318543949, -28237.45050876743, 19613.253428131753, 6009.914697398508, -4988.1270513686, -30338.402728844016, 0.06, -0.008, 1.034, 192.0, 0.0, 0.0, 0.0, 0.0, 0.0, 0.0, 0.0, 0.0, 0.0, 1.747692016440598E9, 0.0, 2025-05-20 00:00:16.440
16.0, 21035.338465611752, 18072.726496783078, 48156.34169058105, 34345.73523351374, 44755.52377170608, 2890.505241215854, 8470.372375294253, 8259.885997758627, 0.0, 0.0, 5545.937185995243, -28193.708144868393, 19650.849062305577, 6047.666793783521, -4945.189350269956, -30301.499998748306, 0.06, -0.008, 1.034, 192.0, 0.0, 0.0, 0.0, 0.0, 0.0, 0.0, 0.0, 0.0, 0.0, 1.747692016448623E9, 0.0, 2025-05-20 00:00:16.448
18.0, 21007.644654231626, 18046.999638915022, 48127.686754189344, 34312.67700346434, 44731.808570839, 2904.676247200519, 8419.656267125161, 8231.38752357811, 0.0, 0.0, 5521.640839772325, -28221.848991137624, 19638.488547621793, 6036.222700622404, -4963.853056890137, -30311.893559920023, 0.062, -0.002, 1.026, 192.0, 0.5, 120.0, 127.5, 120.0, 16.0, 8.0, 0.0, 0.0, 0.0, 1.747692016455596E9, 0.0, 2025-05-20 00:00:16.455
20.0, 21010.86330543319, 18046.843176703835, 48127.37382976697, 34311.62647147494, 44741.46452444369, 2840.8173132917063, 8446.008973837968, 8239.3447446042, 0.0, 0.0, 5507.492185532115, -28220.262017281297, 19617.790832256178, 6014.653267223033, -4980.169830342511, -30332.971254941378, 0.062, -0.002, 1.026, 192.0, 0.0, 0.0, 0.0, 0.0, 0.0, 0.0, 0.0, 0.0, 0.0, 1.747692016463634E9, 0.0, 2025-05-20 00:00:16.463
22.0, 21011.44445078903, 18048.72072323808, 48126.68092568886, 34315.26980582116, 44745.10785878991, 2871.863886340128, 8416.728188601517, 8234.002677679382, 0.0, 0.0, 5511.8284239564455, -28231.25907555331, 19620.227172401806, 6024.152758616538, -4968.278702292288, -30324.34348158163, 0.062, -0.002, 1.026, 192.0, 0.0, 0.0, 0.0, 0.0, 0.0, 0.0, 0.0, 0.0, 0.0, 1.747692016472646E9, 0.0, 2025-05-20 00:00:16.472
24.0, 20999.799191927814, 18045.05503714741, 48124.22223379878, 34307.35728828398, 44736.18951275224, 2850.7861913187735, 8429.468682941042, 8246.96668946346, 0.0, 0.0, 5505.23465934213, -28229.090956341144, 19616.561486311137, 6013.155700344527, -4985.55660075624, -30331.987778185343, 0.062, -0.002, 1.026, 192.0, 0.0, 0.0, 0.0, 0.0, 0.0, 0.0, 0.0, 0.0, 0.0, 1.747692016480798E9, 0.0, 2025-05-20 00:00:16.480
26.0, 21025.906029451613, 18064.612813545802, 48138.862626417, 34332.637111262935, 44750.67344315928, 2878.2117817654353, 8462.571616479352, 8253.895730244605, 0.0, 0.0, 5512.2978105900065, -28220.19496204793, 19621.680035791403, 6028.801921463242, -4965.015347601813, -30318.509676278794, 0.062, -0.002, 1.026, 192.0, 0.0, 0.0, 0.0, 0.0, 0.0, 0.0, 0.0, 0.0, 0.0, 1.747692016488706E9, 0.0, 2025-05-20 00:00:16.488
28.0, 21003.24136057393, 18037.544851010425, 48121.18239655285, 34303.98217487123, 44731.96503305019, 2872.3332729736894, 8407.362807674743, 8232.862738712161, 0.0, 0.0, 5514.935316435733, -28222.228970793363, 19631.201878929365, 6027.6172790071105, -4974.514838995318, -30316.47566753336, 0.058, -0.002, 1.026, 192.0, 0.5, 104.0, 127.5, 120.0, 16.0, 8.0, 0.0, 0.0, 0.0, 1.74769201649776E9, 0.0, 2025-05-20 00:00:16.497
30.0, 21017.63588400315, 18059.62837453227, 48140.986042140255, 34323.852875692, 44752.48393446016, 2861.537380401776, 8458.43654375512, 8256.77910527934, 0.0, 0.0, 5505.592287253415, -28231.81786916469, 19611.822916486613, 6012.954534644429, -4982.382653043586, -30337.173382898975, 0.058, -0.002, 1.026, 192.0, 0.0, 0.0, 0.0, 0.0, 0.0, 0.0, 0.0, 0.0, 0.0, 1.747692016505793E9, 0.0, 2025-05-20 00:00:16.505
32.0, 21011.53385776685, 18052.073484906374, 48140.1143241065, 34329.44081180583, 44748.8629518584, 2892.628656939108, 8451.775723907438, 8254.63333781163, 0.0, 0.0, 5526.357057852395, -28212.997700333322, 19638.51089936625, 6050.147837418061, -4946.195178770445, -30301.209426070385, 0.058, -0.002, 1.026, 192.0, 0.0, 0.0, 0.0, 0.0, 0.0, 0.0, 0.0, 0.0, 0.0, 1.747692016513835E9, 0.0, 2025-05-20 00:00:16.513
34.0, 21006.504715264407, 18044.25037434702, 48142.52831250767, 34321.729459968745, 44749.04176581404, 2871.796831106762, 8437.33649698931, 8256.15325643459, 0.0, 0.0, 5518.75746473759, -28222.541895215738, 19626.016274215734, 6027.19259586246, -4974.201914572945, -30323.38235657005, 0.058, -0.002, 1.026, 192.0, 0.0, 0.0, 0.0, 0.0, 0.0, 0.0, 0.0, 0.0, 0.0, 1.747692016519869E9, 0.0, 2025-05-20 00:00:16.519
36.0, 21004.67187221907, 18050.79943547242, 48137.074486860576, 34332.52535254066, 44754.294425761036, 2872.1991625069577, 8461.00699436748, 8255.706221545484, 0.0, 0.0, 5527.944031708722, -28206.269825252275, 19633.54881209717, 6051.690107785476, -4945.926957836981, -30299.689507447423, 0.058, -0.002, 1.026, 192.0, 0.0, 0.0, 0.0, 0.0, 0.0, 0.0, 0.0, 0.0, 0.0, 1.747692016529884E9, 0.0, 2025-05-20 00:00:16.529
38.0, 20998.368680282674, 18033.70035096411, 48125.585690210544, 34308.60898597348, 44741.03984129904, 2891.28755227179, 8416.325857201322, 8237.623660281142, 0.0, 0.0, 5505.659342486781, -28229.78386041926, 19620.897724735467, 6031.282965097781, -4974.023100617302, -30317.213275100385, 0.06, 0.0, 1.034, 192.0, 0.5, 112.0, 0.0, 0.0, 16.0, 40.0, 0.0, 0.0, 0.0, 1.747692016536855E9, 0.0, 2025-05-20 00:00:16.536
40.0, 21006.39295654213, 18044.898574936222, 48133.498207747725, 34315.96270989927, 44745.08550704545, 2861.5820838906866, 8456.290776287411, 8254.119247689157, 0.0, 0.0, 5505.972266909154, -28239.48451751286, 19606.614960028524, 6018.5201190138005, -4981.376824543098, -30332.747737496822, 0.06, 0.0, 1.034, 192.0, 0.0, 0.0, 0.0, 0.0, 0.0, 0.0, 0.0, 0.0, 0.0, 1.747692016543917E9, 0.0, 2025-05-20 00:00:16.543
42.0, 21000.33563379474, 18033.208612586095, 48127.28442278915, 34311.6488232194, 44749.01941406959, 2896.5849157076977, 8429.133406774212, 8239.031820181826, 0.0, 0.0, 5521.529081050048, -28227.839258651646, 19625.099852693063, 6042.749410003354, -4956.767553897805, -30307.982004640344, 0.06, 0.0, 1.034, 192.0, 0.0, 0.0, 0.0, 0.0, 0.0, 0.0, 0.0, 0.0, 0.0, 1.747692016551932E9, 0.0, 2025-05-20 00:00:16.551
44.0, 20997.608720971195, 18037.43309228815, 48124.51280647669, 34308.47487550675, 44743.92321633377, 2869.874581083606, 8421.019723536936, 8251.191169165513, 0.0, 0.0, 5494.438766770216, -28251.39799730754, 19599.17182912491, 6010.09351135415, -4991.882144437092, -30338.15685965501, 0.06, 0.0, 1.034, 192.0, 0.0, 0.0, 0.0, 0.0, 0.0, 0.0, 0.0, 0.0, 0.0, 1.74769201656098E9, 0.0, 2025-05-20 00:00:16.560
46.0, 21001.319110550776, 18042.305772579406, 48134.43698101485, 34325.149276870405, 44753.75798389411, 2861.693842612963, 8461.744601934506, 8255.527407589841, 0.0, 0.0, 5518.019857170565, -28210.1590287875, 19624.07167244812, 6043.487017570379, -4954.353565496632, -30306.05975461719, 0.06, 0.0, 1.034, 192.0, 0.0, 0.0, 0.0, 0.0, 0.0, 0.0, 0.0, 0.0, 0.0, 1.747692016568997E9, 0.0, 2025-05-20 00:00:16.568
48.0, 20986.991642354926, 18027.173641583162, 48115.527405205656, 34299.73534342472, 44736.6588993858, 2856.128258243592, 8416.169394990135, 8238.67419227054, 0.0, 0.0, 5491.868316157856, -28241.652636725026, 19610.30299786365, 6028.444293551957, -4975.207743073433, -30322.08595539164, 0.06, 0.0, 1.03, 192.0, 0.5, 112.0, 0.0, 0.0, 16.0, 24.0, 0.0, 0.0, 0.0, 1.747692016577119E9, 0.0, 2025-05-20 00:00:16.577
50.0, 21004.91774140808, 18042.417531301682, 48139.42142002838, 34312.006451130685, 44745.86781810139, 2857.4023076775443, 8456.849569898794, 8251.81701801026, 0.0, 0.0, 5508.788586710523, -28237.852840167623, 19607.285512362185, 6019.101264369639, -4977.979359385891, -30333.597103786124, 0.06, 0.0, 1.03, 192.0, 0.0, 0.0, 0.0, 0.0, 0.0, 0.0, 0.0, 0.0, 0.0, 1.747692016586071E9, 0.0, 2025-05-20 00:00:16.586
52.0, 20990.411459256586, 18028.715911950578, 48117.8072831401, 34308.94426214031, 44744.4596582007, 2887.465403969932, 8424.081912527314, 8240.171759149047, 0.0, 0.0, 5511.0684646449645, -28234.053043610224, 19618.30492237865, 6037.452046567446, -4961.193199299955, -30315.96157741089, 0.06, 0.0, 1.03, 192.0, 0.0, 0.0, 0.0, 0.0, 0.0, 0.0, 0.0, 0.0, 0.0, 1.747692016594133E9, 0.0, 2025-05-20 00:00:16.594
54.0, 21004.20248558551, 18039.444749289127, 48129.27372804567, 34306.95495688378, 44745.86781810139, 2868.3323107161896, 8433.469645198542, 8255.907387245583, 0.0, 0.0, 5491.913019646767, -28243.887811170556, 19603.753936738245, 6013.781549189276, -4991.345702570165, -30335.921685209476, 0.06, 0.0, 1.03, 192.0, 0.0, 0.0, 0.0, 0.0, 0.0, 0.0, 0.0, 0.0, 0.0, 1.747692016601141E9, 0.0, 2025-05-20 00:00:16.601
56.0, 21003.598988485217, 18043.71393248009, 48137.85679791651, 34327.16093387138, 44757.7142426627, 2873.830839852195, 8461.163456578668, 8261.048288470303, 0.0, 0.0, 5520.366790338372, -28222.273674282274, 19622.730567780804, 6041.4083053360355, -4957.12518180909, -30311.960615153388, 0.06, 0.0, 1.03, 192.0, 0.0, 0.0, 0.0, 0.0, 0.0, 0.0, 0.0, 0.0, 0.0, 1.747692016608161E9, 0.0, 2025-05-20 00:00:16.608
58.0, 20996.133505837144, 18033.633295730746, 48129.4078385124, 34310.28536680763, 44751.1651815373, 2872.534438673787, 8420.393874692187, 8250.230044153934, 0.0, 0.0, 5507.268668087562, -28227.68279644046, 19626.06097770464, 6033.875767454597, -4972.838458161171, -30314.799286699214, 0.054, -0.008, 1.036, 192.0, 0.5, 88.0, 127.5, 96.0, 16.0, 48.0, 0.0, 0.0, 0.0, 1.747692016616206E9, 0.0, 2025-05-20 00:00:16.616
60.0, 21015.221895601975, 18050.642973261234, 48144.29410031964, 34324.27755883665, 44762.85514388742, 2888.8959156150718, 8467.91368340417, 8263.484628615932, 0.0, 0.0, 5513.974191424155, -28229.135659830055, 19617.567314811626, 6024.7339039723765, -4975.7888884292715, -30328.366795583584, 0.054, -0.008, 1.036, 192.0, 0.0, 0.0, 0.0, 0.0, 0.0, 0.0, 0.0, 0.0, 0.0, 1.747692016624235E9, 0.0, 2025-05-20 00:00:16.624
62.0, 20992.423116257563, 18033.365074797282, 48129.27372804567, 34317.41557328887, 44747.812419869, 2881.1622120335355, 8440.510444701964, 8240.551738804787, 0.0, 0.0, 5518.846871715412, -28229.20271506342, 19627.49148934978, 6048.382049606091, -4953.794771885249, -30305.389202283528, 0.054, -0.008, 1.036, 192.0, 0.0, 0.0, 0.0, 0.0, 0.0, 0.0, 0.0, 0.0, 0.0, 1.74769201663229E9, 0.0, 2025-05-20 00:00:16.632
64.0, 21003.666043718582, 18042.305772579406, 48135.48751300425, 34316.16387559937, 44752.43923097125, 2859.9727582899045, 8435.48130219952, 8256.019145967859, 0.0, 0.0, 5501.300752317996, -28236.467032011395, 19612.761689753734, 6025.650325495044, -4980.505106509341, -30325.975158926867, 0.054, -0.008, 1.036, 192.0, 0.0, 0.0, 0.0, 0.0, 0.0, 0.0, 0.0, 0.0, 0.0, 1.747692016640293E9, 0.0, 2025-05-20 00:00:16.640
66.0, 21022.240343360943, 18069.48549383706, 48138.2144258278, 34326.28921583763, 44761.75990840911, 2868.0417380382705, 8465.633805469728, 8255.3485936342, 0.0, 0.0, 5524.501863062605, -28210.181380531954, 19630.59838182907, 6050.997203707362, -4948.117428793601, -30303.154027837998, 0.054, -0.008, 1.036, 192.0, 0.0, 0.0, 0.0, 0.0, 0.0, 0.0, 0.0, 0.0, 0.0, 1.747692016648329E9, 0.0, 2025-05-20 00:00:16.648
68.0, 20992.177247068554, 18024.871411904267, 48124.401047754414, 34303.71395393777, 44739.09523953143, 2884.805546379751, 8417.71166535755, 8240.484683571422, 0.0, 0.0, 5503.692388974713, -28239.663331468506, 19617.32144562262, 6031.90881394253, -4970.268007548811, -30321.393051313527, 0.054, -0.012, 1.028, 192.0, 0.5, 88.0, 127.5, 80.0, 16.0, 16.0, 0.0, 0.0, 0.0, 1.747692016657311E9, 0.0, 2025-05-20 00:00:16.657
70.0, 21011.131526366655, 18048.273688348974, 48134.30287054812, 34312.81111393108, 44755.92610310628, 2850.1826942184803, 8455.061430342368, 8252.666384299562, 0.0, 0.0, 5503.491223274616, -28239.216296579398, 19605.78794548368, 6019.324781814192, -4978.001711130347, -30337.03927243224, 0.054, -0.012, 1.028, 192.0, 0.0, 0.0, 0.0, 0.0, 0.0, 0.0, 0.0, 0.0, 0.0, 1.747692016665368E9, 0.0, 2025-05-20 00:00:16.665
72.0, 21013.746680467928, 18045.47972029206, 48133.02882111417, 34318.48845702272, 44755.32260600598, 2867.3264822157007, 8435.078970799324, 8236.863700969661, 0.0, 0.0, 5522.400799083805, -28222.45248823792, 19630.17369868442, 6044.492846070868, -4955.381745741576, -30310.641862230525, 0.054, -0.012, 1.028, 192.0, 0.0, 0.0, 0.0, 0.0, 0.0, 0.0, 0.0, 0.0, 0.0, 1.74769201667439E9, 0.0, 2025-05-20 00:00:16.674
74.0, 21012.49498277843, 18041.255240590006, 48120.28832677464, 34293.7450759107, 44747.38773672435, 2840.839665036162, 8413.19661297758, 8220.837500195206, 0.0, 0.0, 5501.1442901068085, -28243.954866403925, 19609.140707151975, 6014.653267223033, -4990.384577558587, -30336.68164452096, 0.054, -0.012, 1.028, 192.0, 0.0, 0.0, 0.0, 0.0, 0.0, 0.0, 0.0, 0.0, 0.0, 1.747692016680403E9, 0.0, 2025-05-20 00:00:16.680
76.0, 21036.053721434324, 18063.53992981195, 48140.29313806214, 34322.86939893597, 44777.27201906109, 2859.346909445156, 8449.585252950817, 8251.682907543529, 0.0, 0.0, 5513.080121645942, -28238.836316923658, 19613.678111276404, 6026.09736038415, -4970.6256354600955, -30329.774955484267, 0.054, -0.012, 1.028, 192.0, 0.0, 0.0, 0.0, 0.0, 0.0, 0.0, 0.0, 0.0, 0.0, 1.747692016687433E9, 0.0, 2025-05-20 00:00:16.687
78.0, 21022.39680557213, 18044.697409236123, 48133.05117285862, 34304.33980278252, 44763.70451017672, 2855.3682989321114, 8415.498842656474, 8241.266994627356, 0.0, 0.0, 5523.741903751124, -28228.867438896592, 19633.571163841625, 6037.42969482299, -4966.892894136059, -30313.793458198725, 0.06, -0.006, 1.03, 192.0, 0.5, 112.0, 127.5, 104.0, 16.0, 24.0, 0.0, 0.0, 0.0, 1.747692016696462E9, 0.0, 2025-05-20 00:00:16.696
80.0, 21034.51145106691, 18064.612813545802, 48136.359231038005, 34312.96757614226, 44774.94743763774, 2854.161304731525, 8452.66979368565, 8251.414686610065, 0.0, 0.0, 5514.085950146431, -28244.938343159956, 19610.9288467084, 6018.229546335882, -4979.923961153503, -30336.81575498769, 0.06, -0.006, 1.03, 192.0, 0.0, 0.0, 0.0, 0.0, 0.0, 0.0, 0.0, 0.0, 0.0, 1.747692016703437E9, 0.0, 2025-05-20 00:00:16.703
82.0, 21026.0624916628, 18052.632278517758, 48132.42532401387, 34310.955919141285, 44775.550934738036, 2880.670473655519, 8435.235433010512, 8233.443884068, 0.0, 0.0, 5521.171453138763, -28227.39222376254, 19628.40791087245, 6038.256709367837, -4959.382707999076, -30317.056812889197, 0.06, -0.006, 1.03, 192.0, 0.0, 0.0, 0.0, 0.0, 0.0, 0.0, 0.0, 0.0, 0.0, 1.747692016711481E9, 0.0, 2025-05-20 00:00:16.711
84.0, 21025.39193932914, 18052.09583665083, 48127.10560883351, 34293.56626195506, 44767.303141034026, 2839.3868016465667, 8425.512424172453, 8241.892843472106, 0.0, 0.0, 5511.984886167632, -28247.955828661423, 19614.706291521346, 6015.5249852567895, -4985.221324589411, -30340.794365500733, 0.06, -0.006, 1.03, 192.0, 0.0, 0.0, 0.0, 0.0, 0.0, 0.0, 0.0, 0.0, 0.0, 1.747692016720504E9, 0.0, 2025-05-20 00:00:16.720
86.0, 21036.232535389965, 18059.158987898707, 48134.14640833693, 34308.54193074011, 44775.819155671496, 2861.179752490491, 8451.798075651894, 8241.468160327455, 0.0, 0.0, 5515.7623309805795, -28239.529221001772, 19614.9298089659, 6024.7339039723765, -4968.278702292288, -30335.47465032037, 0.06, -0.006, 1.03, 192.0, 0.0, 0.0, 0.0, 0.0, 0.0, 0.0, 0.0, 0.0, 0.0, 1.747692016728529E9, 0.0, 2025-05-20 00:00:16.728
88.0, 21032.745663254937, 18057.013220431, 48126.993850111234, 34299.288308535615, 44767.6160654564, 2848.2604441953235, 8409.463871653543, 8232.505110800876, 0.0, 0.0, 5521.350267094406, -28236.042348866744, 19632.006541729756, 6027.483168540379, -4973.464307005919, -30328.366795583584, 0.059, -0.002, 1.03, 192.0, 0.5, 104.0, 0.0, 8.0, 16.0, 24.0, 0.0, 0.0, 0.0, 1.747692016736551E9, 0.0, 2025-05-20 00:00:16.736
90.0, 21058.02548623389, 18081.37662188728, 48143.62354798598, 34314.28632906513, 44784.357522053426, 2842.9854325038714, 8453.139180319213, 8252.644032555108, 0.0, 0.0, 5522.356095594895, -28238.277523312274, 19620.651855546457, 6013.848604422642, -4983.3661297996205, -30344.48240333586, 0.059, -0.002, 1.03, 192.0, 0.0, 0.0, 0.0, 0.0, 0.0, 0.0, 0.0, 0.0, 0.0, 1.747692016745499E9, 0.0, 2025-05-20 00:00:16.745
92.0, 21041.216974403498, 18069.91017698171, 48127.64205070044, 34306.32910803903, 44762.966902609696, 2859.99511003436, 8423.366656704744, 8229.308811343768, 0.0, 0.0, 5536.52710157956, -28222.899523127024, 19639.963762755844, 6035.105113399639, -4961.237902788866, -30322.577693769657, 0.059, -0.002, 1.03, 192.0, 0.0, 0.0, 0.0, 0.0, 0.0, 0.0, 0.0, 0.0, 0.0, 1.747692016753749E9, 0.0, 2025-05-20 00:00:16.753
94.0, 21036.076073178778, 18063.33876411185, 48123.73049542076, 34298.796570157596, 44760.731728164166, 2864.219589736413, 8409.70974084255, 8230.538157288809, 0.0, 0.0, 5509.1909181107185, -28243.82075593719, 19617.790832256178, 5998.336493770658, -5005.851984721659, -30356.48529010836, 0.059, -0.002, 1.03, 192.0, 0.0, 0.0, 0.0, 0.0, 0.0, 0.0, 0.0, 0.0, 0.0, 1.747692016761564E9, 0.0, 2025-05-20 00:00:16.761
96.0, 21050.53765184136, 18079.610834075313, 48144.875245675474, 34327.31739608257, 44785.20688834273, 2866.90179907105, 8447.305375016376, 8239.858834726672, 0.0, 0.0, 5525.015953185076, -28226.78872666225, 19628.1843934279, 6026.298526084248, -4969.3962895150535, -30331.026653173765, 0.059, -0.002, 1.03, 192.0, 0.0, 0.0, 0.0, 0.0, 0.0, 0.0, 0.0, 0.0, 0.0, 1.747692016767569E9, 0.0, 2025-05-20 00:00:16.767
98.0, 21039.540593569352, 18066.19978740213, 48138.05796361661, 34312.52054125316, 44766.09614683344, 2867.348833960156, 8406.468737896532, 8231.700448000485, 0.0, 0.0, 5529.2627846315845, -28224.084165583154, 19640.343742411584, 6032.177034875994, -4971.69851919395, -30321.728327480356, 0.0595, -0.003, 1.033, 192.0, 0.5, 112.0, 127.5, 112.0, 16.0, 48.0, 0.0, 0.0, 0.0, 1.747692016775597E9, 0.0, 2025-05-20 00:00:16.775
100.0, 21053.488082109463, 18077.95680498562, 48147.02101314319, 34320.0977826235, 44781.071815618496, 2880.4246044665106, 8439.728133646027, 8240.305869615779, 0.0, 0.0, 5524.010124684587, -28231.34848253113, 19625.233963159797, 6023.169281860505, -4977.487621007875, -30335.899333465022, 0.0595, -0.003, 1.033, 192.0, 0.0, 0.0, 0.0, 0.0, 0.0, 0.0, 0.0, 0.0, 0.0, 1.747692016784633E9, 0.0, 2025-05-20 00:00:16.784
102.0, 21045.754378527927, 18072.838255505354, 48141.36602179599, 34322.46706753577, 44774.03101611508, 2861.2021042349465, 8418.404569435665, 8225.620773508641, 0.0, 0.0, 5531.341496865928, -28221.44665973743, 19640.65666683396, 6045.029287937795, -4958.488638220863, -30312.43000178695, 0.0595, -0.003, 1.033, 192.0, 0.0, 0.0, 0.0, 0.0, 0.0, 0.0, 0.0, 0.0, 0.0, 1.747692016791604E9, 0.0, 2025-05-20 00:00:16.791
104.0, 21043.1168726822, 18067.04915369143, 48138.4155915279, 34302.93164288183, 44769.113632334906, 2833.6871068104633, 8420.527985158918, 8229.129997388125, 0.0, 0.0, 5522.75842699509, -28236.422328522483, 19627.916172494435, 6024.309220827726, -4981.89091466557, -30336.23460963185, 0.0595, -0.003, 1.033, 192.0, 0.0, 0.0, 0.0, 0.0, 0.0, 0.0, 0.0, 0.0, 0.0, 1.747692016799626E9, 0.0, 2025-05-20 00:00:16.799
106.0, 21044.30151513833, 18072.882958994265, 48140.29313806214, 34318.98019540074, 44781.16122259632, 2843.5218743707987, 8455.217892553555, 8238.093046914702, 0.0, 0.0, 5526.334706107939, -28229.20271506342, 19626.798585271667, 6038.10024715665, -4959.427411487986, -30326.7574699828, 0.0595, -0.003, 1.033, 192.0, 0.0, 0.0, 0.0, 0.0, 0.0, 0.0, 0.0, 0.0, 0.0, 1.747692016807711E9, 0.0, 2025-05-20 00:00:16.807
108.0, 21045.4191023611, 18068.72553452558, 48135.95689963781, 34307.08906735052, 44767.83958290095, 2850.5850256186754, 8421.153834003668, 8235.142616646603, 0.0, 0.0, 5517.729284492646, -28233.829526165668, 19632.297114407673, 6037.899081456552, -4967.071708091701, -30321.840086202636, 0.056749999999999995, -0.0055, 1.0314999999999999, 192.0, 0.5, 88.0, 127.5, 96.0, 16.0, 24.0, 0.0, 0.0, 0.0, 1.747692016816726E9, 0.0, 2025-05-20 00:00:16.816
110.0, 21042.826300004283, 18068.189092658653, 48131.598309469024, 34304.2950992936, 44767.504306734125, 2840.1467609580473, 8447.841816883305, 8238.853006226183, 0.0, 0.0, 5518.086912403931, -28241.71969195839, 19616.27091363322, 6020.5094242703235, -4981.645045476562, -30342.24722889033, 0.056749999999999995, -0.0055, 1.0314999999999999, 192.0, 0.0, 0.0, 0.0, 0.0, 0.0, 0.0, 0.0, 0.0, 0.0, 1.747692016824726E9, 0.0, 2025-05-20 00:00:16.824
112.0, 21038.110081924213, 18064.881034479266, 48126.926794877865, 34309.52540749615, 44767.10197533393, 2875.060185797237, 8440.801017379883, 8233.086256156714, 0.0, 0.0, 5518.153967637297, -28236.601142478128, 19626.865640505035, 6040.6259942801, -4963.406022001031, -30321.750679224813, 0.056749999999999995, -0.0055, 1.0314999999999999, 192.0, 0.0, 0.0, 0.0, 0.0, 0.0, 0.0, 0.0, 0.0, 0.0, 1.747692016833761E9, 0.0, 2025-05-20 00:00:16.833
114.0, 21032.097462665733, 18059.337801854348, 48127.552643722614, 34298.17072131285, 44766.20790555572, 2872.0650520402255, 8427.948764318082, 8243.904500473083, 0.0, 0.0, 5507.022798898554, -28251.420349051998, 19615.01921594372, 6017.871918424597, -4990.451632791953, -30341.487269578847, 0.056749999999999995, -0.0055, 1.0314999999999999, 192.0, 0.0, 0.0, 0.0, 0.0, 0.0, 0.0, 0.0, 0.0, 0.0, 1.747692016841817E9, 0.0, 2025-05-20 00:00:16.841
116.0, 21032.723311510483, 18062.802322244923, 48135.62162347098, 34315.001584887694, 44776.71322544971, 2843.2313016928797, 8460.179979822633, 8247.927814475039, 0.0, 0.0, 5521.126749649853, -28236.86936341159, 19620.271875890718, 6037.027363422795, -4961.50612372233, -30324.499943792816, 0.056749999999999995, -0.0055, 1.0314999999999999, 192.0, 0.0, 0.0, 0.0, 0.0, 0.0, 0.0, 0.0, 0.0, 0.0, 1.747692016848826E9, 0.0, 2025-05-20 00:00:16.848
118.0, 21019.1110991372, 18048.43015056016, 48120.93652736385, 34294.192110799806, 44764.10684157692, 2875.3060549862453, 8409.910906542647, 8225.19609036399, 0.0, 0.0, 5505.99461865361, -28244.938343159956, 19620.74126252428, 6030.7241714863985, -4973.397251772553, -30329.260865361797, 0.055374999999999994, -0.00875, 1.03375, 192.0, 0.5, 88.0, 127.5, 80.0, 16.0, 48.0, 0.0, 0.0, 0.0, 1.747692016855839E9, 0.0, 2025-05-20 00:00:16.855
120.0, 21033.572677799784, 18061.684735022158, 48131.553605980116, 34305.18916907182, 44775.32741729348, 2827.540377085254, 8462.370450779254, 8234.561471290765, 0.0, 0.0, 5502.2618773295735, -28251.867383941102, 19606.190276883874, 6014.988543389863, -4984.036682133279, -30349.288028393752, 0.055374999999999994, -0.00875, 1.03375, 192.0, 0.0, 0.0, 0.0, 0.0, 0.0, 0.0, 0.0, 0.0, 0.0, 1.747692016863887E9, 0.0, 2025-05-20 00:00:16.863
122.0, 21032.142166154645, 18059.516615809993, 48131.687716446846, 34314.08516336503, 44779.66365571781, 2864.1748862475024, 8445.204311037578, 8256.44382911251, 0.0, 0.0, 5519.47272056016, -28235.058872110712, 19627.335027138597, 6045.185750148982, -4955.538207952763, -30315.246321588318, 0.055374999999999994, -0.00875, 1.03375, 192.0, 0.0, 0.0, 0.0, 0.0, 0.0, 0.0, 0.0, 0.0, 0.0, 1.747692016871894E9, 0.0, 2025-05-20 00:00:16.871
124.0, 21027.649465519127, 18052.587575028847, 48129.6090042125, 34296.96372711226, 44774.45569925973, 2847.2993191837454, 8423.05373228237, 8246.810227252272, 0.0, 0.0, 5504.474700030649, -28250.883907185067, 19613.74516650977, 6021.358790559625, -4983.8355164331815, -30337.10632766561, 0.055374999999999994, -0.00875, 1.03375, 192.0, 0.0, 0.0, 0.0, 0.0, 0.0, 0.0, 0.0, 0.0, 0.0, 1.747692016880057E9, 0.0, 2025-05-20 00:00:16.880
126.0, 21033.840898733248, 18055.605060530313, 48132.179454824865, 34308.96661388476, 44782.122347607896, 2842.3595836591226, 8460.649366456195, 8240.082352171225, 0.0, 0.0, 5513.929487935244, -28241.049139624734, 19613.99103569878, 6031.752351731343, -4966.021176102302, -30330.89254270703, 0.055374999999999994, -0.00875, 1.03375, 192.0, 0.0, 0.0, 0.0, 0.0, 0.0, 0.0, 0.0, 0.0, 0.0, 1.747692016888015E9, 0.0, 2025-05-20 00:00:16.888
128.0, 21031.1139859097, 18056.454426819615, 48128.603175712014, 34303.02104985965, 44768.93481837926, 2862.2079327354354, 8421.2879444704, 8238.651840526085, 0.0, 0.0, 5511.940182678722, -28247.35233156113, 19623.40112011446, 6036.7144390004205, -4967.898722636548, -30324.879923448556, 0.0566875, -0.010375, 1.033875, 192.0, 0.5, 104.0, 127.5, 80.0, 16.0, 40.0, 0.0, 0.0, 0.0, 1.74769201689601E9, 0.0, 2025-05-20 00:00:16.896
130.0, 21043.49685233794, 18068.211444403107, 48135.465161259795, 34316.54385525511, 44780.33420805147, 2878.703520143452, 8458.48124724403, 8252.286404643823, 0.0, 0.0, 5508.989752410621, -28239.193944834944, 19614.192201398873, 6022.386970804569, -4981.6673972210165, -30338.24626663283, 0.0566875, -0.010375, 1.033875, 192.0, 0.0, 0.0, 0.0, 0.0, 0.0, 0.0, 0.0, 0.0, 0.0, 1.747692016905042E9, 0.0, 2025-05-20 00:00:16.905
132.0, 21032.969180699492, 18059.337801854348, 48129.05021060112, 34314.35338429849, 44776.48970800516, 2881.251619011357, 8438.208215023067, 8237.4448463255, 0.0, 0.0, 5516.56699378097, -28232.30960754271, 19627.960875983343, 6048.382049606091, -4955.471152719397, -30312.18413259794, 0.0566875, -0.010375, 1.033875, 192.0, 0.0, 0.0, 0.0, 0.0, 0.0, 0.0, 0.0, 0.0, 0.0, 1.7476920169131E9, 0.0, 2025-05-20 00:00:16.913
134.0, 21036.478404578975, 18063.919909467688, 48133.1629315809, 34306.68673595032, 44766.3643677669, 2837.017516734304, 8420.729150859017, 8238.048343425793, 0.0, 0.0, 5505.659342486781, -28245.87711642708, 19616.092099677575, 6021.3364388151695, -4986.3612635566315, -30338.626246288568, 0.0566875, -0.010375, 1.033875, 192.0, 0.0, 0.0, 0.0, 0.0, 0.0, 0.0, 0.0, 0.0, 0.0, 1.747692016921321E9, 0.0, 2025-05-20 00:00:16.921
136.0, 21047.1178349397, 18077.77799102998, 48142.68477471886, 34323.02586114715, 44794.214641358216, 2868.4664211829213, 8463.599796724297, 8247.950166219493, 0.0, 0.0, 5520.612659527381, -28229.560342974706, 19625.25631490425, 6039.866034968619, -4960.924978366492, -30322.935321680943, 0.0566875, -0.010375, 1.033875, 192.0, 0.0, 0.0, 0.0, 0.0, 0.0, 0.0, 0.0, 0.0, 0.0, 1.747692016929193E9, 0.0, 2025-05-20 00:00:16.929
138.0, 21044.659143049616, 18078.359136385818, 48131.888882146945, 34305.63620396092, 44772.80167017003, 2868.019386293815, 8417.801072335371, 8229.19705262149, 0.0, 0.0, 5517.751636237102, -28233.87422965458, 19633.347646397073, 6040.782456491287, -4964.411850501519, -30322.644749003026, 0.05534375, -0.0081875, 1.0309375, 192.0, 0.5, 88.0, 127.5, 104.0, 16.0, 16.0, 0.0, 0.0, 0.0, 1.747692016936145E9, 0.0, 2025-05-20 00:00:16.936
140.0, 21047.900145995634, 18069.217272903596, 48144.830542186566, 34315.873302921456, 44788.85022268894, 2841.890197025561, 8453.072125085846, 8243.233948139423, 0.0, 0.0, 5518.779816482046, -28238.50104075683, 19621.680035791403, 6025.695028983954, -4976.973530885402, -30339.76618525579, 0.05534375, -0.0081875, 1.0309375, 192.0, 0.0, 0.0, 0.0, 0.0, 0.0, 0.0, 0.0, 0.0, 0.0, 1.747692016946261E9, 0.0, 2025-05-20 00:00:16.946
142.0, 21043.206279660022, 18062.511749567002, 48140.65076597343, 34320.947148912805, 44797.567403026515, 2847.1652087170137, 8433.939031832104, 8231.38752357811, 0.0, 0.0, 5527.049961930509, -28229.15801157451, 19635.962800498342, 6049.097305428661, -4953.750068396338, -30315.067507632677, 0.05534375, -0.0081875, 1.0309375, 192.0, 0.0, 0.0, 0.0, 0.0, 0.0, 0.0, 0.0, 0.0, 0.0, 1.747692016955265E9, 0.0, 2025-05-20 00:00:16.955
144.0, 21042.40161685963, 18062.936432711653, 48136.80626592711, 34304.4962649937, 44783.59756274195, 2844.0806679821812, 8416.594078134785, 8228.124168887636, 0.0, 0.0, 5517.8186914704675, -28239.171593090487, 19626.530364338203, 6025.471511539401, -4979.834554175682, -30337.66512127699, 0.05534375, -0.0081875, 1.0309375, 192.0, 0.0, 0.0, 0.0, 0.0, 0.0, 0.0, 0.0, 0.0, 0.0, 1.747692016962309E9, 0.0, 2025-05-20 00:00:16.962
146.0, 21052.370494886698, 18069.53019732597, 48137.6109287275, 34319.60604424549, 44794.12523438039, 2861.1350490015807, 8453.876787886236, 8223.3408955742, 0.0, 0.0, 5523.2725171175625, -28233.650712210027, 19624.250486403762, 6032.378200576091, -4968.390461014565, -30331.67485376297, 0.05534375, -0.0081875, 1.0309375, 192.0, 0.0, 0.0, 0.0, 0.0, 0.0, 0.0, 0.0, 0.0, 0.0, 1.747692016969277E9, 0.0, 2025-05-20 00:00:16.969
148.0, 21046.60374481723, 18062.444694333637, 48131.754771680215, 34305.9491283833, 44788.60435349993, 2847.411077906022, 8415.968229290036, 8230.851081711184, 0.0, 0.0, 5520.2773833605515, -28238.88102041257, 19631.671265562924, 6039.24018612387, -4967.854019147637, -30322.46593504738, 0.057671875, -0.00609375, 1.03046875, 192.0, 0.5, 112.0, 127.5, 112.0, 16.0, 24.0, 0.0, 0.0, 0.0, 1.747692016976288E9, 0.0, 2025-05-20 00:00:16.976
150.0, 21050.78352103037, 18067.920871725186, 48132.82765541407, 34305.926776638844, 44789.34196106696, 2846.2264354498907, 8441.806845880372, 8235.880224213628, 0.0, 0.0, 5514.0635984019755, -28245.094805371144, 19614.79569849917, 6019.637706236566, -4982.807336188238, -30345.354121369615, 0.057671875, -0.00609375, 1.03046875, 192.0, 0.0, 0.0, 0.0, 0.0, 0.0, 0.0, 0.0, 0.0, 0.0, 1.747692016984379E9, 0.0, 2025-05-20 00:00:16.984
152.0, 21046.82726226178, 18064.322240867885, 48130.39131526844, 34312.07350636405, 44795.57809776999, 2851.27792969679, 8439.057581312369, 8226.470139797942, 0.0, 0.0, 5516.008200169587, -28239.596276235137, 19626.418605615927, 6042.458837325435, -4961.103792322135, -30323.874094948067, 0.057671875, -0.00609375, 1.03046875, 192.0, 0.0, 0.0, 0.0, 0.0, 0.0, 0.0, 0.0, 0.0, 0.0, 1.747692016993409E9, 0.0, 2025-05-20 00:00:16.993
154.0, 21050.336486141263, 18064.14342691224, 48131.95593738031, 34297.76838991266, 44786.525641265594, 2834.067086466204, 8417.912831057649, 8230.828729966728, 0.0, 0.0, 5509.503842533093, -28255.06368339821, 19617.969646211823, 6020.464720781412, -4985.8918769230695, -30346.650522548025, 0.057671875, -0.00609375, 1.03046875, 192.0, 0.0, 0.0, 0.0, 0.0, 0.0, 0.0, 0.0, 0.0, 0.0, 1.747692017001445E9, 0.0, 2025-05-20 00:00:17.001
156.0, 21056.30440191083, 18076.258072407018, 48140.561358995605, 34320.388355301424, 44796.24865010365, 2896.920191874527, 8450.702840173584, 8241.289346371812, 0.0, 0.0, 5521.3949705833165, -28233.71776744339, 19624.8316317596, 6038.770799490309, -4961.193199299955, -30329.462031061892, 0.057671875, -0.00609375, 1.03046875, 192.0, 0.0, 0.0, 0.0, 0.0, 0.0, 0.0, 0.0, 0.0, 0.0, 1.747692017009422E9, 0.0, 2025-05-20 00:00:17.009
158.0, 21047.095483195244, 18063.785799000954, 48131.37479202447, 34305.81501791657, 44782.457623774724, 2852.283758197279, 8408.2345257085, 8220.3904653061, 0.0, 0.0, 5515.203537369196, -28240.11036635761, 19629.950181239867, 6041.654174525043, -4966.043527846758, -30322.197714113918, 0.0618359375, -0.006046875, 1.0292343750000001, 192.0, 1.0, 8.0, 127.5, 104.0, 16.0, 16.0, 0.0, 0.0, 0.0, 1.747692017016497E9, 0.0, 2025-05-20 00:00:17.016
160.0, 21059.74657055695, 18073.933490983665, 48137.56622523859, 34309.41364877387, 44801.34484783946, 2840.7726098027956, 8439.169340034645, 8220.591631006197, 0.0, 0.0, 5518.265726359574, -28243.127851859077, 19619.154288667953, 6022.834005693675, -4980.058071620235, -30344.52710682477, 0.0618359375, -0.006046875, 1.0292343750000001, 192.0, 0.0, 0.0, 0.0, 0.0, 0.0, 0.0, 0.0, 0.0, 0.0, 1.747692017023457E9, 0.0, 2025-05-20 00:00:17.023
162.0, 21053.957468743025, 18070.826598504376, 48134.28051880366, 34310.687698207825, 44805.34581009696, 2843.477170881888, 8422.271421226433, 8230.940488689004, 0.0, 0.0, 5528.7933979980235, -28233.29308429874, 19633.817033030635, 6042.436485580979, -4957.572216698196, -30322.577693769657, 0.0618359375, -0.006046875, 1.0292343750000001, 192.0, 0.0, 0.0, 0.0, 0.0, 0.0, 0.0, 0.0, 0.0, 0.0, 1.747692017032495E9, 0.0, 2025-05-20 00:00:17.032
164.0, 21049.88945125216, 18066.177435657675, 48125.09395183253, 34289.67705841983, 44794.23699310267, 2829.7531997863293, 8404.725301829018, 8228.839424710206, 0.0, 0.0, 5508.900345432799, -28253.92374443099, 19616.986169455788, 6008.685351453466, -4992.9326764264915, -30356.909973253012, 0.0618359375, -0.006046875, 1.0292343750000001, 192.0, 0.0, 0.0, 0.0, 0.0, 0.0, 0.0, 0.0, 0.0, 0.0, 1.747692017039594E9, 0.0, 2025-05-20 00:00:17.039
166.0, 21058.9195560121, 18080.6166625758, 48129.18432106785, 34309.83833191852, 44794.348751824946, 2838.4927318683544, 8450.635784940217, 8227.744189231895, 0.0, 0.0, 5518.221022870663, -28243.73134895937, 19620.11541367953, 6017.33547655767, -4977.50997275233, -30347.52224058178, 0.0618359375, -0.006046875, 1.0292343750000001, 192.0, 0.0, 0.0, 0.0, 0.0, 0.0, 0.0, 0.0, 0.0, 0.0, 1.747692017047605E9, 0.0, 2025-05-20 00:00:17.047
168.0, 21054.806835032326, 18073.218235161094, 48130.54777747962, 34305.569148727554, 44792.00181865714, 2864.733679858885, 8410.492051898485, 8227.833596209717, 0.0, 0.0, 5516.18701412523, -28241.898505914036, 19629.078463206108, 6025.04682839475, -4979.365167542121, -30335.541705553736, 0.060917968749999996, -0.0050234375, 1.0286171875, 192.0, 0.5, 112.0, 127.5, 112.0, 16.0, 16.0, 0.0, 0.0, 0.0, 1.747692017055634E9, 0.0, 2025-05-20 00:00:17.055
170.0, 21060.372419401698, 18078.53795034146, 48142.34949855203, 34314.84512267651, 44804.11646415192, 2869.226380494402, 8432.597927164785, 8243.39041035061, 0.0, 0.0, 5520.992639183121, -28242.814927436702, 19620.69655903537, 6022.81165394922, -4981.242714076366, -30340.749662011825, 0.060917968749999996, -0.0050234375, 1.0286171875, 192.0, 0.0, 0.0, 0.0, 0.0, 0.0, 0.0, 0.0, 0.0, 0.0, 1.747692017064692E9, 0.0, 2025-05-20 00:00:17.064
172.0, 21051.431721619574, 18070.491322337548, 48140.44960027333, 34320.63422449043, 44802.39537982886, 2887.174831292013, 8435.950688833082, 8231.141654389103, 0.0, 0.0, 5530.872110232367, -28235.796479677738, 19636.16396619844, 6056.29456714327, -4952.297205006744, -30310.9547866529, 0.060917968749999996, -0.0050234375, 1.0286171875, 192.0, 0.0, 0.0, 0.0, 0.0, 0.0, 0.0, 0.0, 0.0, 0.0, 1.747692017073654E9, 0.0, 2025-05-20 00:00:17.073
174.0, 21048.794215773847, 18063.852854234323, 48130.503073990716, 34302.68577369282, 44789.78899595606, 2825.8416445066505, 8407.340455930287, 8223.698523485486, 0.0, 0.0, 5512.700141990202, -28249.475747284385, 19622.864678247533, 6033.696953498955, -4980.08042336469, -30333.284179363753, 0.060917968749999996, -0.0050234375, 1.0286171875, 192.0, 0.0, 0.0, 0.0, 0.0, 0.0, 0.0, 0.0, 0.0, 0.0, 1.747692017080723E9, 0.0, 2025-05-20 00:00:17.080
176.0, 21059.277183923386, 18077.08508695186, 48137.09683860503, 34318.42140178936, 44798.84145246047, 2830.0214207197932, 8445.04784882639, 8230.225232866434, 0.0, 0.0, 5518.2880781040285, -28242.032616380766, 19621.41181485794, 6040.67069776901, -4967.898722636548, -30326.869228705076, 0.060917968749999996, -0.0050234375, 1.0286171875, 192.0, 0.0, 0.0, 0.0, 0.0, 0.0, 0.0, 0.0, 0.0, 0.0, 1.747692017089734E9, 0.0, 2025-05-20 00:00:17.089
178.0, 21048.92832624058, 18065.328069368374, 48133.87818740347, 34309.771276685155, 44787.509118021626, 2853.311938442223, 8410.38029317621, 8222.58093626272, 0.0, 0.0, 5522.624316528359, -28236.757604689315, 19636.767463298736, 6049.142008917572, -4965.060051090723, -30315.313376821683, 0.064458984375, -0.00451171875, 1.02730859375, 192.0, 1.0, 16.0, 127.5, 112.0, 16.0, 8.0, 0.0, 0.0, 0.0, 1.74769201709786E9, 0.0, 2025-05-20 00:00:17.097
180.0, 21054.22568967649, 18069.351383370325, 48141.589539240544, 34311.090029608014, 44801.702475750746, 2832.2118916764134, 8446.232491282522, 8234.695581757496, 0.0, 0.0, 5517.952801937199, -28244.960694904414, 19619.60132355706, 6028.220776107404, -4978.26993206381, -30340.257923633806, 0.064458984375, -0.00451171875, 1.02730859375, 192.0, 0.0, 0.0, 0.0, 0.0, 0.0, 0.0, 0.0, 0.0, 0.0, 1.747692017104777E9, 0.0, 2025-05-20 00:00:17.104
182.0, 21040.68053253657, 18055.67211576368, 48129.720762934776, 34308.854855162484, 44797.209775115225, 2870.209857250435, 8438.185863278612, 8220.569279261743, 0.0, 0.0, 5521.61848802787, -28244.334846059664, 19626.9326957384, 6046.884482727585, -4958.376879498587, -30321.303644335705, 0.064458984375, -0.00451171875, 1.02730859375, 192.0, 0.0, 0.0, 0.0, 0.0, 0.0, 0.0, 0.0, 0.0, 0.0, 1.747692017111795E9, 0.0, 2025-05-20 00:00:17.111
184.0, 21038.60182030223, 18053.95103144062, 48119.9083471189, 34286.637221173914, 44785.7209784652, 2831.675449809486, 8417.979886291014, 8219.76461646135, 0.0, 0.0, 5500.339627306417, -28263.512642802318, 19609.92301820791, 6018.542470758256, -4988.8199554467155, -30346.427005103473, 0.064458984375, -0.00451171875, 1.02730859375, 192.0, 0.0, 0.0, 0.0, 0.0, 0.0, 0.0, 0.0, 0.0, 0.0, 1.747692017120799E9, 0.0, 2025-05-20 00:00:17.120
186.0, 21051.699942553038, 18068.8149415034, 48128.82669315657, 34310.888863907916, 44803.06593216252, 2855.5918163766646, 8453.697973930595, 8232.661573012063, 0.0, 0.0, 5512.543679779015, -28249.16282286201, 19615.198029899362, 6030.411247064024, -4971.5644087272185, -30335.742871253835, 0.064458984375, -0.00451171875, 1.02730859375, 192.0, 0.0, 0.0, 0.0, 0.0, 0.0, 0.0, 0.0, 0.0, 0.0, 1.747692017127813E9, 0.0, 2025-05-20 00:00:17.127
188.0, 21047.20724191752, 18065.015144946, 48128.82669315657, 34299.62358470244, 44787.53146976608, 2841.4878656253654, 8416.147043245679, 8222.402122307078, 0.0, 0.0, 5513.013066412576, -28252.314418830207, 19624.988093970787, 6037.139122145071, -4969.619806959607, -30326.980987427356, 0.0632294921875, -0.003255859375, 1.0266542968749999, 192.0, 0.5, 120.0, 127.5, 120.0, 16.0, 8.0, 0.0, 0.0, 0.0, 1.747692017136052E9, 0.0, 2025-05-20 00:00:17.136
190.0, 21042.289858137352, 18058.063752420396, 48135.599271726525, 34303.691602193314, 44790.68306573428, 2816.3645048576004, 8450.76989540695, 8240.685849271518, 0.0, 0.0, 5512.655438501291, -28252.64969499704, 19613.16402115393, 6022.141101615561, -4981.443879776464, -30345.197659158428, 0.0632294921875, -0.003255859375, 1.0266542968749999, 192.0, 0.0, 0.0, 0.0, 0.0, 0.0, 0.0, 0.0, 0.0, 0.0, 1.747692017143901E9, 0.0, 2025-05-20 00:00:17.143
192.0, 21036.768977256892, 18052.945202940133, 48126.233890799755, 34301.32231728105, 44792.85118494644, 2841.80079004774, 8436.755351633472, 8226.514843286854, 0.0, 0.0, 5515.7623309805795, -28249.609857751115, 19621.098890435565, 6044.649308282055, -4958.086306820668, -30322.354176325105, 0.0632294921875, -0.003255859375, 1.0266542968749999, 192.0, 0.0, 0.0, 0.0, 0.0, 0.0, 0.0, 0.0, 0.0, 0.0, 1.747692017152944E9, 0.0, 2025-05-20 00:00:17.152
194.0, 21036.97014295699, 18054.889804707742, 48125.83155939956, 34291.42049448735, 44780.73653945167, 2845.511179627321, 8414.135386244701, 8228.168872376547, 0.0, 0.0, 5492.404758024783, -28268.944116704955, 19602.59164602657, 6016.016723634806, -4990.898667681059, -30352.193755172942, 0.0632294921875, -0.003255859375, 1.0266542968749999, 192.0, 0.0, 0.0, 0.0, 0.0, 0.0, 0.0, 0.0, 0.0, 0.0, 1.747692017160973E9, 0.0, 2025-05-20 00:00:17.160
196.0, 21058.941907756558, 18079.81199977541, 48144.964652653296, 34322.24355009122, 44802.35067633995, 2882.3692062341224, 8447.417133738654, 8226.850119453684, 0.0, 0.0, 5521.2161566276745, -28239.149241346033, 19622.998788714267, 6040.156607646538, -4963.093097578657, -30327.316263594184, 0.0632294921875, -0.003255859375, 1.0266542968749999, 192.0, 0.0, 0.0, 0.0, 0.0, 0.0, 0.0, 0.0, 0.0, 0.0, 1.747692017169057E9, 0.0, 2025-05-20 00:00:17.169
198.0, 21051.230555919476, 18069.53019732597, 48134.59344322603, 34310.665346463364, 44795.77926347009, 2859.0116332783264, 8407.318104185833, 8223.430302552022, 0.0, 0.0, 5517.706932748191, -28242.524354758785, 19633.727626052812, 6046.370392605114, -4961.8190481447045, -30320.454278046403, 0.06261474609375, -0.0016279296875, 1.0273271484375, 192.0, 0.5, 120.0, 0.0, 0.0, 16.0, 16.0, 0.0, 0.0, 0.0, 1.747692017178025E9, 0.0, 2025-05-20 00:00:17.178
200.0, 21059.903032768136, 18078.20267417463, 48144.20469334182, 34316.92383491085, 44804.09411240746, 2841.241996436357, 8451.10517157378, 8239.031820181826, 0.0, 0.0, 5516.18701412523, -28237.53991574525, 19624.02696895921, 6035.865072711119, -4970.849152904649, -30332.926551452467, 0.06261474609375, -0.0016279296875, 1.0273271484375, 192.0, 0.0, 0.0, 0.0, 0.0, 0.0, 0.0, 0.0, 0.0, 0.0, 1.747692017184284E9, 0.0, 2025-05-20 00:00:17.184
202.0, 21048.771864029393, 18066.982098458066, 48137.02978337166, 34318.77902970064, 44798.14854838235, 2869.0699182832145, 8421.958496804058, 8216.233040837413, 0.0, 0.0, 5518.422188570761, -28237.294046556242, 19629.704312050857, 6052.807695008242, -4950.777286383783, -30316.09568787762, 0.06261474609375, -0.0016279296875, 1.0273271484375, 192.0, 0.0, 0.0, 0.0, 0.0, 0.0, 0.0, 0.0, 0.0, 0.0, 1.747692017191999E9, 0.0, 2025-05-20 00:00:17.191
204.0, 21044.748550027438, 18062.847025733834, 48131.03951585764, 34301.56818647005, 44790.03486514508, 2850.8755982965945, 8419.14217700269, 8229.018238665849, 0.0, 0.0, 5509.928525677744, -28248.78284320627, 19622.79762301417, 6030.590061019667, -4980.214533831422, -30334.893504964533, 0.06261474609375, -0.0016279296875, 1.0273271484375, 192.0, 0.0, 0.0, 0.0, 0.0, 0.0, 0.0, 0.0, 0.0, 0.0, 1.747692017200133E9, 0.0, 2025-05-20 00:00:17.200
206.0, 21053.890413509656, 18073.95584272812, 48135.68867870435, 34315.82859943254, 44803.96000194073, 2850.4509151519437, 8451.485151229519, 8240.663497527063, 0.0, 0.0, 5518.355133337394, -28240.602104735626, 19623.155250925454, 6037.541453545267, -4965.9317691244805, -30327.718594994378, 0.06261474609375, -0.0016279296875, 1.0273271484375, 192.0, 0.0, 0.0, 0.0, 0.0, 0.0, 0.0, 0.0, 0.0, 0.0, 1.747692017208144E9, 0.0, 2025-05-20 00:00:17.208
208.0, 21035.74079701195, 18056.968516942088, 48122.27763203116, 34296.04730558959, 44787.33030406598, 2839.8785400245833, 8403.942990773081, 8217.685904227008, 0.0, 0.0, 5508.386255310328, -28252.359122319118, 19623.490527092283, 6035.1274651440945, -4974.112507595123, -30329.909065951, 0.06261474609375, -0.0016279296875, 1.0273271484375, 192.0, 0.0, 0.0, 0.0, 0.0, 0.0, 0.0, 0.0, 0.0, 0.0, 1.747692017215236E9, 0.0, 2025-05-20 00:00:17.215
210.0, 21052.057570464323, 18073.6652700502, 48134.57109148158, 34310.73240169673, 44793.96877216921, 2838.8503597796393, 8454.077953586335, 8245.513826073864, 0.0, 0.0, 5503.334761063428, -28251.621514752092, 19609.78890774118, 6019.615354492111, -4986.137746112078, -30346.427005103473, 0.064, -0.008, 1.026, 192.0, 1.0, 0.0, 127.5, 96.0, 16.0, 8.0, 0.0, 0.0, 0.0, 1.747692017224263E9, 0.0, 2025-05-20 00:00:17.224
212.0, 21047.050779706333, 18066.937394969154, 48133.25233855872, 34322.55647451359, 44796.025132659095, 2866.18654324848, 8444.086723814813, 8242.25047138339, 0.0, 0.0, 5519.80799672699, -28235.103575599624, 19631.134823695997, 6048.203235650449, -4959.3603562546205, -30314.86634193258, 0.064, -0.008, 1.026, 192.0, 0.0, 0.0, 0.0, 0.0, 0.0, 0.0, 0.0, 0.0, 0.0, 1.74769201723229E9, 0.0, 2025-05-20 00:00:17.232
214.0, 21042.53572732636, 18063.361115856304, 48133.14057983644, 34309.570110985056, 44784.20105984224, 2828.8144265192063, 8414.224793222522, 8237.847177725695, 0.0, 0.0, 5506.799281454001, -28246.12298561609, 19623.44582360337, 6030.053619152739, -4983.477888521897, -30332.457164818905, 0.064, -0.008, 1.026, 192.0, 0.0, 0.0, 0.0, 0.0, 0.0, 0.0, 0.0, 0.0, 0.0, 1.747692017240298E9, 0.0, 2025-05-20 00:00:17.240
216.0, 21068.88843403917, 18082.963595743608, 48142.75182995222, 34325.12692512595, 44805.56932754151, 2855.0777262541924, 8454.033250097424, 8244.329183617734, 0.0, 0.0, 5524.010124684587, -28233.15897383201, 19629.0337597172, 6045.610433293633, -4960.924978366492, -30318.28615883424, 0.064, -0.008, 1.026, 192.0, 0.0, 0.0, 0.0, 0.0, 0.0, 0.0, 0.0, 0.0, 0.0, 1.747692017249362E9, 0.0, 2025-05-20 00:00:17.249
218.0, 21043.675666293584, 18061.930604211164, 48135.599271726525, 34315.873302921456, 44790.45954828973, 2851.27792969679, 8414.291848455889, 8237.2436806254, 0.0, 0.0, 5517.505767048093, -28238.45633726792, 19634.375826642015, 6048.560863561734, -4962.087269078168, -30316.05098438871, 0.064, -0.008, 1.026, 192.0, 0.0, 0.0, 0.0, 0.0, 0.0, 0.0, 0.0, 0.0, 0.0, 1.747692017257382E9, 0.0, 2025-05-20 00:00:17.257
220.0, 21058.874852523193, 18079.700241053135, 48147.758620710214, 34328.569093772065, 44796.74038848167, 2851.6802610969858, 8456.223721054044, 8262.836428026727, 0.0, 0.0, 5511.917830934266, -28237.24934306733, 19622.46234684734, 6040.6483460245545, -4969.351586026142, -30325.259903104296, 0.052000000000000005, -0.006, 1.028, 192.0, 0.5, 80.0, 127.5, 104.0, 16.0, 16.0, 0.0, 0.0, 0.0, 1.747692017265425E9, 0.0, 2025-05-20 00:00:17.265
222.0, 21049.710637296517, 18076.05690670692, 48134.615794970494, 34327.40680306039, 44791.91241167932, 2874.344929974667, 8436.934165589115, 8245.06679118476, 0.0, 0.0, 5521.596136283414, -28223.39126150504, 19640.433149389406, 6066.688128314988, -4941.590719412651, -30299.24247255832, 0.052000000000000005, -0.006, 1.028, 192.0, 0.0, 0.0, 0.0, 0.0, 0.0, 0.0, 0.0, 0.0, 0.0, 1.747692017271423E9, 0.0, 2025-05-20 00:00:17.271
224.0, 21049.0177332184, 18079.297909652938, 48129.67605944587, 34311.82763717504, 44780.58007724048, 2878.3905957210777, 8425.043037538891, 8246.162026663069, 0.0, 0.0, 5507.715702976669, -28238.45633726792, 19629.704312050857, 6039.329593101692, -4975.006577373335, -30324.94697868192, 0.052000000000000005, -0.006, 1.028, 192.0, 0.0, 0.0, 0.0, 0.0, 0.0, 0.0, 0.0, 0.0, 0.0, 1.747692017279524E9, 0.0, 2025-05-20 00:00:17.279
226.0, 21058.517224611907, 18088.931511513176, 48139.443771772836, 34327.40680306039, 44797.209775115225, 2850.1826942184803, 8457.698936188095, 8250.721782531951, 0.0, 0.0, 5516.075255402953, -28226.654616195516, 19629.97253298432, 6047.19740714996, -4958.5333417097745, -30318.464972789883, 0.052000000000000005, -0.006, 1.028, 192.0, 0.0, 0.0, 0.0, 0.0, 0.0, 0.0, 0.0, 0.0, 0.0, 1.747692017288524E9, 0.0, 2025-05-20 00:00:17.288
228.0, 21046.044951205844, 18075.609871817815, 48129.49724549022, 34312.07350636405, 44787.26324883261, 2892.472194727921, 8426.607659650763, 8238.920061459548, 0.0, 0.0, 5515.024723413554, -28233.315436043198, 19636.476890620816, 6052.114790930127, -4957.683975420472, -30313.52523726526, 0.052000000000000005, -0.006, 1.028, 192.0, 0.0, 0.0, 0.0, 0.0, 0.0, 0.0, 0.0, 0.0, 0.0, 1.747692017295529E9, 0.0, 2025-05-20 00:00:17.295
230.0, 21056.594974588752, 18087.992738246052, 48134.07935310357, 34314.68866046532, 44791.063045390016, 2832.055429465226, 8454.279119286433, 8244.887977229117, 0.0, 0.0, 5504.653513986292, -28242.881982670067, 19616.87441073351, 6033.048752909751, -4973.486658750375, -30334.357063097606, 0.06, -0.004, 1.034, 192.0, 0.5, 112.0, 127.5, 112.0, 16.0, 40.0, 0.0, 0.0, 0.0, 1.74769201730357E9, 0.0, 2025-05-20 00:00:17.303
232.0, 21050.850576263736, 18081.57778758738, 48127.46323674479, 34317.14735235541, 44796.807443715035, 2864.3313484586893, 8427.993467806991, 8231.096950900192, 0.0, 0.0, 5513.66126700178, -28229.62739820807, 19631.134823695997, 6051.332479874191, -4953.5489026962405, -30314.86634193258, 0.06, -0.004, 1.034, 192.0, 0.0, 0.0, 0.0, 0.0, 0.0, 0.0, 0.0, 0.0, 0.0, 1.747692017311631E9, 0.0, 2025-05-20 00:00:17.311
234.0, 21046.64844830614, 18073.598214816837, 48127.39618151142, 34302.708125437275, 44783.038769130566, 2847.4557813949327, 8416.147043245679, 8227.58772702071, 0.0, 0.0, 5498.506784261082, -28250.77214846279, 19617.589666556083, 6025.806787706231, -4982.337949554676, -30340.749662011825, 0.06, -0.004, 1.034, 192.0, 0.0, 0.0, 0.0, 0.0, 0.0, 0.0, 0.0, 0.0, 0.0, 1.747692017320838E9, 0.0, 2025-05-20 00:00:17.320
236.0, 21058.047837978345, 18088.730345813077, 48139.48847526175, 34326.28921583763, 44802.5741937845, 2861.6267873795973, 8450.300508773387, 8242.764561505863, 0.0, 0.0, 5514.868261202367, -28232.711938942903, 19625.21161141534, 6047.331517616692, -4955.8958358640475, -30320.275464090762, 0.06, -0.004, 1.034, 192.0, 0.0, 0.0, 0.0, 0.0, 0.0, 0.0, 0.0, 0.0, 0.0, 1.747692017328654E9, 0.0, 2025-05-20 00:00:17.328
238.0, 21047.92249774009, 18075.542816584446, 48131.41949551338, 34307.93843363982, 44788.827870944486, 2879.66464515503, 8404.255915195456, 8223.832633952217, 0.0, 0.0, 5509.28032508854, -28241.183250091464, 19630.21840217333, 6047.063296683228, -4963.406022001031, -30320.0072431573, 0.06, -0.004, 1.034, 192.0, 0.0, 0.0, 0.0, 0.0, 0.0, 0.0, 0.0, 0.0, 0.0, 1.74769201733762E9, 0.0, 2025-05-20 00:00:17.337
240.0, 21055.387980388165, 18083.075354465887, 48139.33201305056, 34315.06864012106, 44798.416769315816, 2842.5607493592206, 8450.635784940217, 8241.401105094088, 0.0, 0.0, 5503.893554674811, -28250.25805834032, 19612.761689753734, 6029.539529030268, -4975.431260517987, -30340.99553120083, 0.06, -0.006, 1.034, 192.0, 0.5, 112.0, 127.5, 104.0, 16.0, 40.0, 0.0, 0.0, 0.0, 1.747692017345697E9, 0.0, 2025-05-20 00:00:17.345
242.0, 21064.038105492367, 18090.0714504804, 48149.502056777725, 34335.788707231135, 44811.87251947791, 2853.580159375687, 8461.141104834212, 8242.764561505863, 0.0, 0.0, 5522.646668272814, -28221.357252759608, 19640.187280200396, 6062.240131168382, -4941.702478134928, -30307.579673240147, 0.06, -0.006, 1.034, 192.0, 0.0, 0.0, 0.0, 0.0, 0.0, 0.0, 0.0, 0.0, 0.0, 1.747692017352687E9, 0.0, 2025-05-20 00:00:17.352
244.0, 21057.086712966768, 18083.634148077268, 48136.58274848256, 34310.397125529904, 44792.85118494644, 2852.4625721529214, 8426.272383483933, 8230.739322988908, 0.0, 0.0, 5516.991676925621, -28230.096784841633, 19635.851041776066, 6042.5258925588005, -4965.797658657749, -30328.09857465012, 0.06, -0.006, 1.034, 192.0, 0.0, 0.0, 0.0, 0.0, 0.0, 0.0, 0.0, 0.0, 0.0, 1.747692017359744E9, 0.0, 2025-05-20 00:00:17.359
246.0, 21071.794160818357, 18096.285235438972, 48146.43986778735, 34325.149276870405, 44813.079513678495, 2861.2915112127675, 8457.609529210273, 8231.521634044842, 0.0, 0.0, 5519.182147882241, -28231.25907555331, 19627.55854458315, 6041.721229758409, -4961.0590888332235, -30330.445507817927, 0.06, -0.006, 1.034, 192.0, 0.0, 0.0, 0.0, 0.0, 0.0, 0.0, 0.0, 0.0, 0.0, 1.747692017367765E9, 0.0, 2025-05-20 00:00:17.367
248.0, 21064.26162293692, 18091.144334214252, 48138.884978161455, 34316.85677967749, 44801.478958306194, 2884.224401023913, 8416.795243834882, 8217.887069927105, 0.0, 0.0, 5522.244336872618, -28232.421366264985, 19641.886012779, 6051.779514763298, -4953.593606185152, -30319.582560012648, 0.06, -0.006, 1.034, 192.0, 0.0, 0.0, 0.0, 0.0, 0.0, 0.0, 0.0, 0.0, 0.0, 1.747692017376799E9, 0.0, 2025-05-20 00:00:17.376
250.0, 21070.0730764953, 18097.62634010629, 48142.595367741036, 34320.254244834694, 44798.46147280472, 2844.6618133380193, 8434.922508588137, 8227.878299698628, 0.0, 0.0, 5519.919755449267, -28228.621569707582, 19632.990018485787, 6037.0050116783395, -4969.93273138198, -30333.61945553058, 0.06, -0.006, 1.036, 192.0, 0.5, 112.0, 127.5, 104.0, 16.0, 48.0, 0.0, 0.0, 0.0, 1.747692017383782E9, 0.0, 2025-05-20 00:00:17.383
252.0, 21058.964259501012, 18088.05979347942, 48132.78295192515, 34319.98602390123, 44798.684990249276, 2896.696674429974, 8422.673752626628, 8212.567354746741, 0.0, 0.0, 5522.087874661431, -28227.414575506995, 19638.801472044168, 6052.3830118635915, -4955.471152719397, -30316.27450183326, 0.06, -0.006, 1.036, 192.0, 0.0, 0.0, 0.0, 0.0, 0.0, 0.0, 0.0, 0.0, 0.0, 1.74769201739183E9, 0.0, 2025-05-20 00:00:17.391
254.0, 21050.001209974434, 18075.967499729097, 48124.78102741016, 34303.37867777094, 44789.23020234468, 2849.400383162544, 8404.278266939911, 8214.91428791455, 0.0, 0.0, 5504.497051775104, -28244.290142570753, 19625.859812004546, 6029.695991241454, -4983.813164688727, -30337.687473021448, 0.06, -0.006, 1.036, 192.0, 0.0, 0.0, 0.0, 0.0, 0.0, 0.0, 0.0, 0.0, 0.0, 1.747692017399921E9, 0.0, 2025-05-20 00:00:17.399
0.0, 21057.73491355597, 18087.43394463467, 48136.87332116048, 34320.79068670162, 44804.11646415192, 2861.8950083130608, 8449.249976783989, 8223.25148859638, 0.0, 0.0, 5510.174394866753, -28237.20463957842, 19619.869544490524, 6039.374296590602, -4966.043527846758, -30330.33374909565, 0.06, -0.006, 1.036, 192.0, 0.0, 0.0, 0.0, 0.0, 0.0, 0.0, 0.0, 0.0, 0.0, 1.747692017408881E9, 0.0, 2025-05-20 00:00:17.408
2.0, 21043.58625931576, 18071.34068862685, 48127.17266406687, 34309.39129702941, 44793.924068680295, 2868.019386293815, 8410.648514109673, 8218.982305405416, 0.0, 0.0, 5506.821633198457, -28238.59044773465, 19629.681960306403, 6050.080782184695, -4958.131010309578, -30316.877998933556, 0.06, -0.006, 1.036, 192.0, 0.0, 0.0, 0.0, 0.0, 0.0, 0.0, 0.0, 0.0, 0.0, 1.747692017416877E9, 0.0, 2025-05-20 00:00:17.416
4.0, 21061.869986280202, 18093.33480517087, 48137.63328047196, 34318.309643067085, 44797.74621698215, 2856.6199966216086, 8437.045924311391, 8239.747076004396, 0.0, 0.0, 5501.23369708463, -28243.932514659467, 19615.734471766293, 6030.165377875016, -4976.012405873824, -30336.23460963185, 0.062, -0.008, 1.03, 192.0, 0.5, 120.0, 127.5, 96.0, 16.0, 24.0, 0.0, 0.0, 0.0, 1.747692017425866E9, 0.0, 2025-05-20 00:00:17.425
6.0, 21057.60080308924, 18088.8197527909, 48136.62745197147, 34327.876189693954, 44797.634458259876, 2876.356586975645, 8436.934165589115, 8238.025991681337, 0.0, 0.0, 5516.432883314238, -28222.474839982373, 19637.929754010413, 6054.841703753675, -4948.251539260333, -30311.312414564185, 0.062, -0.008, 1.03, 192.0, 0.0, 0.0, 0.0, 0.0, 0.0, 0.0, 0.0, 0.0, 0.0, 1.747692017432933E9, 0.0, 2025-05-20 00:00:17.432
8.0, 21052.236384419964, 18082.896540510243, 48130.61483271299, 34306.23970106122, 44787.509118021626, 2879.374072477111, 8418.359865946753, 8234.986154435415, 0.0, 0.0, 5507.000447154099, -28235.528258744274, 19630.665437062435, 6036.021534922306, -4972.279664549788, -30328.18798162794, 0.062, -0.008, 1.03, 192.0, 0.0, 0.0, 0.0, 0.0, 0.0, 0.0, 0.0, 0.0, 0.0, 1.747692017439926E9, 0.0, 2025-05-20 00:00:17.439
10.0, 21065.26745143741, 18096.15112497224, 48141.8130566851, 34324.881055936945, 44804.45174031875, 2871.059223539737, 8463.666851957661, 8247.39137260811, 0.0, 0.0, 5509.794415211012, -28233.606008721115, 19622.507050336248, 6036.982659933885, -4962.98133885638, -30330.512563051292, 0.062, -0.008, 1.03, 192.0, 0.0, 0.0, 0.0, 0.0, 0.0, 0.0, 0.0, 0.0, 0.0, 1.747692017450909E9, 0.0, 2025-05-20 00:00:17.450
12.0, 21046.02259946139, 18076.14631368474, 48124.892786132434, 34307.200826072796, 44787.509118021626, 2874.8143166082286, 8419.879784569715, 8233.95797419047, 0.0, 0.0, 5510.554374522492, -28229.761508674805, 19636.253373176263, 6050.125485673605, -4955.515856208308, -30315.402783799505, 0.062, -0.008, 1.03, 192.0, 0.0, 0.0, 0.0, 0.0, 0.0, 0.0, 0.0, 0.0, 0.0, 1.747692017456949E9, 0.0, 2025-05-20 00:00:17.456
14.0, 21057.667858322606, 18087.18807544566, 48131.687716446846, 34309.83833191852, 44800.11550189442, 2863.012595535826, 8447.506540716475, 8250.542968576308, 0.0, 0.0, 5495.019912126054, -28247.93347691697, 19609.900666463454, 6021.202328348438, -4984.394310044564, -30346.248191147828, 0.062, -0.004, 1.03, 192.0, 0.5, 120.0, 127.5, 112.0, 16.0, 24.0, 0.0, 0.0, 0.0, 1.747692017463997E9, 0.0, 2025-05-20 00:00:17.463
16.0, 21050.470596607996, 18083.365927143805, 48127.060905344595, 34319.069602378564, 44801.568365284016, 2866.991206048871, 8442.678563914129, 8242.58574755022, 0.0, 0.0, 5511.917830934266, -28230.722633686382, 19629.79371902868, 6052.651232797055, -4951.9619288399135, -30313.391126798528, 0.062, -0.004, 1.03, 192.0, 0.0, 0.0, 0.0, 0.0, 0.0, 0.0, 0.0, 0.0, 0.0, 1.747692017471974E9, 0.0, 2025-05-20 00:00:17.471
18.0, 21040.613477303206, 18069.19492115914, 48117.51671046218, 34297.03078234563, 44776.84733591644, 2850.249749451846, 8409.642685609184, 8231.164006133558, 0.0, 0.0, 5488.470851000649, -28251.912087430013, 19612.94050370938, 6025.069180139206, -4987.188278101477, -30341.219048645384, 0.062, -0.004, 1.03, 192.0, 0.0, 0.0, 0.0, 0.0, 0.0, 0.0, 0.0, 0.0, 0.0, 1.747692017480087E9, 0.0, 2025-05-20 00:00:17.480
20.0, 21054.315096654307, 18083.634148077268, 48128.51376873419, 34315.24745407671, 44796.6733332483, 2866.7900403487733, 8456.648404198695, 8239.545910304298, 0.0, 0.0, 5500.2055168396855, -28242.814927436702, 19613.11931766502, 6032.534662787279, -4969.262179048322, -30335.25113287582, 0.062, -0.004, 1.03, 192.0, 0.0, 0.0, 0.0, 0.0, 0.0, 0.0, 0.0, 0.0, 0.0, 1.747692017488034E9, 0.0, 2025-05-20 00:00:17.488
22.0, 21046.894317495146, 18077.15214218523, 48128.111437333995, 34310.28536680763, 44796.56157452602, 2866.0971362706587, 8416.303505456866, 8228.235927609912, 0.0, 0.0, 5501.23369708463, -28240.378587291074, 19626.12803293801, 6042.190616391971, -4960.612053944118, -30323.695280992426, 0.062, -0.004, 1.03, 192.0, 0.0, 0.0, 0.0, 0.0, 0.0, 0.0, 0.0, 0.0, 0.0, 1.747692017497126E9, 0.0, 2025-05-20 00:00:17.497
24.0, 21050.40354137463, 18079.834351519865, 48129.296079790125, 34308.94426214031, 44792.42650180179, 2863.370223447111, 8438.118808045247, 8238.785950992817, 0.0, 0.0, 5495.064615614965, -28245.40772979352, 19610.325349608105, 6024.532738272279, -4976.124164596101, -30343.25305739082, 0.058, -0.004, 1.036, 192.0, 0.5, 104.0, 127.5, 112.0, 16.0, 48.0, 0.0, 0.0, 0.0, 1.747692017505104E9, 0.0, 2025-05-20 00:00:17.505
26.0, 21048.235422162466, 18078.493246852548, 48135.733382193255, 34320.88009367944, 44805.63638277488, 2858.5198949003097, 8432.352057975777, 8229.957011932971, 0.0, 0.0, 5504.787624453023, -28233.36013953211, 19625.50218409326, 6048.471456583912, -4951.447838717441, -30318.889655934534, 0.058, -0.004, 1.036, 192.0, 0.0, 0.0, 0.0, 0.0, 0.0, 0.0, 0.0, 0.0, 0.0, 1.747692017513165E9, 0.0, 2025-05-20 00:00:17.513
28.0, 21050.98468673047, 18078.96263348611, 48136.649803715925, 34308.4972272512, 44799.57906002749, 2874.434336952488, 8431.078008541825, 8233.600346279187, 0.0, 0.0, 5502.70891221868, -28242.77022394779, 19625.390425370984, 6038.368468090113, -4966.5799697136845, -30333.418289830483, 0.058, -0.004, 1.036, 192.0, 0.0, 0.0, 0.0, 0.0, 0.0, 0.0, 0.0, 0.0, 0.0, 1.747692017519187E9, 0.0, 2025-05-20 00:00:17.519
30.0, 21063.412256647618, 18093.33480517087, 48142.84123693004, 34328.39027981643, 44813.03481018959, 2871.7521276178513, 8467.064317114868, 8245.15619816258, 0.0, 0.0, 5511.3590373228835, -28231.035558108757, 19625.12220443752, 6053.455895597446, -4948.609167171618, -30319.13552512354, 0.058, -0.004, 1.036, 192.0, 0.0, 0.0, 0.0, 0.0, 0.0, 0.0, 0.0, 0.0, 0.0, 1.747692017527201E9, 0.0, 2025-05-20 00:00:17.527
32.0, 21051.029390219377, 18079.00733697502, 48128.603175712014, 34317.817904689065, 44794.907545436334, 2867.7735171048066, 8423.925450316126, 8232.527462545331, 0.0, 0.0, 5508.788586710523, -28227.459278995906, 19638.01916098823, 6061.77074453482, -4947.759800882316, -30308.205522084896, 0.058, -0.004, 1.036, 192.0, 0.0, 0.0, 0.0, 0.0, 0.0, 0.0, 0.0, 0.0, 0.0, 1.74769201753625E9, 0.0, 2025-05-20 00:00:17.536
34.0, 21051.096445452746, 18077.6662323077, 48129.229024556764, 34310.57593948555, 44800.18255712778, 2855.99414777686, 8444.95844184857, 8240.350573104688, 0.0, 0.0, 5499.199688339197, -28237.472860511883, 19617.768480511724, 6039.284889612782, -4968.79279241476, -30331.38428108505, 0.054, -0.006, 1.03, 192.0, 0.5, 88.0, 127.5, 104.0, 16.0, 24.0, 0.0, 0.0, 0.0, 1.747692017543217E9, 0.0, 2025-05-20 00:00:17.543
36.0, 21049.822396018793, 18074.38052587277, 48129.47489374577, 34315.716840710265, 44805.90460370834, 2850.7191360854076, 8435.011915565958, 8222.715046729452, 0.0, 0.0, 5503.446519785705, -28242.278485569776, 19620.517745079727, 6048.963194961929, -4954.93471085247, -30321.705975735902, 0.054, -0.006, 1.03, 192.0, 0.0, 0.0, 0.0, 0.0, 0.0, 0.0, 0.0, 0.0, 0.0, 1.747692017551247E9, 0.0, 2025-05-20 00:00:17.551
38.0, 21059.1207217122, 18081.175456187186, 48120.02010584118, 34293.9462416108, 44801.16603388382, 2860.2409792233684, 8402.624237850217, 8214.511956514354, 0.0, 0.0, 5498.462080772171, -28248.224049594886, 19620.227172401806, 6029.539529030268, -4977.353510541143, -30340.10146142262, 0.054, -0.006, 1.03, 192.0, 0.0, 0.0, 0.0, 0.0, 0.0, 0.0, 0.0, 0.0, 0.0, 1.747692017560275E9, 0.0, 2025-05-20 00:00:17.560
40.0, 21052.862233264714, 18085.064659722408, 48134.03464961465, 34320.187189601325, 44814.48767357918, 2854.273063453801, 8441.382162735721, 8228.526500287831, 0.0, 0.0, 5501.434862784728, -28242.099671614134, 19616.06974793312, 6031.752351731343, -4968.189295314467, -30339.743833511337, 0.054, -0.006, 1.03, 192.0, 0.0, 0.0, 0.0, 0.0, 0.0, 0.0, 0.0, 0.0, 0.0, 1.747692017568326E9, 0.0, 2025-05-20 00:00:17.568
42.0, 21047.564869828806, 18077.48741835206, 48133.45350425882, 34319.51663726767, 44798.08149314899, 2904.1621570780467, 8406.42403440762, 8217.216517593446, 0.0, 0.0, 5507.358075065384, -28231.415537764497, 19637.616829588038, 6049.365526362125, -4959.226245787889, -30320.946016424423, 0.054, -0.006, 1.03, 192.0, 0.0, 0.0, 0.0, 0.0, 0.0, 0.0, 0.0, 0.0, 0.0, 1.747692017576371E9, 0.0, 2025-05-20 00:00:17.576
44.0, 21060.528881612885, 18096.419345905702, 48141.23191132926, 34330.08901239503, 44796.62862975939, 2861.8056013352398, 8443.036191825413, 8242.898671972594, 0.0, 0.0, 5509.347380321906, -28229.06860459669, 19630.307809151152, 6037.966136689918, -4970.692690693461, -30331.09370840713, 0.056, -0.012, 1.038, 192.0, 0.5, 96.0, 127.5, 80.0, 16.0, 56.0, 0.0, 0.0, 0.0, 1.747692017585375E9, 0.0, 2025-05-20 00:00:17.585
46.0, 21054.583317587774, 18093.938302271166, 48132.872358902976, 34337.64390202092, 44786.3691790544, 2867.2370752378793, 8452.043944840902, 8238.383619592621, 0.0, 0.0, 5514.868261202367, -28214.45056372292, 19641.416626145437, 6062.843628268675, -4950.129085794579, -30300.918853392468, 0.056, -0.012, 1.038, 192.0, 0.0, 0.0, 0.0, 0.0, 0.0, 0.0, 0.0, 0.0, 0.0, 1.747692017591408E9, 0.0, 2025-05-20 00:00:17.591
48.0, 21052.63871582016, 18093.11128772632, 48128.178492567364, 34317.259111077685, 44780.356559795924, 2880.1340317885915, 8415.76706358994, 8237.131921903125, 0.0, 0.0, 5502.284229074029, -28229.850915652623, 19634.487585364295, 6045.38691584908, -4971.944388382958, -30320.700147235413, 0.056, -0.012, 1.038, 192.0, 0.0, 0.0, 0.0, 0.0, 0.0, 0.0, 0.0, 0.0, 0.0, 1.747692017599472E9, 0.0, 2025-05-20 00:00:17.599
50.0, 21068.106122983234, 18109.00337803404, 48145.456391031315, 34341.711919511785, 44800.428426316794, 2873.786136363284, 8451.44044774061, 8250.744134276407, 0.0, 0.0, 5513.102473390398, -28217.266883524288, 19636.722759809825, 6056.4957328433675, -4952.386611984564, -30313.48053377635, 0.056, -0.012, 1.038, 192.0, 0.0, 0.0, 0.0, 0.0, 0.0, 0.0, 0.0, 0.0, 0.0, 1.747692017608464E9, 0.0, 2025-05-20 00:00:17.608
52.0, 21057.69021006706, 18099.772107574, 48139.53317875066, 34334.04527116362, 44792.51590877961, 2904.2292123114125, 8423.500767171476, 8236.05903816927, 0.0, 0.0, 5514.443578057716, -28214.62937767856, 19650.849062305577, 6069.504448116356, -4943.3341554801655, -30299.510693491782, 0.056, -0.012, 1.038, 192.0, 0.0, 0.0, 0.0, 0.0, 0.0, 0.0, 0.0, 0.0, 0.0, 1.747692017615544E9, 0.0, 2025-05-20 00:00:17.615
54.0, 21065.848596793247, 18109.137488500775, 48142.729478207766, 34337.241570620725, 44797.43329255978, 2865.5606944037313, 8439.370505734743, 8245.714991773963, 0.0, 0.0, 5509.1909181107185, -28216.953959101913, 19638.108567966054, 6051.377183363103, -4961.595530700151, -30318.219103600873, 0.064, -0.006, 1.034, 192.0, 1.0, 0.0, 127.5, 104.0, 16.0, 40.0, 0.0, 0.0, 0.0, 1.747692017623525E9, 0.0, 2025-05-20 00:00:17.623
56.0, 21062.227614191488, 18106.54468614396, 48144.562321253106, 34343.56711430158, 44797.9250309378, 2897.926020375016, 8443.125598803235, 8237.19897713649, 0.0, 0.0, 5515.0023716690985, -28210.941339843434, 19644.501166880273, 6072.454878384457, -4938.193254255445, -30295.308565534186, 0.064, -0.006, 1.034, 192.0, 0.0, 0.0, 0.0, 0.0, 0.0, 0.0, 0.0, 0.0, 0.0, 1.7476920176316E9, 0.0, 2025-05-20 00:00:17.631
58.0, 21059.34423915675, 18101.895523297255, 48134.4593327593, 34320.7012797238, 44792.38179831288, 2859.570426889709, 8412.883688555205, 8230.62756426663, 0.0, 0.0, 5509.1909181107185, -28224.978235361366, 19640.50020462277, 6052.807695008242, -4961.014385344313, -30317.14621986702, 0.064, -0.006, 1.034, 192.0, 0.0, 0.0, 0.0, 0.0, 0.0, 0.0, 0.0, 0.0, 0.0, 1.747692017640651E9, 0.0, 2025-05-20 00:00:17.640
60.0, 21068.84373055026, 18111.082090268384, 48140.89663516243, 34332.83827696303, 44811.403132844345, 2905.659723956552, 8462.72807869054, 8235.500244557887, 0.0, 0.0, 5512.543679779015, -28222.8101161492, 19633.660570819447, 6050.349003118158, -4955.806428886227, -30320.521333279772, 0.064, -0.006, 1.034, 192.0, 0.0, 0.0, 0.0, 0.0, 0.0, 0.0, 0.0, 0.0, 0.0, 1.747692017648694E9, 0.0, 2025-05-20 00:00:17.648
62.0, 21053.130454198177, 18098.140430228763, 48128.91610013439, 34322.46706753577, 44798.01443791562, 2863.638444380575, 8421.33264795931, 8220.301058328278, 0.0, 0.0, 5508.989752410621, -28225.91700862849, 19644.344704669085, 6054.640538053577, -4956.6557951755285, -30313.99462389882, 0.064, -0.006, 1.034, 192.0, 0.0, 0.0, 0.0, 0.0, 0.0, 0.0, 0.0, 0.0, 0.0, 1.747692017656665E9, 0.0, 2025-05-20 00:00:17.656
64.0, 21064.12751247019, 18105.04711926545, 48136.292175804636, 34324.83635244803, 44803.60237402945, 2874.344929974667, 8446.165436049156, 8238.093046914702, 0.0, 0.0, 5498.3279703054395, -28229.20271506342, 19626.351550382562, 6034.501616299345, -4975.341853540165, -30334.982911942356, 0.056, -0.002, 1.036, 192.0, 0.5, 96.0, 127.5, 120.0, 16.0, 48.0, 0.0, 0.0, 0.0, 1.747692017665741E9, 0.0, 2025-05-20 00:00:17.665
66.0, 21063.948698514545, 18108.73515710058, 48139.376716539475, 34339.23087587725, 44808.43035083179, 2877.720043387418, 8448.065334327857, 8231.476930555931, 0.0, 0.0, 5513.348342579406, -28216.931607357456, 19640.991943000787, 6060.228474167404, -4948.139780538057, -30308.451391273906, 0.056, -0.002, 1.036, 192.0, 0.0, 0.0, 0.0, 0.0, 0.0, 0.0, 0.0, 0.0, 0.0, 1.747692017672702E9, 0.0, 2025-05-20 00:00:17.672
68.0, 21064.462788637018, 18109.91979955671, 48144.42821078637, 34327.675023993856, 44802.529490295594, 2878.368243976622, 8417.242278723988, 8227.408913065066, 0.0, 0.0, 5512.141348378819, -28220.910217870503, 19644.568222113638, 6050.930148473996, -4961.796696400249, -30318.80024895671, 0.056, -0.002, 1.036, 192.0, 0.0, 0.0, 0.0, 0.0, 0.0, 0.0, 0.0, 0.0, 0.0, 1.74769201767974E9, 0.0, 2025-05-20 00:00:17.679
70.0, 21073.202320719043, 18119.463994439127, 48151.401955056426, 34344.01414919068, 44814.53237706809, 2865.627749637097, 8458.90593038868, 8241.423456838544, 0.0, 0.0, 5522.020819428065, -28215.478743967862, 19642.847137790577, 6057.2556921548485, -4951.760763139816, -30316.05098438871, 0.056, -0.002, 1.036, 192.0, 0.0, 0.0, 0.0, 0.0, 0.0, 0.0, 0.0, 0.0, 0.0, 1.747692017687742E9, 0.0, 2025-05-20 00:00:17.687
72.0, 21070.90009104015, 18117.273523482505, 48148.54093176615, 34339.208524132795, 44802.41773157332, 2869.1146217721252, 8409.821499564827, 8218.892898427594, 0.0, 0.0, 5522.892537461822, -28205.688679896437, 19661.26497522175, 6070.689090572488, -4942.730658379872, -30301.634109215036, 0.056, -0.002, 1.036, 192.0, 0.0, 0.0, 0.0, 0.0, 0.0, 0.0, 0.0, 0.0, 0.0, 1.747692017695793E9, 0.0, 2025-05-20 00:00:17.695
74.0, 21083.41706793512, 18127.30945674294, 48155.69348999185, 34339.208524132795, 44802.14951063985, 2874.3225782302115, 8433.804921365372, 8234.427360824033, 0.0, 0.0, 5522.624316528359, -28210.315490998688, 19651.720780339336, 6050.639575796077, -4960.433239988475, -30323.96350192589, 0.057, 0.001, 1.038, 192.0, 0.5, 104.0, 0.0, 16.0, 16.0, 64.0, 0.0, 0.0, 0.0, 1.747692017702801E9, 0.0, 2025-05-20 00:00:17.702
76.0, 21078.142056243665, 18119.06166303893, 48153.05598414612, 34345.69053002483, 44807.75979849813, 2936.4604278159654, 8436.442427211097, 8228.77236947684, 0.0, 0.0, 5530.335668365439, -28206.225121763364, 19659.40978043196, 6073.192485951482, -4936.673335632484, -30299.46599000287, 0.057, 0.001, 1.038, 192.0, 0.0, 0.0, 0.0, 0.0, 0.0, 0.0, 0.0, 0.0, 0.0, 1.747692017711816E9, 0.0, 2025-05-20 00:00:17.711
78.0, 21067.301460182844, 18108.556343144937, 48146.015184642696, 34329.12788738345, 44794.32640008049, 2867.4382409379773, 8408.793319319882, 8223.944392674493, 0.0, 0.0, 5519.383313582339, -28217.9597876024, 19653.486568151304, 6057.680375299499, -4957.527513209286, -30313.793458198725, 0.057, 0.001, 1.038, 192.0, 0.0, 0.0, 0.0, 0.0, 0.0, 0.0, 0.0, 0.0, 0.0, 1.747692017719834E9, 0.0, 2025-05-20 00:00:17.719
80.0, 21079.08082951079, 18118.480517683092, 48147.24453058774, 34340.7060910113, 44808.85503397644, 2866.2088949929353, 8449.741715162005, 8232.125131145136, 0.0, 0.0, 5519.919755449267, -28215.34463350113, 19642.7353790683, 6054.394668864568, -4956.611091686617, -30317.682661733947, 0.057, 0.001, 1.038, 192.0, 0.0, 0.0, 0.0, 0.0, 0.0, 0.0, 0.0, 0.0, 0.0, 1.747692017728854E9, 0.0, 2025-05-20 00:00:17.728
82.0, 21075.146922486656, 18114.434851936683, 48140.02491712868, 34331.60893101799, 44800.718998994715, 2862.6549676245413, 8409.083891997801, 8213.90845941406, 0.0, 0.0, 5522.71372350618, -28210.87428461007, 19659.074504265132, 6062.10602070165, -4952.677184662483, -30308.27257731826, 0.057, 0.001, 1.038, 192.0, 0.0, 0.0, 0.0, 0.0, 0.0, 0.0, 0.0, 0.0, 0.0, 1.747692017736878E9, 0.0, 2025-05-20 00:00:17.736
84.0, 21074.16344573062, 18112.49025016907, 48134.839312415046, 34317.43792503332, 44793.857013446934, 2836.5034266118323, 8428.507557929464, 8215.00369489237, 0.0, 0.0, 5509.526194277549, -28226.78872666225, 19636.96862899883, 6028.824273207698, -4984.193144344466, -30342.783670757257, 0.053500000000000006, 0.0025, 1.037, 192.0, 0.5, 72.0, 0.0, 16.0, 16.0, 48.0, 0.0, 0.0, 0.0, 1.747692017744867E9, 0.0, 2025-05-20 00:00:17.744
86.0, 21077.73972484347, 18120.022788050508, 48146.015184642696, 34338.82854447705, 44811.98427820019, 2865.8512670816503, 8422.450235182076, 8214.91428791455, 0.0, 0.0, 5525.217118885174, -28213.064755566687, 19651.273745450228, 6053.38884036408, -4953.280681762777, -30319.828429201658, 0.053500000000000006, 0.0025, 1.037, 192.0, 0.0, 0.0, 0.0, 0.0, 0.0, 0.0, 0.0, 0.0, 0.0, 1.747692017752872E9, 0.0, 2025-05-20 00:00:17.752
88.0, 21068.061419494323, 18106.947017544153, 48136.42628627137, 34320.611872745976, 44799.869632705406, 2886.772499891818, 8404.792357062383, 8218.021180393836, 0.0, 0.0, 5513.370694323861, -28220.329072514665, 19646.356361670063, 6038.971965190407, -4973.330196539187, -30331.585446785146, 0.053500000000000006, 0.0025, 1.037, 192.0, 0.0, 0.0, 0.0, 0.0, 0.0, 0.0, 0.0, 0.0, 0.0, 1.747692017761011E9, 0.0, 2025-05-20 00:00:17.761
90.0, 21086.054573780846, 18128.985837577085, 48148.7644492107, 34340.61668403348, 44812.6771822783, 2864.286644969779, 8453.943843119603, 8235.835520724717, 0.0, 0.0, 5521.484377561138, -28212.036575321745, 19643.920021524435, 6046.616261794122, -4958.5333417097745, -30326.80217347171, 0.053500000000000006, 0.0025, 1.037, 192.0, 0.0, 0.0, 0.0, 0.0, 0.0, 0.0, 0.0, 0.0, 0.0, 1.747692017767995E9, 0.0, 2025-05-20 00:00:17.767
92.0, 21056.617326333206, 18102.096688997353, 48137.02978337166, 34334.15702988589, 44795.44398730326, 2882.6821306564966, 8425.065389283347, 8224.838462452706, 0.0, 0.0, 5520.858528716389, -28205.33105198515, 19659.83446357661, 6066.956349248451, -4945.83755085916, -30304.38337378304, 0.053500000000000006, 0.0025, 1.037, 192.0, 0.0, 0.0, 0.0, 0.0, 0.0, 0.0, 0.0, 0.0, 0.0, 1.747692017776024E9, 0.0, 2025-05-20 00:00:17.776
94.0, 21062.853463036237, 18110.076261767896, 48140.24843457323, 34330.06666065057, 44803.378856584895, 2838.6491940795418, 8437.805883622872, 8232.303945100779, 0.0, 0.0, 5503.692388974713, -28221.44665973743, 19636.16396619844, 6037.697915756455, -4976.146516340556, -30334.17824914196, 0.052750000000000005, 0.00125, 1.0365, 192.0, 0.5, 80.0, 0.0, 0.0, 16.0, 48.0, 0.0, 0.0, 0.0, 1.747692017785031E9, 0.0, 2025-05-20 00:00:17.785
96.0, 21069.044896250358, 18115.887715326277, 48144.33880380855, 34346.070509680576, 44809.83851073248, 2866.052432781748, 8439.862244112759, 8226.87247119814, 0.0, 0.0, 5517.461063559183, -28203.855836851104, 19652.145463483987, 6063.983567235896, -4944.116466536101, -30308.51844650727, 0.052750000000000005, 0.00125, 1.0365, 192.0, 0.0, 0.0, 0.0, 0.0, 0.0, 0.0, 0.0, 0.0, 0.0, 1.747692017791109E9, 0.0, 2025-05-20 00:00:17.791
98.0, 21067.88260553868, 18111.752642602045, 48139.39906828393, 34330.334881584036, 44801.43425481728, 2883.0621103122367, 8410.469700154032, 8223.899689185582, 0.0, 0.0, 5510.8896506893225, -28214.763488145294, 19650.491434394295, 6051.801866507753, -4963.5848359566735, -30321.303644335705, 0.052750000000000005, 0.00125, 1.0365, 192.0, 0.0, 0.0, 0.0, 0.0, 0.0, 0.0, 0.0, 0.0, 0.0, 1.747692017800106E9, 0.0, 2025-05-20 00:00:17.800
100.0, 21077.47150391001, 18126.39303522027, 48148.67504223288, 34349.71384402679, 44797.41094081532, 2876.9153805870274, 8459.10709608878, 8234.986154435415, 0.0, 0.0, 5520.120921149364, -28202.67119439497, 19649.351495427072, 6054.841703753675, -4956.767553897805, -30316.52037102227, 0.052750000000000005, 0.00125, 1.0365, 192.0, 0.0, 0.0, 0.0, 0.0, 0.0, 0.0, 0.0, 0.0, 0.0, 1.747692017807097E9, 0.0, 2025-05-20 00:00:17.807
102.0, 21073.649355608148, 18118.77109036101, 48147.15512360992, 34346.048157936115, 44796.98625767067, 2884.2691045128236, 8417.935182802103, 8225.777235719828, 0.0, 0.0, 5523.026647928554, -28196.859740836593, 19666.60704214657, 6067.9398260044845, -4949.816161372204, -30302.841103415623, 0.052750000000000005, 0.00125, 1.0365, 192.0, 0.0, 0.0, 0.0, 0.0, 0.0, 0.0, 0.0, 0.0, 0.0, 1.747692017816186E9, 0.0, 2025-05-20 00:00:17.816
104.0, 21077.8738353102, 18123.844936352365, 48148.742097466245, 34344.12590791296, 44798.39441757136, 2867.7288136158963, 8434.989563821502, 8237.467198069955, 0.0, 0.0, 5515.1141303913755, -28206.87332235257, 19650.22321346083, 6050.7960380072645, -4966.244693546855, -30321.48245829135, 0.053375000000000006, -3.75E-4, 1.03725, 192.0, 0.5, 88.0, 127.5, 120.0, 16.0, 56.0, 0.0, 0.0, 0.0, 1.747692017824202E9, 0.0, 2025-05-20 00:00:17.824
106.0, 21073.60465211924, 18125.34250323087, 48147.87037943249, 34353.08895743954, 44804.831719974485, 2901.9493343769714, 8437.67177315614, 8238.987116692915, 0.0, 0.0, 5528.18990089773, -28192.38939194553, 19663.03076303372, 6077.193448208982, -4938.819103100193, -30293.028687599744, 0.053375000000000006, -3.75E-4, 1.03725, 192.0, 0.0, 0.0, 0.0, 0.0, 0.0, 0.0, 0.0, 0.0, 0.0, 1.747692017833275E9, 0.0, 2025-05-20 00:00:17.833
108.0, 21062.004096746936, 18108.10930825583, 48138.594405483535, 34332.25713160719, 44793.20881285773, 2873.696729385463, 8405.798185562871, 8236.528424802831, 0.0, 0.0, 5508.810938454979, -28213.288273011243, 19649.843233805088, 6054.707593286943, -4965.328272024188, -30312.98879539833, 0.053375000000000006, -3.75E-4, 1.03725, 192.0, 0.0, 0.0, 0.0, 0.0, 0.0, 0.0, 0.0, 0.0, 0.0, 1.747692017839269E9, 0.0, 2025-05-20 00:00:17.839
110.0, 21073.962280030522, 18120.87215433981, 48146.216350342795, 34345.5564195581, 44800.2719641056, 2879.374072477111, 8457.318956532354, 8241.065828927258, 0.0, 0.0, 5514.510633291082, -28206.560397930196, 19644.8364430471, 6057.658023555044, -4955.404097486031, -30311.446525030915, 0.053375000000000006, -3.75E-4, 1.03725, 192.0, 0.0, 0.0, 0.0, 0.0, 0.0, 0.0, 0.0, 0.0, 0.0, 1.747692017847296E9, 0.0, 2025-05-20 00:00:17.847
112.0, 21062.74170431396, 18112.132622257785, 48138.0132601277, 34338.917951454874, 44800.13785363887, 2867.3935374490666, 8417.108168257257, 8232.43805556751, 0.0, 0.0, 5514.912964691278, -28207.2085985194, 19656.302887952672, 6065.168209692027, -4951.470190461897, -30301.075315603655, 0.053375000000000006, -3.75E-4, 1.03725, 192.0, 0.0, 0.0, 0.0, 0.0, 0.0, 0.0, 0.0, 0.0, 0.0, 1.747692017857363E9, 0.0, 2025-05-20 00:00:17.857
114.0, 21075.392791675662, 18124.11315728583, 48148.742097466245, 34341.66721602288, 44805.41286533033, 2853.580159375687, 8431.793264364394, 8240.372924849144, 0.0, 0.0, 5507.872165187856, -28211.746002643828, 19643.003600001764, 6041.38595359158, -4976.057109362735, -30326.511600793794, 0.0546875, -1.875E-4, 1.0346250000000001, 192.0, 0.5, 96.0, 0.0, 0.0, 16.0, 32.0, 0.0, 0.0, 0.0, 1.747692017864401E9, 0.0, 2025-05-20 00:00:17.864
116.0, 21073.78346607488, 18124.02375030801, 48151.69252773435, 34355.57000107408, 44812.185443900285, 2876.2448282533683, 8440.130465046223, 8230.716971244452, 0.0, 0.0, 5528.748694509112, -28194.758676857793, 19664.729495612322, 6075.740584819387, -4936.271004232288, -30295.643841701014, 0.0546875, -1.875E-4, 1.0346250000000001, 192.0, 0.0, 0.0, 0.0, 0.0, 0.0, 0.0, 0.0, 0.0, 0.0, 1.747692017871308E9, 0.0, 2025-05-20 00:00:17.871
118.0, 21064.1722159591, 18113.63018913629, 48139.354364795014, 34333.821753719065, 44801.277792606095, 2883.4867934568874, 8408.770967575427, 8225.464311297454, 0.0, 0.0, 5512.923659434755, -28211.72365089937, 19655.542928641193, 6058.462686355435, -4959.226245787889, -30311.781801197747, 0.0546875, -1.875E-4, 1.0346250000000001, 192.0, 0.0, 0.0, 0.0, 0.0, 0.0, 0.0, 0.0, 0.0, 0.0, 1.747692017879427E9, 0.0, 2025-05-20 00:00:17.879
120.0, 21078.164407988123, 18126.124814286806, 48150.485533533756, 34350.78672776064, 44805.457568819234, 2885.8113748802393, 8459.397668766698, 8244.999735951393, 0.0, 0.0, 5514.577688524448, -28208.326185742164, 19646.155195969965, 6056.719250287921, -4955.828780630682, -30314.151086110007, 0.0546875, -1.875E-4, 1.0346250000000001, 192.0, 0.0, 0.0, 0.0, 0.0, 0.0, 0.0, 0.0, 0.0, 0.0, 1.747692017887457E9, 0.0, 2025-05-20 00:00:17.887
122.0, 21061.802931046837, 18108.73515710058, 48135.800437426624, 34341.68956776733, 44788.20202209974, 2890.348779004667, 8429.915717830148, 8239.545910304298, 0.0, 0.0, 5516.969325181166, -28206.225121763364, 19660.102684510075, 6071.225532439415, -4947.044545059746, -30296.94024287942, 0.0546875, -1.875E-4, 1.0346250000000001, 192.0, 0.0, 0.0, 0.0, 0.0, 0.0, 0.0, 0.0, 0.0, 0.0, 1.747692017895428E9, 0.0, 2025-05-20 00:00:17.895
124.0, 21072.30825094083, 18118.547572916457, 48145.8140189426, 34344.595294546525, 44799.28848734957, 2875.3284067307004, 8443.438523225608, 8256.644994812608, 0.0, 0.0, 5502.820670940956, -28214.96465384539, 19639.69554182238, 6049.074953684206, -4971.005615115835, -30317.19092335593, 0.054343749999999996, -0.00309375, 1.0283125000000002, 192.0, 0.5, 88.0, 127.5, 104.0, 15.5, 120.0, 0.0, 0.0, 0.0, 1.747692017903443E9, 0.0, 2025-05-20 00:00:17.903
126.0, 21071.436532907075, 18117.474689182603, 48141.276614818176, 34352.73132952825, 44799.8249292165, 2885.2972847577676, 8436.800055122383, 8252.465218599466, 0.0, 0.0, 5515.717627491668, -28202.090049039132, 19653.710085595856, 6074.243017940881, -4942.663603146506, -30290.65940268748, 0.054343749999999996, -0.00309375, 1.0283125000000002, 192.0, 0.0, 0.0, 0.0, 0.0, 0.0, 0.0, 0.0, 0.0, 0.0, 1.747692017912494E9, 0.0, 2025-05-20 00:00:17.912
128.0, 21063.971050259002, 18112.19967749115, 48142.170684596385, 34339.767317744176, 44797.38858907087, 2889.6782266710075, 8410.246182709478, 8244.910328973572, 0.0, 0.0, 5506.799281454001, -28211.58954043264, 19652.011353017253, 6058.10505844415, -4963.204856300933, -30304.718649949868, 0.054343749999999996, -0.00309375, 1.0283125000000002, 192.0, 0.0, 0.0, 0.0, 0.0, 0.0, 0.0, 0.0, 0.0, 0.0, 1.747692017918553E9, 0.0, 2025-05-20 00:00:17.918
130.0, 21069.491931139462, 18117.072357782406, 48143.712954963805, 34349.11034692649, 44810.419656088314, 2883.732662645896, 8462.035174612425, 8260.645957070108, 0.0, 0.0, 5511.716665234168, -28208.572054931174, 19645.372884914028, 6062.48600035739, -4951.514893950808, -30303.913987149477, 0.054343749999999996, -0.00309375, 1.0283125000000002, 192.0, 0.0, 0.0, 0.0, 0.0, 0.0, 0.0, 0.0, 0.0, 0.0, 1.747692017927592E9, 0.0, 2025-05-20 00:00:17.927
132.0, 21065.222747948497, 18112.132622257785, 48137.92385314988, 34345.31055036909, 44802.35067633995, 2869.5840084056867, 8442.879729614226, 8251.39233486561, 0.0, 0.0, 5508.498014032604, -28210.04727006522, 19653.866547807043, 6073.527762118311, -4945.971661325892, -30291.978155610344, 0.054343749999999996, -0.00309375, 1.0283125000000002, 192.0, 0.0, 0.0, 0.0, 0.0, 0.0, 0.0, 0.0, 0.0, 0.0, 1.747692017935603E9, 0.0, 2025-05-20 00:00:17.935
134.0, 21092.08954478378, 18140.318172015926, 48153.32420507958, 34359.6603703094, 44815.739371268675, 2880.938694588983, 8471.422907283653, 8273.252340942901, 0.0, 0.0, 5505.122900619853, -28210.829581121157, 19643.65180059097, 6058.082706699694, -4963.36131851212, -30308.585501740636, 0.054171874999999994, -0.003546875, 1.0291562500000002, 192.0, 0.5, 88.0, 127.5, 112.0, 16.0, 24.0, 0.0, 0.0, 0.0, 1.747692017944569E9, 0.0, 2025-05-20 00:00:17.944
136.0, 21102.46075421104, 18150.979954121107, 48171.250304132736, 34381.52037638669, 44827.85401676346, 2924.0105061543595, 8467.801924681893, 8266.435058884032, 0.0, 0.0, 5540.706877792702, -28174.77621731475, 19680.107495797576, 6098.986399052907, -4919.64130635754, -30265.916021575456, 0.054171874999999994, -0.003546875, 1.0291562500000002, 192.0, 0.0, 0.0, 0.0, 0.0, 0.0, 0.0, 0.0, 0.0, 0.0, 1.747692017950594E9, 0.0, 2025-05-20 00:00:17.950
138.0, 21067.9720125165, 18107.461107666626, 48131.77712342467, 34323.29408208062, 44795.756911725635, 2871.3050927287454, 8403.89828728417, 8216.993000148894, 0.0, 0.0, 5525.3288776074505, -28199.407839704498, 19666.80820784667, 6071.650215584066, -4948.206835771422, -30296.783780668236, 0.054171874999999994, -0.003546875, 1.0291562500000002, 192.0, 0.0, 0.0, 0.0, 0.0, 0.0, 0.0, 0.0, 0.0, 0.0, 1.747692017959616E9, 0.0, 2025-05-20 00:00:17.959
140.0, 21065.06628573731, 18107.863439066823, 48127.10560883351, 34329.53021878364, 44795.28752509207, 2900.407064009555, 8456.469590243052, 8232.192186378501, 0.0, 0.0, 5491.2871708020175, -28234.25420931032, 19621.657684046946, 6036.468569811413, -4974.581894228684, -30334.401766586518, 0.054171874999999994, -0.003546875, 1.0291562500000002, 192.0, 0.0, 0.0, 0.0, 0.0, 0.0, 0.0, 0.0, 0.0, 0.0, 1.747692017968649E9, 0.0, 2025-05-20 00:00:17.968
142.0, 21063.903995025637, 18110.34448270136, 48128.62552745647, 34332.05596590709, 44793.96877216921, 2860.5762553901977, 8420.57268864783, 8214.981343147916, 0.0, 0.0, 5498.126804605342, -28221.87134288208, 19642.444806390384, 6059.915549745029, -4955.471152719397, -30308.13846685153, 0.054171874999999994, -0.003546875, 1.0291562500000002, 192.0, 0.0, 0.0, 0.0, 0.0, 0.0, 0.0, 0.0, 0.0, 0.0, 1.747692017975726E9, 0.0, 2025-05-20 00:00:17.975
144.0, 21071.45888465153, 18117.564096160426, 48128.64787920092, 34322.623529746954, 44794.5722692695, 2849.1992174624465, 8434.833101610315, 8218.647029238586, 0.0, 0.0, 5497.679769716236, -28227.906313885014, 19633.74997779727, 6031.707648242432, -4983.410833288531, -30336.592237543136, 0.0590859375, -0.0017734375, 1.0305781250000001, 192.0, 1.0, 0.0, 0.0, 0.0, 16.0, 32.0, 0.0, 0.0, 0.0, 1.747692017983702E9, 0.0, 2025-05-20 00:00:17.983
146.0, 21069.961317773024, 18114.30074146995, 48133.654669958916, 34332.32418684056, 44799.377894327394, 2858.2740257113014, 8464.806790924882, 8223.072674640736, 0.0, 0.0, 5507.492185532115, -28219.479706225364, 19644.434111646904, 6053.5005990863565, -4953.50419920733, -30315.201618099407, 0.0590859375, -0.0017734375, 1.0305781250000001, 192.0, 0.0, 0.0, 0.0, 0.0, 0.0, 0.0, 0.0, 0.0, 0.0, 1.747692017991723E9, 0.0, 2025-05-20 00:00:17.991
148.0, 21063.345201414253, 18107.43875592217, 48127.57499546707, 34320.76833495717, 44795.08635939197, 2885.0961190576695, 8414.649476367173, 8228.034761909814, 0.0, 0.0, 5490.549563234993, -28234.63418896606, 19633.638219074994, 6038.05554366774, -4975.721833195906, -30330.33374909565, 0.0590859375, -0.0017734375, 1.0305781250000001, 192.0, 0.0, 0.0, 0.0, 0.0, 0.0, 0.0, 0.0, 0.0, 0.0, 1.747692017998761E9, 0.0, 2025-05-20 00:00:17.998
150.0, 21081.65128012315, 18126.840070109378, 48146.90925442091, 34346.29402712513, 44815.38174335739, 2867.3935374490666, 8488.276122602954, 8247.01139295237, 0.0, 0.0, 5506.396950053805, -28215.098764312123, 19639.27085867773, 6054.059392697739, -4951.939577095459, -30314.978100654855, 0.0590859375, -0.0017734375, 1.0305781250000001, 192.0, 0.0, 0.0, 0.0, 0.0, 0.0, 0.0, 0.0, 0.0, 0.0, 1.747692018006817E9, 0.0, 2025-05-20 00:00:18.006
152.0, 21071.034201506878, 18116.58061940439, 48132.9617658808, 34332.86062870749, 44802.1271588954, 2863.99607229186, 8450.792247151405, 8235.410837580066, 0.0, 0.0, 5512.700141990202, -28212.14833404402, 19656.50405365277, 6067.313977159736, -4943.915300836004, -30301.18707432593, 0.0590859375, -0.0017734375, 1.0305781250000001, 192.0, 0.0, 0.0, 0.0, 0.0, 0.0, 0.0, 0.0, 0.0, 0.0, 1.747692018015783E9, 0.0, 2025-05-20 00:00:18.015
154.0, 21077.493855654462, 18118.234648494083, 48139.28730956165, 34327.56326527158, 44814.33121136799, 2865.7395083593738, 8447.283023271923, 8237.601308536687, 0.0, 0.0, 5504.340589563917, -28227.883962140557, 19640.12022496703, 6040.268366368815, -4971.251484304844, -30330.132583395553, 0.05854296875, -0.00288671875, 1.0322890625, 192.0, 0.5, 104.0, 127.5, 112.0, 16.0, 40.0, 0.0, 0.0, 0.0, 1.747692018023848E9, 0.0, 2025-05-20 00:00:18.023
156.0, 21077.762076587926, 18120.514526428524, 48145.54579800914, 34349.46797483778, 44813.05716193404, 2859.570426889709, 8464.873846158249, 8233.779160234828, 0.0, 0.0, 5514.890612946822, -28212.081278810656, 19651.586669872602, 6066.732831803898, -4940.562539167708, -30302.505827248795, 0.05854296875, -0.00288671875, 1.0322890625, 192.0, 0.0, 0.0, 0.0, 0.0, 0.0, 0.0, 0.0, 0.0, 0.0, 1.74769201803091E9, 0.0, 2025-05-20 00:00:18.030
158.0, 21062.62994559168, 18103.460145409124, 48127.79851291162, 34322.13179136894, 44790.10192037844, 2868.6228833941086, 8428.775778862928, 8227.163043876059, 0.0, 0.0, 5502.507746518582, -28221.267845781786, 19647.988039015298, 6054.305261886748, -4963.607187701129, -30313.838161687632, 0.05854296875, -0.00288671875, 1.0322890625, 192.0, 0.0, 0.0, 0.0, 0.0, 0.0, 0.0, 0.0, 0.0, 0.0, 1.747692018038919E9, 0.0, 2025-05-20 00:00:18.038
160.0, 21081.494817911964, 18124.91782008622, 48144.62937648647, 34342.53893405663, 44809.21266188773, 2869.0699182832145, 8473.076936373345, 8243.971555706448, 0.0, 0.0, 5503.245354085607, -28225.514677228293, 19635.471062120327, 6048.67262228401, -4961.439068488964, -30322.555342025204, 0.05854296875, -0.00288671875, 1.0322890625, 192.0, 0.0, 0.0, 0.0, 0.0, 0.0, 0.0, 0.0, 0.0, 0.0, 1.747692018047949E9, 0.0, 2025-05-20 00:00:18.047
162.0, 21073.425838163595, 18116.714729871124, 48140.270786317684, 34341.868381722976, 44798.64028676037, 2874.2555229968457, 8439.974002835037, 8229.666439255052, 0.0, 0.0, 5515.672924002758, -28208.326185742164, 19659.923870554434, 6074.935922018996, -4938.886158333559, -30294.638013200525, 0.05854296875, -0.00288671875, 1.0322890625, 192.0, 0.0, 0.0, 0.0, 0.0, 0.0, 0.0, 0.0, 0.0, 0.0, 1.747692018054957E9, 0.0, 2025-05-20 00:00:18.054
164.0, 21072.799989318846, 18113.04904378045, 48130.74894317972, 34325.864532692976, 44794.5722692695, 2834.4247143774887, 8440.152816790678, 8237.19897713649, 0.0, 0.0, 5496.048092370998, -28226.431098750963, 19633.973495241822, 6038.904909957041, -4974.760708184327, -30330.9595979404, 0.059271484375, -0.004443359375, 1.03514453125, 192.0, 0.5, 112.0, 127.5, 104.0, 16.0, 56.0, 0.0, 0.0, 0.0, 1.747692018062987E9, 0.0, 2025-05-20 00:00:18.062
166.0, 21061.78057930238, 18103.236627964572, 48137.94620489433, 34343.8576869795, 44805.36816184141, 2864.5548659032424, 8455.731982676029, 8237.891881214606, 0.0, 0.0, 5508.721531477157, -28215.2105230344, 19645.730512825314, 6061.860151512641, -4948.385649727064, -30305.322147050163, 0.059271484375, -0.004443359375, 1.03514453125, 192.0, 0.0, 0.0, 0.0, 0.0, 0.0, 0.0, 0.0, 0.0, 0.0, 1.747692018071986E9, 0.0, 2025-05-20 00:00:18.071
168.0, 21058.807797289825, 18101.135563985776, 48133.72172519228, 34322.66823323587, 44795.265173347616, 2877.697691642963, 8410.067368753835, 8226.96187817596, 0.0, 0.0, 5500.049054628498, -28231.750813931325, 19641.438977889895, 6047.666793783521, -4967.3399290251655, -30321.258940846797, 0.059271484375, -0.004443359375, 1.03514453125, 192.0, 0.0, 0.0, 0.0, 0.0, 0.0, 0.0, 0.0, 0.0, 0.0, 1.747692018081094E9, 0.0, 2025-05-20 00:00:18.081
170.0, 21078.87966381069, 18121.833279351387, 48144.91994916439, 34344.729405013255, 44804.563499041025, 2859.123392000603, 8470.662947972172, 8254.432172111532, 0.0, 0.0, 5511.739016978624, -28220.39612774803, 19643.472986635326, 6054.126447931105, -4951.894873606548, -30318.24145534533, 0.059271484375, -0.004443359375, 1.03514453125, 192.0, 0.0, 0.0, 0.0, 0.0, 0.0, 0.0, 0.0, 0.0, 0.0, 1.747692018088035E9, 0.0, 2025-05-20 00:00:18.088
172.0, 21072.487064896475, 18117.8770205828, 48148.63033874397, 34347.54572481462, 44810.44200783277, 2895.1767558070133, 8425.311258472355, 8237.310735858768, 0.0, 0.0, 5514.309467590984, -28213.690604411437, 19660.16973974344, 6070.443221383479, -4946.195178770445, -30299.175417324954, 0.059271484375, -0.004443359375, 1.03514453125, 192.0, 0.0, 0.0, 0.0, 0.0, 0.0, 0.0, 0.0, 0.0, 0.0, 1.74769201809509E9, 0.0, 2025-05-20 00:00:18.095
174.0, 21073.090561996767, 18114.278389725496, 48141.589539240544, 34334.604064775, 44806.798673486555, 2844.3712406601003, 8436.19655802209, 8230.985192177915, 0.0, 0.0, 5511.76136872308, -28217.400993991017, 19648.50212913777, 6055.869883998619, -4957.259292275821, -30315.782763455245, 0.0546357421875, -0.0062216796875, 1.0335722656250002, 192.0, 0.5, 72.0, 127.5, 96.0, 16.0, 32.0, 0.0, 0.0, 0.0, 1.747692018103105E9, 0.0, 2025-05-20 00:00:18.103
176.0, 21066.206224704532, 18109.115136756318, 48138.48264676126, 34341.24253287823, 44809.05619967654, 2871.1039270286474, 8449.138218061713, 8231.05224741128, 0.0, 0.0, 5507.715702976669, -28221.87134288208, 19644.188242457898, 6064.967043991929, -4942.8647688466035, -30305.165684838976, 0.0546357421875, -0.0062216796875, 1.0335722656250002, 192.0, 0.0, 0.0, 0.0, 0.0, 0.0, 0.0, 0.0, 0.0, 0.0, 1.747692018111153E9, 0.0, 2025-05-20 00:00:18.111
178.0, 21073.492893396964, 18114.323093214403, 48146.39516429844, 34338.67208226587, 44802.21656587322, 2885.923133602516, 8421.243240981488, 8229.53232878832, 0.0, 0.0, 5502.70891221868, -28225.78289816176, 19646.870451792533, 6059.513218344834, -4955.068821319202, -30311.826504686655, 0.0546357421875, -0.0062216796875, 1.0335722656250002, 192.0, 0.0, 0.0, 0.0, 0.0, 0.0, 0.0, 0.0, 0.0, 0.0, 1.747692018119189E9, 0.0, 2025-05-20 00:00:18.119
180.0, 21084.288785968874, 18123.10732878534, 48153.838295202055, 34349.60208530451, 44811.693705522266, 2859.413964678522, 8464.695032202606, 8251.906424988083, 0.0, 0.0, 5519.629182771348, -28211.030746821256, 19653.531271640215, 6066.017575981328, -4941.50131243483, -30306.797362184214, 0.0546357421875, -0.0062216796875, 1.0335722656250002, 192.0, 0.0, 0.0, 0.0, 0.0, 0.0, 0.0, 0.0, 0.0, 0.0, 1.747692018127221E9, 0.0, 2025-05-20 00:00:18.127
182.0, 21073.090561996767, 18113.987817047575, 48136.9627281383, 34338.13564039894, 44802.23891761767, 2874.9484270749604, 8446.076029071335, 8224.547889774787, 0.0, 0.0, 5511.515499534071, -28212.930645099957, 19659.27566996523, 6074.287721429792, -4933.097056519635, -30295.822655656655, 0.0546357421875, -0.0062216796875, 1.0335722656250002, 192.0, 0.0, 0.0, 0.0, 0.0, 0.0, 0.0, 0.0, 0.0, 0.0, 1.747692018136192E9, 0.0, 2025-05-20 00:00:18.136
184.0, 21081.852445823246, 18119.665160139222, 48138.68381246136, 34331.89950369591, 44798.01443791562, 2878.010616065337, 8461.409325767676, 8253.024012210848, 0.0, 0.0, 5496.405720282283, -28225.15704931701, 19638.55560285516, 6046.906834472041, -4964.188333056967, -30324.052908903708, 0.05531787109375, -0.00511083984375, 1.0297861328125002, 192.0, 0.5, 96.0, 127.5, 112.0, 16.0, 8.0, 0.0, 0.0, 0.0, 1.747692018143205E9, 0.0, 2025-05-20 00:00:18.143
186.0, 21082.277128967897, 18122.48147994059, 48139.68964096185, 34342.94126545683, 44813.81712124552, 2870.701595628452, 8453.832084397327, 8237.020163180849, 0.0, 0.0, 5508.900345432799, -28216.529275957262, 19649.93264078291, 6065.123506203116, -4941.9259955794805, -30305.031574372242, 0.05531787109375, -0.00511083984375, 1.0297861328125002, 192.0, 0.0, 0.0, 0.0, 0.0, 0.0, 0.0, 0.0, 0.0, 0.0, 1.747692018151246E9, 0.0, 2025-05-20 00:00:18.151
188.0, 21072.777637574392, 18113.49607866956, 48130.61483271299, 34321.863570435475, 44795.44398730326, 2851.8814267970833, 8409.396816420176, 8213.439072780498, 0.0, 0.0, 5504.497051775104, -28222.653653938014, 19650.916117538945, 6049.790209506776, -4963.920112123503, -30321.325996080162, 0.05531787109375, -0.00511083984375, 1.0297861328125002, 192.0, 0.0, 0.0, 0.0, 0.0, 0.0, 0.0, 0.0, 0.0, 0.0, 1.74769201816131E9, 0.0, 2025-05-20 00:00:18.161
190.0, 21085.227559236, 18127.756491632044, 48140.136675850954, 34337.42038457637, 44807.357467097936, 2862.2749879688013, 8452.379221007732, 8227.923003187538, 0.0, 0.0, 5506.575764009448, -28221.53606671525, 19640.41079764495, 6044.29168037077, -4962.511952222819, -30328.81383047269, 0.05531787109375, -0.00511083984375, 1.0297861328125002, 192.0, 0.0, 0.0, 0.0, 0.0, 0.0, 0.0, 0.0, 0.0, 0.0, 1.747692018168333E9, 0.0, 2025-05-20 00:00:18.168
192.0, 21072.285899196377, 18116.312398470927, 48126.926794877865, 34326.490381537726, 44804.49644380766, 2899.9153256315385, 8409.597982120275, 8204.319561042734, 0.0, 0.0, 5506.531060520538, -28216.752793401814, 19654.492396651793, 6059.244997411371, -4950.129085794579, -30313.949920409912, 0.05531787109375, -0.00511083984375, 1.0297861328125002, 192.0, 0.0, 0.0, 0.0, 0.0, 0.0, 0.0, 0.0, 0.0, 0.0, 1.747692018175345E9, 0.0, 2025-05-20 00:00:18.175
194.0, 21071.391829418164, 18113.451375180648, 48124.31164077659, 34317.48262852224, 44796.29335359256, 2853.378993675589, 8436.263613255454, 8209.974552389927, 0.0, 0.0, 5492.784737680524, -28230.67793019747, 19634.666399319936, 6029.986563919373, -4977.688786707972, -30342.67191203498, 0.05531787109375, -0.00511083984375, 1.0297861328125002, 192.0, 0.0, 0.0, 0.0, 0.0, 0.0, 0.0, 0.0, 0.0, 0.0, 1.747692018185385E9, 0.0, 2025-05-20 00:00:18.185
196.0, 21071.592995118262, 18112.91493331372, 48127.44088500034, 34334.64876826391, 44804.764664741124, 2854.831857065184, 8442.38799123621, 8214.333142558711, 0.0, 0.0, 5501.054883128987, -28222.743060915836, 19641.93071626791, 6047.040944938773, -4955.918187608503, -30325.282254848753, 0.056, -0.012, 1.032, 192.0, 0.5, 96.0, 127.5, 80.0, 16.0, 32.0, 0.0, 0.0, 0.0, 1.74769201819141E9, 0.0, 2025-05-20 00:00:18.191
198.0, 21075.79512307586, 18114.323093214403, 48133.87818740347, 34329.17259087236, 44802.26126936213, 2890.795813893773, 8418.136348502201, 8217.037703637803, 0.0, 0.0, 5504.474700030649, -28218.451525980418, 19653.732437340313, 6041.967098947418, -4965.082402835179, -30327.517429294283, 0.056, -0.012, 1.032, 192.0, 0.0, 0.0, 0.0, 0.0, 0.0, 0.0, 0.0, 0.0, 0.0, 1.747692018198438E9, 0.0, 2025-05-20 00:00:18.198
200.0, 21085.361669702732, 18122.704997385146, 48139.46612351729, 34341.80132648961, 44815.85112999095, 2847.634595350575, 8450.904005873681, 8232.683924756519, 0.0, 0.0, 5514.1753571242525, -28208.214427019888, 19652.927774539923, 6045.476322826901, -4956.02994633078, -30324.09761239262, 0.056, -0.012, 1.032, 192.0, 0.0, 0.0, 0.0, 0.0, 0.0, 0.0, 0.0, 0.0, 0.0, 1.747692018207455E9, 0.0, 2025-05-20 00:00:18.207
202.0, 21074.96810853101, 18110.478593168093, 48133.02882111417, 34335.18521013084, 44801.00957167263, 2855.0330227652817, 8437.224738267034, 8221.284535084313, 0.0, 0.0, 5509.794415211012, -28212.640072422037, 19661.42143743294, 6058.708555544443, -4947.826856115682, -30312.407650042493, 0.056, -0.012, 1.032, 192.0, 0.0, 0.0, 0.0, 0.0, 0.0, 0.0, 0.0, 0.0, 0.0, 1.747692018215508E9, 0.0, 2025-05-20 00:00:18.215
204.0, 21074.99046027547, 18108.131660000287, 48132.89471064743, 34329.7537362282, 44796.181594870286, 2840.3255749136897, 8434.654287654674, 8236.327259102734, 0.0, 0.0, 5501.524269762549, -28220.53023821476, 19645.305829680663, 6038.770799490309, -4970.3350627821765, -30333.507696808305, 0.056, -0.012, 1.032, 192.0, 0.0, 0.0, 0.0, 0.0, 0.0, 0.0, 0.0, 0.0, 0.0, 1.747692018222605E9, 0.0, 2025-05-20 00:00:18.222
206.0, 21073.068210252313, 18108.668101867213, 48131.15127457992, 34339.72261425527, 44808.139778153876, 2882.6821306564966, 8447.663002927662, 8213.416721036045, 0.0, 0.0, 5507.000447154099, -28213.489438711338, 19649.954992527368, 6058.708555544443, -4946.172827025989, -30311.491228519826, 0.058, -0.008, 1.034, 192.0, 0.5, 104.0, 127.5, 96.0, 16.0, 40.0, 0.0, 0.0, 0.0, 1.747692018231614E9, 0.0, 2025-05-20 00:00:18.231
208.0, 21057.824320533793, 18092.686604581668, 48111.21351852579, 34312.721706953256, 44783.172879597296, 2871.6627206400303, 8405.217040207033, 8200.743281929885, 0.0, 0.0, 5488.359092278372, -28230.700281941925, 19640.299038922672, 6038.748447745854, -4974.023100617302, -30331.13841189604, 0.058, -0.008, 1.034, 192.0, 0.0, 0.0, 0.0, 0.0, 0.0, 0.0, 0.0, 0.0, 0.0, 1.747692018239579E9, 0.0, 2025-05-20 00:00:18.239
210.0, 21067.077942738288, 18102.655482608734, 48126.61387045549, 34330.468992050766, 44798.84145246047, 2882.3021510007566, 8462.571616479352, 8223.29619208529, 0.0, 0.0, 5486.190973066208, -28229.560342974706, 19629.79371902868, 6038.122598901105, -4968.681033692484, -30334.58058054216, 0.058, -0.008, 1.034, 192.0, 0.0, 0.0, 0.0, 0.0, 0.0, 0.0, 0.0, 0.0, 0.0, 1.747692018249566E9, 0.0, 2025-05-20 00:00:18.249
212.0, 21052.012866975412, 18089.713822569112, 48118.36607675148, 34323.98698615873, 44795.958077425734, 2836.257557422824, 8425.2889067279, 8211.583877990708, 0.0, 0.0, 5491.555391735482, -28225.805249906214, 19644.74703606928, 6054.238206653382, -4952.9007021070365, -30320.119001879575, 0.058, -0.008, 1.034, 192.0, 0.0, 0.0, 0.0, 0.0, 0.0, 0.0, 0.0, 0.0, 0.0, 1.747692018255576E9, 0.0, 2025-05-20 00:00:18.255
214.0, 21054.918593754603, 18095.81584880541, 48115.728570905754, 34314.666308720865, 44794.39345531386, 2838.5597871017203, 8421.913793315149, 8215.741302459395, 0.0, 0.0, 5480.312464274462, -28233.87422965458, 19626.55271608266, 6027.080837140184, -4983.164964099523, -30346.359949870104, 0.058, -0.008, 1.034, 192.0, 0.0, 0.0, 0.0, 0.0, 0.0, 0.0, 0.0, 0.0, 0.0, 1.747692018262616E9, 0.0, 2025-05-20 00:00:18.262
216.0, 21023.760261983905, 18063.13759841175, 48122.56820470908, 34325.59631175951, 44809.63734503238, 2843.186598203969, 8450.76989540695, 8212.790872191295, 0.0, 0.0, 5488.560257978471, -28231.192020319944, 19630.46427136234, 6045.364564104625, -4959.226245787889, -30329.260865361797, 0.058, -0.006, 1.032, 192.0, 0.5, 104.0, 127.5, 104.0, 16.0, 32.0, 0.0, 0.0, 0.0, 1.747692018272636E9, 0.0, 2025-05-20 00:00:18.272
218.0, 20989.49503773392, 18021.89862989171, 48110.94529759232, 34304.71978243825, 44785.67627497629, 2837.1292754565807, 8412.056674010359, 8204.096043598181, 0.0, 0.0, 5474.880990371823, -28246.30179957173, 19624.541059081683, 6038.234357623382, -4976.638254718573, -30337.687473021448, 0.058, -0.006, 1.032, 192.0, 0.0, 0.0, 0.0, 0.0, 0.0, 0.0, 0.0, 0.0, 0.0, 1.747692018279689E9, 0.0, 2025-05-20 00:00:18.279
220.0, 20963.857586843682, 17991.455553943582, 48115.728570905754, 34313.347555798005, 44796.650981503844, 2855.4577059099324, 8446.791284893905, 8217.685904227008, 0.0, 0.0, 5474.65747292727, -28249.229878095375, 19610.437108330385, 6035.261575610826, -4973.285493050277, -30341.464917834393, 0.058, -0.006, 1.032, 192.0, 0.0, 0.0, 0.0, 0.0, 0.0, 0.0, 0.0, 0.0, 0.0, 1.747692018288722E9, 0.0, 2025-05-20 00:00:18.288
222.0, 20925.74786254738, 17947.735541789003, 48105.62558241196, 34304.317451038056, 44795.77926347009, 2822.086551438159, 8417.778720590917, 8198.99984586237, 0.0, 0.0, 5468.354280990873, -28256.650657254537, 19613.74516650977, 6047.19740714996, -4964.434202245975, -30330.400804329016, 0.058, -0.006, 1.032, 192.0, 0.0, 0.0, 0.0, 0.0, 0.0, 0.0, 0.0, 0.0, 0.0, 1.74769201829677E9, 0.0, 2025-05-20 00:00:18.296
224.0, 20906.145382660077, 17921.516945542928, 48110.38650398094, 34300.964689369765, 44790.03486514508, 2853.982490775882, 8425.601831150274, 8212.500299513376, 0.0, 0.0, 5459.368879719839, -28266.060741670222, 19599.082422147087, 6023.102226627139, -4990.406929303042, -30355.747682541336, 0.058, -0.006, 1.032, 192.0, 0.0, 0.0, 0.0, 0.0, 0.0, 0.0, 0.0, 0.0, 0.0, 1.747692018303806E9, 0.0, 2025-05-20 00:00:18.303
226.0, 20890.253292352354, 17907.033015135887, 48116.175605794866, 34314.42043953186, 44808.8773857209, 2825.193443917447, 8440.53279644642, 8208.007598877859, 0.0, 0.0, 5471.1482490477865, -28261.813910223715, 19606.860829217534, 6044.448142581957, -4962.847228389648, -30334.513525308794, 0.058, 0.0, 1.024, 192.0, 0.5, 104.0, 0.0, 0.0, 16.0, 0.0, 0.0, 0.0, 0.0, 1.747692018310803E9, 0.0, 2025-05-20 00:00:18.310
228.0, 20858.73733267037, 17869.39267747315, 48098.56243116408, 34288.06773281905, 44794.48286229168, 2820.678391537475, 8396.253990680456, 8192.294322525779, 0.0, 0.0, 5460.709984387157, -28278.10833193163, 19601.16113438143, 6034.456912810435, -4978.895780908559, -30342.470746334882, 0.058, 0.0, 1.024, 192.0, 0.0, 0.0, 0.0, 0.0, 0.0, 0.0, 0.0, 0.0, 0.0, 1.747692018318832E9, 0.0, 2025-05-20 00:00:18.318
230.0, 20867.432161263485, 17872.14194204115, 48110.073579558564, 34301.657593447875, 44810.643173532866, 2774.0750043481594, 8441.315107502354, 8207.24763956638, 0.0, 0.0, 5454.876179084323, -28280.947003477457, 19582.184503338874, 6024.24216559436, -4980.885086165081, -30353.221935417885, 0.058, 0.0, 1.024, 192.0, 0.0, 0.0, 0.0, 0.0, 0.0, 0.0, 0.0, 0.0, 0.0, 1.747692018327834E9, 0.0, 2025-05-20 00:00:18.327
232.0, 20866.001649618345, 17862.709505881012, 48102.78691086613, 34294.326221266536, 44801.88128970638, 2795.1079958806035, 8409.061540253346, 8189.701520168963, 0.0, 0.0, 5460.777039620524, -28281.59520406666, 19595.796715712157, 6038.636689023578, -4969.463344748419, -30340.369682356082, 0.058, 0.0, 1.024, 192.0, 0.0, 0.0, 0.0, 0.0, 0.0, 0.0, 0.0, 0.0, 0.0, 1.7476920183349E9, 0.0, 2025-05-20 00:00:18.334
234.0, 20882.094905626167, 17879.182741544573, 48107.86075685749, 34287.37482874094, 44811.80546424454, 2792.7834144572516, 8414.291848455889, 8198.150479573069, 0.0, 0.0, 5457.468981441139, -28286.579643080193, 19585.20198884034, 6014.787377689765, -4992.910324682036, -30363.481386122872, 0.058, 0.0, 1.024, 192.0, 0.0, 0.0, 0.0, 0.0, 0.0, 0.0, 0.0, 0.0, 0.0, 1.74769201834293E9, 0.0, 2025-05-20 00:00:18.342
236.0, 20894.09779239867, 17892.906712640135, 48107.99486732422, 34299.69063993581, 44826.24469116267, 2796.4491005479217, 8438.319973745343, 8205.90653489906, 0.0, 0.0, 5466.2755687565295, -28277.08015168669, 19594.097983133553, 6033.764008732321, -4966.267045291311, -30344.43769984695, 0.058, 0.0, 1.026, 192.0, 0.5, 104.0, 0.0, 0.0, 16.0, 8.0, 0.0, 0.0, 0.0, 1.7476920183509E9, 0.0, 2025-05-20 00:00:18.350
238.0, 20916.538943831798, 17911.771584960414, 48101.17758526535, 34282.94918333879, 44819.025077703605, 2815.671600779486, 8395.874011024716, 8188.539229457288, 0.0, 0.0, 5458.497161686082, -28289.150093692555, 19596.35550932354, 6021.179976603982, -4985.198972844955, -30356.731159297367, 0.058, 0.0, 1.026, 192.0, 0.0, 0.0, 0.0, 0.0, 0.0, 0.0, 0.0, 0.0, 0.0, 1.747692018359988E9, 0.0, 2025-05-20 00:00:18.359
240.0, 20943.562202878264, 17945.634477810203, 48109.04539931362, 34297.45546549028, 44821.0814381935, 2785.921428909472, 8436.665944655651, 8202.10673834166, 0.0, 0.0, 5466.968472834644, -28280.231747654885, 19592.01927089921, 6014.295639311747, -4987.635312990584, -30361.53678435526, 0.058, 0.0, 1.026, 192.0, 0.0, 0.0, 0.0, 0.0, 0.0, 0.0, 0.0, 0.0, 0.0, 1.747692018367007E9, 0.0, 2025-05-20 00:00:18.367
242.0, 20954.492205916908, 17951.535338346403, 48106.87728010146, 34298.21542480176, 44819.20389165925, 2798.0137226597935, 8399.60675234875, 8186.5499242007645, 0.0, 0.0, 5477.98788285111, -28267.670067271003, 19613.141669409477, 6030.85828195313, -4974.179562828489, -30342.828374246168, 0.058, 0.0, 1.026, 192.0, 0.0, 0.0, 0.0, 0.0, 0.0, 0.0, 0.0, 0.0, 0.0, 1.747692018375058E9, 0.0, 2025-05-20 00:00:18.375
244.0, 20974.72053464896, 17972.233053712018, 48108.66541965788, 34290.03468633112, 44810.710228766235, 2821.013667704304, 8400.299656426867, 8193.836592893194, 0.0, 0.0, 5467.370804234839, -28278.756532520838, 19595.148515122954, 6002.7844909172645, -5002.588630031184, -30371.8185868047, 0.058, 0.0, 1.026, 192.0, 0.0, 0.0, 0.0, 0.0, 0.0, 0.0, 0.0, 0.0, 0.0, 1.74769201838308E9, 0.0, 2025-05-20 00:00:18.383
246.0, 20994.032441858344, 17995.814144112366, 48126.32329777757, 34316.342689555015, 44830.75974354264, 2798.9748476713717, 8433.581403920818, 8199.066901095737, 0.0, 0.0, 5491.957723135677, -28259.60108752264, 19615.9803409553, 6035.798017477753, -4965.88706563557, -30339.90029572252, 0.058, -0.006, 1.03, 192.0, 0.5, 104.0, 127.5, 104.0, 16.0, 24.0, 0.0, 0.0, 0.0, 1.747692018391143E9, 0.0, 2025-05-20 00:00:18.391
248.0, 21001.497924506417, 18002.631426171236, 48126.435056499846, 34306.753791183684, 44818.7792085146, 2823.338249127656, 8400.590229104786, 8202.2855522973, 0.0, 0.0, 5491.957723135677, -28255.398959565042, 19627.73735853879, 6035.462741310924, -4971.475001749397, -30339.497964322327, 0.058, -0.006, 1.03, 192.0, 0.0, 0.0, 0.0, 0.0, 0.0, 0.0, 0.0, 0.0, 0.0, 1.747692018399154E9, 0.0, 2025-05-20 00:00:18.399
250.0, 21016.920628180582, 18020.13284207974, 48129.13961757894, 34314.06281162057, 44823.47307485021, 2818.286754880757, 8442.723267403038, 8210.62275297913, 0.0, 0.0, 5497.3891970383165, -28251.0180176518, 19625.055149204156, 6032.177034875994, -4966.803487158238, -30342.560153312705, 0.058, -0.006, 1.03, 192.0, 0.0, 0.0, 0.0, 0.0, 0.0, 0.0, 0.0, 0.0, 0.0, 1.747692018409196E9, 0.0, 2025-05-20 00:00:18.409
252.0, 21010.505677521905, 18012.8014698984, 48121.271803530675, 34313.973404642755, 44822.511949838634, 2820.8572054931174, 8419.633915380708, 8202.754938930862, 0.0, 0.0, 5498.819708683456, -28247.48644202786, 19638.17562319942, 6048.024421694806, -4955.091173063657, -30325.349310082118, 0.058, -0.006, 1.03, 192.0, 0.0, 0.0, 0.0, 0.0, 0.0, 0.0, 0.0, 0.0, 0.0, 1.747692018416218E9, 0.0, 2025-05-20 00:00:18.416
254.0, 21016.58535201375, 18019.641103701724, 48118.410780240396, 34301.45642774778, 44817.348696869456, 2792.4704900348775, 8425.221851494534, 8211.114491357148, 0.0, 0.0, 5482.994673609099, -28262.819738724203, 19614.9298089659, 6018.274249824793, -4987.411795546031, -30353.423101117984, 0.058, -0.006, 1.03, 192.0, 0.0, 0.0, 0.0, 0.0, 0.0, 0.0, 0.0, 0.0, 0.0, 1.747692018423221E9, 0.0, 2025-05-20 00:00:18.423
0.0, 21031.225744631978, 18034.37090329777, 48124.199882054316, 34313.36990754246, 44826.24469116267, 2816.543318813243, 8433.603755665274, 8207.314694799745, 0.0, 0.0, 5500.160813350775, -28248.604029250626, 19630.240753917784, 6041.967098947418, -4954.7782486412825, -30333.19477238593, 0.06, -0.002, 1.036, 192.0, 0.5, 112.0, 127.5, 120.0, 16.0, 48.0, 0.0, 0.0, 0.0, 1.747692018431212E9, 0.0, 2025-05-20 00:00:18.431
2.0, 21034.48909932245, 18032.85098467481, 48108.93364059134, 34294.37092475545, 44811.53724331108, 2832.9047957545276, 8397.908019770148, 8189.09802306867, 0.0, 0.0, 5489.834307412423, -28258.327038088686, 19630.486623106794, 6023.437502793969, -4979.812202431226, -30349.064510949196, 0.06, -0.002, 1.036, 192.0, 0.0, 0.0, 0.0, 0.0, 0.0, 0.0, 0.0, 0.0, 0.0, 1.747692018439301E9, 0.0, 2025-05-20 00:00:18.439
4.0, 21043.92153548259, 18049.74890348302, 48126.45740824431, 34311.13473309693, 44834.268967422126, 2816.5880223021536, 8434.162549276656, 8205.459500009954, 0.0, 0.0, 5490.6389702128145, -28257.947058432947, 19620.49539333527, 6016.128482357083, -4981.622693732106, -30355.658275563514, 0.06, -0.002, 1.036, 192.0, 0.0, 0.0, 0.0, 0.0, 0.0, 0.0, 0.0, 0.0, 0.0, 1.747692018448408E9, 0.0, 2025-05-20 00:00:18.448
6.0, 21041.619305803695, 18048.161929626694, 48124.266937287684, 34309.30189005159, 44836.10181046746, 2851.635557608075, 8398.153888959157, 8185.275874766812, 0.0, 0.0, 5503.6700372302585, -28248.31345657271, 19642.10953022355, 6040.9389187024735, -4960.612053944118, -30333.44064157494, 0.06, -0.002, 1.036, 192.0, 0.0, 0.0, 0.0, 0.0, 0.0, 0.0, 0.0, 0.0, 0.0, 1.747692018455367E9, 0.0, 2025-05-20 00:00:18.455
8.0, 21054.806835032326, 18057.974345442577, 48132.380620524964, 34315.80624768809, 44833.44195287728, 2816.5880223021536, 8407.698083841573, 8210.823918679229, 0.0, 0.0, 5499.758481950579, -28249.386340306562, 19634.398178386473, 6024.823310950197, -4981.175658843, -30349.936228982955, 0.06, -0.002, 1.036, 192.0, 0.0, 0.0, 0.0, 0.0, 0.0, 0.0, 0.0, 0.0, 0.0, 1.747692018463395E9, 0.0, 2025-05-20 00:00:18.463
10.0, 21058.31605891181, 18066.110380424307, 48135.75573393771, 34331.78774497363, 44838.96283375774, 2820.052542692726, 8430.3404009748, 8211.00273263487, 0.0, 0.0, 5510.867298944867, -28233.404843021017, 19646.915155281444, 6053.455895597446, -4952.185446284467, -30320.789554213236, 0.06, -0.004, 1.032, 192.0, 0.5, 112.0, 127.5, 112.0, 16.0, 32.0, 0.0, 0.0, 0.0, 1.747692018471364E9, 0.0, 2025-05-20 00:00:18.471
12.0, 21051.454073364028, 18053.682810507158, 48128.84904490102, 34312.25232031969, 44821.77434227161, 2824.545243328243, 8383.714662041028, 8189.522706213321, 0.0, 0.0, 5502.03835988502, -28239.663331468506, 19645.954030269866, 6045.610433293633, -4970.245655804355, -30329.126754895064, 0.06, -0.004, 1.032, 192.0, 0.0, 0.0, 0.0, 0.0, 0.0, 0.0, 0.0, 0.0, 0.0, 1.747692018480452E9, 0.0, 2025-05-20 00:00:18.480
14.0, 21071.436532907075, 18075.49811309554, 48142.438905529845, 34333.86645720797, 44838.336984912996, 2812.3635426001006, 8437.850587111781, 8219.406988550067, 0.0, 0.0, 5508.788586710523, -28236.668197711493, 19640.679018578412, 6045.945709460462, -4959.986205099369, -30332.211295629895, 0.06, -0.004, 1.032, 192.0, 0.0, 0.0, 0.0, 0.0, 0.0, 0.0, 0.0, 0.0, 0.0, 1.747692018487432E9, 0.0, 2025-05-20 00:00:18.487
16.0, 21056.68438156657, 18062.802322244923, 48129.318431534586, 34322.44471579132, 44829.61980457542, 2822.4665310938994, 8408.122766986224, 8197.815203406239, 0.0, 0.0, 5508.810938454979, -28232.376662776074, 19654.872376307532, 6063.782401535797, -4946.329289237176, -30311.58063549765, 0.06, -0.004, 1.032, 192.0, 0.0, 0.0, 0.0, 0.0, 0.0, 0.0, 0.0, 0.0, 0.0, 1.747692018495481E9, 0.0, 2025-05-20 00:00:18.495
18.0, 21057.10906471122, 18063.58463330086, 48127.59734721152, 34309.12307609595, 44826.40115337386, 2810.7095135104078, 8415.05180776737, 8207.828784922218, 0.0, 0.0, 5491.46598475766, -28251.308590329718, 19630.821899273622, 6032.400552320547, -4977.308807052232, -30344.013016702298, 0.06, -0.004, 1.032, 192.0, 0.0, 0.0, 0.0, 0.0, 0.0, 0.0, 0.0, 0.0, 0.0, 1.747692018502592E9, 0.0, 2025-05-20 00:00:18.502
20.0, 21067.904957283135, 18076.079258451373, 48135.84514091553, 34324.18815185883, 44842.74027857069, 2863.6831478694858, 8433.648459154185, 8207.560563988753, 0.0, 0.0, 5503.602981996892, -28244.87128792659, 19636.253373176263, 6050.706631029443, -4949.7267543943835, -30327.360967083096, 0.056, -0.006, 1.032, 192.0, 0.5, 96.0, 127.5, 104.0, 16.0, 32.0, 0.0, 0.0, 0.0, 1.74769201851065E9, 0.0, 2025-05-20 00:00:18.510
22.0, 21055.07505596579, 18060.276575121472, 48120.19891979682, 34298.28248003512, 44820.52264458211, 2800.4947662943323, 8395.449327880064, 8189.8356306356945, 0.0, 0.0, 5499.80318543949, -28247.0170553943, 19639.22615518882, 6037.407343078536, -4968.524571481296, -30339.028577688765, 0.056, -0.006, 1.032, 192.0, 0.0, 0.0, 0.0, 0.0, 0.0, 0.0, 0.0, 0.0, 0.0, 1.747692018519621E9, 0.0, 2025-05-20 00:00:18.519
24.0, 21065.26745143741, 18068.52436882548, 48121.71883841978, 34304.317451038056, 44834.44778137777, 2811.4694728218883, 8438.565842934351, 8202.598476719675, 0.0, 0.0, 5492.002426624587, -28256.98593342137, 19621.054186946654, 6021.023514392796, -4979.074594864202, -30355.904144752523, 0.056, -0.006, 1.032, 192.0, 0.0, 0.0, 0.0, 0.0, 0.0, 0.0, 0.0, 0.0, 0.0, 1.747692018527645E9, 0.0, 2025-05-20 00:00:18.527
26.0, 21062.20526244703, 18064.456351334615, 48117.85198662901, 34302.1940353148, 44834.626595333415, 2832.033077720771, 8412.011970521447, 8188.3827672461, 0.0, 0.0, 5497.925638905244, -28253.432006052975, 19636.54394585418, 6035.842720966664, -4964.367147012609, -30341.844897490133, 0.056, -0.006, 1.032, 192.0, 0.0, 0.0, 0.0, 0.0, 0.0, 0.0, 0.0, 0.0, 0.0, 1.747692018534688E9, 0.0, 2025-05-20 00:00:18.534
28.0, 21062.69700082505, 18065.059848434907, 48113.53809994914, 34290.81699738705, 44826.021173718116, 2821.4159991045, 8419.410397936153, 8191.646121936575, 0.0, 0.0, 5487.263856800063, -28264.272602113797, 19622.17177416942, 6009.892345654052, -4993.625580504606, -30367.750569313834, 0.056, -0.006, 1.032, 192.0, 0.0, 0.0, 0.0, 0.0, 0.0, 0.0, 0.0, 0.0, 0.0, 1.747692018542712E9, 0.0, 2025-05-20 00:00:18.542
30.0, 21067.994364260958, 18069.820770003887, 48120.04245758563, 34305.926776638844, 44837.39821164587, 2805.993295430338, 8422.584345648807, 8183.063052065737, 0.0, 0.0, 5493.477641758638, -28255.287200842766, 19627.69265504988, 6025.359752817125, -4973.956045383936, -30350.405615616517, 0.056, -0.004, 1.028, 192.0, 0.5, 96.0, 127.5, 112.0, 16.0, 16.0, 0.0, 0.0, 0.0, 1.74769201855177E9, 0.0, 2025-05-20 00:00:18.551
32.0, 21062.048800235843, 18063.070543178386, 48115.66151567239, 34291.50990146517, 44826.75878128514, 2804.026341918271, 8400.925505271614, 8180.2690840088235, 0.0, 0.0, 5493.1647173362635, -28257.92470668849, 19634.018198730733, 6025.247994094849, -4979.275760564299, -30353.24428716234, 0.056, -0.004, 1.028, 192.0, 0.0, 0.0, 0.0, 0.0, 0.0, 0.0, 0.0, 0.0, 0.0, 1.7476920185588E9, 0.0, 2025-05-20 00:00:18.558
34.0, 21064.59689910375, 18063.115246667297, 48124.28928903214, 34301.47877949224, 44836.81706629003, 2800.7853389722513, 8442.76797089195, 8190.752052158363, 0.0, 0.0, 5489.208458567675, -28267.40184633754, 19616.74030026678, 6018.788339947265, -4979.856905920137, -30362.72142681139, 0.056, -0.004, 1.028, 192.0, 0.0, 0.0, 0.0, 0.0, 0.0, 0.0, 0.0, 0.0, 0.0, 1.747692018566839E9, 0.0, 2025-05-20 00:00:18.566
36.0, 21061.60176534674, 18061.014182688497, 48126.166835566386, 34307.804323173084, 44830.62563307591, 2816.8785949800726, 8407.742787330484, 8177.542171185276, 0.0, 0.0, 5494.125842347842, -28254.01315140881, 19634.465233619838, 6039.553110546245, -4964.188333056967, -30339.52031606678, 0.056, -0.004, 1.028, 192.0, 0.0, 0.0, 0.0, 0.0, 0.0, 0.0, 0.0, 0.0, 0.0, 1.747692018574854E9, 0.0, 2025-05-20 00:00:18.574
38.0, 21072.30825094083, 18073.329993883373, 48132.91706239189, 34310.50888425218, 44830.558577842545, 2840.0126504913155, 8426.540604417396, 8195.758842916352, 0.0, 0.0, 5496.092795859909, -28250.01218915131, 19632.945314996876, 6028.511348785323, -4975.833591918182, -30351.925534239475, 0.056, -0.004, 1.028, 192.0, 0.0, 0.0, 0.0, 0.0, 0.0, 0.0, 0.0, 0.0, 0.0, 1.747692018583892E9, 0.0, 2025-05-20 00:00:18.583
40.0, 21076.577434131796, 18078.806171274922, 48129.67605944587, 34317.661442477875, 44830.715040053736, 2816.118635668592, 8400.701987827062, 8182.168982287524, 0.0, 0.0, 5506.061673886976, -28239.708034957413, 19641.014294745244, 6045.297508871259, -4955.180580041478, -30333.664159019492, 0.052000000000000005, -0.008, 1.036, 192.0, 0.5, 80.0, 127.5, 96.0, 16.0, 48.0, 0.0, 0.0, 0.0, 1.747692018590901E9, 0.0, 2025-05-20 00:00:18.590
42.0, 21080.26547196692, 18080.236682920062, 48128.44671350082, 34305.68090744983, 44826.75878128514, 2810.307182110212, 8422.00320029297, 8188.785098646295, 0.0, 0.0, 5499.222040083652, -28248.49227052835, 19641.30486742316, 6032.6017180206445, -4975.0289291177905, -30344.571810313682, 0.052000000000000005, -0.008, 1.036, 192.0, 0.0, 0.0, 0.0, 0.0, 0.0, 0.0, 0.0, 0.0, 0.0, 1.747692018598945E9, 0.0, 2025-05-20 00:00:18.598
44.0, 21085.205207491545, 18082.538912598957, 48138.4155915279, 34319.82956169004, 44834.42542963332, 2824.5005398393323, 8465.633805469728, 8200.497412740877, 0.0, 0.0, 5502.530098263037, -28247.97818040588, 19633.794681286177, 6033.808712221231, -4963.786001656771, -30346.471708592384, 0.052000000000000005, -0.008, 1.036, 192.0, 0.0, 0.0, 0.0, 0.0, 0.0, 0.0, 0.0, 0.0, 0.0, 1.747692018607932E9, 0.0, 2025-05-20 00:00:18.607
