%OpenBCI Raw EXG Data
%Number of channels = 16
%Sample Rate = 125 Hz
%Board = OpenBCI_GUI$BoardCytonSerialDaisy
Sample Index, EXG Channel 0, EXG Channel 1, EXG Channel 2, EXG Channel 3, EXG Channel 4, EXG Channel 5, EXG Channel 6, EXG Channel 7, EXG Channel 8, EXG Channel 9, EXG Channel 10, EXG Channel 11, EXG Channel 12, EXG Channel 13, EXG Channel 14, EXG Channel 15, Accel Channel 0, Accel Channel 1, Accel Channel 2, Not Used, Digital Channel 0 (D11), Digital Channel 1 (D12), Digital Channel 2 (D13), Digital Channel 3 (D17), Not Used, Digital Channel 4 (D18), Analog Channel 0, Analog Channel 1, Analog Channel 2, Timestamp, Marker Channel, Timestamp (Formatted)
146.0, 22205.25112214698, 18597.657215315965, 48223.50868266925, 32376.568898745645, 44725.974765536164, 9979.852733594505, 9539.255146891493, 3377.7285668526374, 0.0, 0.0, 12470.217045571453, -18837.82670948824, 11268.967243309886, 2810.016609432293, -19486.921368470357, -33421.87057994254, 0.0, 0.0, 0.0, 192.0, 0.0, 0.0, 0.0, 0.0, 0.0, 0.0, 0.0, 0.0, 0.0, 1.747689475808121E9, 0.0, 2025-05-19 23:17:55.808
0.0, 11894.525515380565, 10045.969193693303, 24403.76870677098, 16534.926478257952, 23608.15836288433, 4474.819239952474, 5212.449158722063, 1878.2170865794524, 0.0, 0.0, 6245.278566512891, -9407.916296472109, 5643.569605776025, 1418.1958339447779, -9728.440311961213, -16703.749204128886, 0.062, 0.002, 1.036, 192.0, 0.5, 120.0, 0.0, 8.0, 16.0, 48.0, 0.0, 0.0, 0.0, 1.747689475927651E9, 0.0, 2025-05-19 23:17:55.927
2.0, 23784.84890280353, 20087.289224539905, 48797.52383202599, 33047.03182542704, 47217.00962984677, 8933.925203552866, 10419.600954008218, 3758.6693476044356, 0.0, 0.0, 12467.065449603255, -19274.736258356126, 12323.72371241137, 3435.351364058419, -17896.840619664268, -33101.234805731154, 0.062, 0.002, 1.036, 192.0, 0.0, 0.0, 0.0, 0.0, 0.0, 0.0, 0.0, 0.0, 0.0, 1.74768947593469E9, 0.0, 2025-05-19 23:17:55.934
4.0, 23805.90424608043, 20107.629311994235, 48813.32651535589, 33070.635267571844, 47233.3487550436, 8951.672488650382, 10461.465771373007, 3768.7723360982345, 0.0, 0.0, 12476.22966482993, -19263.76155182857, 12318.694569908926, 3442.369811817385, -17880.903825867634, -33101.100695264424, 0.062, 0.002, 1.036, 192.0, 0.0, 0.0, 0.0, 0.0, 0.0, 0.0, 0.0, 0.0, 0.0, 1.747689475940719E9, 0.0, 2025-05-19 23:17:55.940
6.0, 23794.907187808418, 20095.15703858817, 48805.01166641852, 33059.168822666266, 47224.72098168385, 8960.456724221316, 10418.72923597446, 3749.9968707557764, 0.0, 0.0, 12484.61156900067, -19260.364086671365, 12341.806273675713, 3454.35034684543, -17878.266320021907, -33087.64494510233, 0.062, 0.002, 1.036, 192.0, 0.0, 0.0, 0.0, 0.0, 0.0, 0.0, 0.0, 0.0, 0.0, 1.747689475948671E9, 0.0, 2025-05-19 23:17:55.948
8.0, 23798.95285355483, 20098.82272467884, 48801.92712568368, 33053.849107485905, 47236.567406245165, 8938.842587333034, 10438.532881561861, 3759.0940307490864, 0.0, 0.0, 12468.9429961375, -19272.72460135515, 12314.62655241806, 3425.740113942637, -17900.014567376922, -33113.39415471484, 0.066, -0.008, 1.032, 192.0, 1.0, 8.0, 127.5, 96.0, 16.0, 32.0, 0.0, 0.0, 0.0, 1.747689475956763E9, 0.0, 2025-05-19 23:17:55.956
10.0, 23798.10348726553, 20096.185218833118, 48803.916430940204, 33067.08134020345, 47240.546016758206, 8959.942634098845, 10435.202471638022, 3757.015318514743, 0.0, 0.0, 12477.190789841508, -19260.565252371463, 12328.81991014718, 3452.383393333363, -17877.05932582132, -33092.49527364913, 0.066, -0.008, 1.032, 192.0, 0.0, 0.0, 0.0, 0.0, 0.0, 0.0, 0.0, 0.0, 0.0, 1.74768947596377E9, 0.0, 2025-05-19 23:17:55.963
12.0, 23800.629234388976, 20097.772192689445, 48805.682218752176, 33052.530354563045, 47237.819103934664, 8952.499503195228, 10414.594163250227, 3757.55176038167, 0.0, 0.0, 12474.75444969588, -19269.260080964577, 12329.803386903213, 3435.217253591687, -17896.281826052884, -33102.307689465015, 0.066, -0.008, 1.032, 192.0, 0.0, 0.0, 0.0, 0.0, 0.0, 0.0, 0.0, 0.0, 0.0, 1.74768947597282E9, 0.0, 2025-05-19 23:17:55.972
14.0, 23814.420260717903, 20113.798393463898, 48817.55099505794, 33077.29608741952, 47264.26121762529, 8965.754087657224, 10456.816608526304, 3767.4982866642817, 0.0, 0.0, 12485.215066100964, -19256.787807558514, 12327.948192113423, 3445.320242085486, -17878.57924444428, -33100.3630876974, 0.066, -0.008, 1.032, 192.0, 0.0, 0.0, 0.0, 0.0, 0.0, 0.0, 0.0, 0.0, 0.0, 1.747689475980849E9, 0.0, 2025-05-19 23:17:55.980
16.0, 23802.260911734214, 20095.469963010546, 48804.5199280405, 33063.88504074634, 47245.642214494015, 8968.503352225227, 10412.604857993705, 3749.683946333402, 0.0, 0.0, 12490.400670814595, -19252.317458667454, 12347.036581878256, 3458.7983439920363, -17877.260491521418, -33083.152244466815, 0.066, -0.008, 1.032, 192.0, 0.0, 0.0, 0.0, 0.0, 0.0, 0.0, 0.0, 0.0, 0.0, 1.747689475987828E9, 0.0, 2025-05-19 23:17:55.987
18.0, 23812.453307205833, 20103.449535781092, 48805.77162573, 33060.06289244448, 47256.03577566574, 8954.511160196205, 10437.482349572463, 3762.2456267172847, 0.0, 0.0, 12473.41334502856, -19271.651717621295, 12316.973485585868, 3429.025820377567, -17897.980558631487, -33110.30961398001, 0.066, -0.008, 1.024, 192.0, 1.0, 8.0, 127.5, 96.0, 16.0, 0.0, 0.0, 0.0, 0.0, 1.747689475995917E9, 0.0, 2025-05-19 23:17:55.995
20.0, 23810.37459497149, 20102.30959681387, 48808.0738554089, 33073.89862226231, 47266.74226125983, 8980.39448027545, 10440.92451821858, 3760.859818561056, 0.0, 0.0, 12486.779688212835, -19253.546804612495, 12335.838357906146, 3458.5971782919382, -17875.472351964992, -33086.30384043501, 0.066, -0.008, 1.024, 192.0, 0.0, 0.0, 0.0, 0.0, 0.0, 0.0, 0.0, 0.0, 0.0, 1.74768947600496E9, 0.0, 2025-05-19 23:17:56.004
22.0, 23798.394059943446, 20087.17746581763, 48792.517041268, 33044.95311319269, 47262.361319346586, 8960.926110854878, 10423.758378476903, 3756.8365045591004, 0.0, 0.0, 12465.94786238049, -19276.077363023443, 12319.208660031398, 3433.809093691003, -17902.003872633442, -33104.386401699354, 0.066, -0.008, 1.024, 192.0, 0.0, 0.0, 0.0, 0.0, 0.0, 0.0, 0.0, 0.0, 0.0, 1.747689476011999E9, 0.0, 2025-05-19 23:17:56.011
24.0, 23816.744842141252, 20104.388309048212, 48808.18561413117, 33069.89766000482, 47274.2077439079, 8979.63452096397, 10465.667899330605, 3773.9355890674105, 0.0, 0.0, 12470.351156038185, -19269.394191431307, 12311.586715172138, 3440.291099583042, -17884.837732891767, -33103.3135179655, 0.066, -0.008, 1.024, 192.0, 0.0, 0.0, 0.0, 0.0, 0.0, 0.0, 0.0, 0.0, 0.0, 1.747689476020044E9, 0.0, 2025-05-19 23:17:56.020
26.0, 23805.166638513405, 20091.044317608397, 48795.37806455828, 33055.63724704233, 47266.67520602646, 8980.595645975549, 10414.840032439237, 3750.376850411517, 0.0, 0.0, 12476.095554363199, -19266.041429763012, 12332.284430537753, 3451.355213088419, -17882.73666891297, -33090.12598873687, 0.066, -0.008, 1.024, 192.0, 0.0, 0.0, 0.0, 0.0, 0.0, 0.0, 0.0, 0.0, 0.0, 1.747689476028062E9, 0.0, 2025-05-19 23:17:56.028
28.0, 23820.47758346529, 20108.32221607235, 48805.749273985544, 33059.03471219954, 47283.30490390121, 8974.605378461525, 10455.542559092351, 3768.2582459757623, 0.0, 0.0, 12464.629109457626, -19277.396115946307, 12309.999741315813, 3426.455369765207, -17899.858105165735, -33112.991823314645, 0.064, -0.014, 1.026, 192.0, 1.0, 0.0, 127.5, 72.0, 16.0, 8.0, 0.0, 0.0, 0.0, 1.747689476037099E9, 0.0, 2025-05-19 23:17:56.037
30.0, 23820.566990443112, 20108.188105605615, 48810.04080892096, 33075.21737518518, 47289.29517141524, 8991.25742808073, 10441.237442640953, 3765.0619465186533, 0.0, 0.0, 12480.387089298618, -19261.079342493933, 12331.368009015085, 3459.267730625598, -17869.660898406615, -33086.48265439065, 0.064, -0.014, 1.026, 192.0, 0.0, 0.0, 0.0, 0.0, 0.0, 0.0, 0.0, 0.0, 0.0, 1.747689476044091E9, 0.0, 2025-05-19 23:17:56.044
32.0, 23812.296844994646, 20096.565198488857, 48807.0233234195, 33055.12315691986, 47282.433185867456, 8979.858038408523, 10430.262736113398, 3755.2271789583183, 0.0, 0.0, 12477.95074915299, -19270.198854231698, 12328.842261891636, 3444.2697100960863, -17889.19632306055, -33094.55163413902, 0.064, -0.014, 1.026, 192.0, 0.0, 0.0, 0.0, 0.0, 0.0, 0.0, 0.0, 0.0, 0.0, 1.747689476052083E9, 0.0, 2025-05-19 23:17:56.052
34.0, 23829.820612647607, 20113.88780044172, 48812.23127987758, 33076.849052530415, 47301.49922388783, 8995.794832205156, 10470.741745321959, 3771.499248921782, 0.0, 0.0, 12476.028499129832, -19267.561348385974, 12317.15229954151, 3448.896521198335, -17876.63464267667, -33096.40682892881, 0.064, -0.014, 1.026, 192.0, 0.0, 0.0, 0.0, 0.0, 0.0, 0.0, 0.0, 0.0, 0.0, 1.747689476060147E9, 0.0, 2025-05-19 23:17:56.060
36.0, 23818.532981697677, 20097.50397175598, 48799.91546868271, 33062.34277037892, 47297.520613374785, 9009.675265511903, 10428.116968645689, 3757.0600220036536, 0.0, 0.0, 12480.320034065251, -19263.985069273123, 12336.844186406635, 3460.0053381926227, -17873.036011819364, -33081.49821537712, 0.064, -0.014, 1.026, 192.0, 0.0, 0.0, 0.0, 0.0, 0.0, 0.0, 0.0, 0.0, 0.0, 1.747689476068185E9, 0.0, 2025-05-19 23:17:56.068
38.0, 23821.349301499045, 20101.817858435854, 48793.61227674631, 33050.988084195626, 47298.571145364185, 8978.9192651414, 10447.294765388342, 3761.083336005609, 0.0, 0.0, 12455.50959771986, -19283.319328226964, 12302.91423832348, 3422.2755935520645, -17902.54031450037, -33114.2658727486, 0.064, -0.004, 1.022, 192.0, 1.0, 0.0, 127.5, 112.0, 15.5, 120.0, 0.0, 0.0, 0.0, 1.747689476076213E9, 0.0, 2025-05-19 23:17:56.076
40.0, 23829.66415043642, 20112.256123096482, 48799.08845413786, 33067.84129951493, 47314.105607760626, 9000.198125862853, 10444.120817675688, 3754.333109180106, 0.0, 0.0, 12474.75444969588, -19268.589528630917, 12323.477843222361, 3447.6224717643827, -17878.15456129963, -33097.12208475138, 0.064, -0.004, 1.022, 192.0, 0.0, 0.0, 0.0, 0.0, 0.0, 0.0, 0.0, 0.0, 0.0, 1.747689476085288E9, 0.0, 2025-05-19 23:17:56.085
42.0, 23827.116051568515, 20103.96362590356, 48796.85327969233, 33044.707244003686, 47300.13576747606, 8998.365282817518, 10415.689398728538, 3746.3535364095615, 0.0, 0.0, 12470.284100804818, -19279.00544154709, 12320.326247254163, 3426.67888720976, -17902.853238922744, -33111.71777388069, 0.064, -0.004, 1.022, 192.0, 0.0, 0.0, 0.0, 0.0, 0.0, 0.0, 0.0, 0.0, 0.0, 1.747689476095257E9, 0.0, 2025-05-19 23:17:56.095
44.0, 23838.29192379617, 20117.30761734338, 48799.580192515874, 33059.302933133, 47315.98315429487, 8996.35362581654, 10456.704849804026, 3752.634376601503, 0.0, 0.0, 12471.044060116299, -19275.0491827785, 12312.726654139358, 3429.1152273553885, -17893.711375440525, -33114.332927981966, 0.064, -0.004, 1.022, 192.0, 0.0, 0.0, 0.0, 0.0, 0.0, 0.0, 0.0, 0.0, 0.0, 1.74768947610233E9, 0.0, 2025-05-19 23:17:56.102
46.0, 23826.914885868417, 20103.98597764802, 48795.333361069366, 33049.42346208375, 47311.2669362148, 9005.45078580985, 10418.192794107532, 3743.0901817190866, 0.0, 0.0, 12473.458048517472, -19273.842188577913, 12329.021075847279, 3442.034535650556, -17889.464543994018, -33099.55842489701, 0.064, -0.004, 1.022, 192.0, 0.0, 0.0, 0.0, 0.0, 0.0, 0.0, 0.0, 0.0, 0.0, 1.747689476109354E9, 0.0, 2025-05-19 23:17:56.109
48.0, 23836.48143249529, 20111.809088207377, 48796.18272735867, 33048.1494126498, 47324.40976195452, 8992.375015303494, 10449.664050300606, 3755.3836411695056, 0.0, 0.0, 12459.063525088255, -19287.074421295456, 12303.316569723675, 3414.9218696262683, -17907.860029680734, -33124.1676955423, 0.062, -0.004, 1.022, 192.0, 0.5, 120.0, 127.5, 112.0, 15.5, 120.0, 0.0, 0.0, 0.0, 1.747689476116375E9, 0.0, 2025-05-19 23:17:56.116
50.0, 23840.23652556378, 20112.613751007768, 48801.70360823913, 33067.148395436816, 47336.61381442712, 9017.699541771359, 10448.635870055661, 3752.366155668039, 0.0, 0.0, 12479.582426498226, -19265.303822195987, 12328.19406130243, 3450.6623090103044, -17875.87468336519, -33094.55163413902, 0.062, -0.004, 1.022, 192.0, 0.0, 0.0, 0.0, 0.0, 0.0, 0.0, 0.0, 0.0, 0.0, 1.747689476123452E9, 0.0, 2025-05-19 23:17:56.123
52.0, 23835.09562433906, 20110.959721918076, 48796.249782592036, 33045.37779633734, 47328.41072421202, 9006.16604163242, 10421.947887176024, 3747.5828823546035, 0.0, 0.0, 12465.769048424847, -19279.787752603024, 12318.62751467556, 3428.7799511885587, -17901.936817400077, -33109.32613722398, 0.062, -0.004, 1.022, 192.0, 0.0, 0.0, 0.0, 0.0, 0.0, 0.0, 0.0, 0.0, 0.0, 1.747689476131405E9, 0.0, 2025-05-19 23:17:56.131
54.0, 23856.39683680497, 20139.212326909583, 48803.51409954001, 33066.991933225625, 47352.43884950148, 9020.381751105995, 10469.69121333256, 3764.2125802293517, 0.0, 0.0, 12474.218007828953, -19272.47873216614, 12313.799537873214, 3439.4640850381957, -17881.999061345945, -33105.571044155484, 0.062, -0.004, 1.022, 192.0, 0.0, 0.0, 0.0, 0.0, 0.0, 0.0, 0.0, 0.0, 0.0, 1.747689476140447E9, 0.0, 2025-05-19 23:17:56.140
56.0, 23845.24331632177, 20120.101585400294, 48799.69195123815, 33059.01236045508, 47332.411686469524, 9028.316620387628, 10427.245250611932, 3750.4439056448828, 0.0, 0.0, 12476.654347974581, -19268.924804797745, 12331.479767737363, 3451.1987508772318, -17880.881474123176, -33092.11529399339, 0.062, -0.004, 1.022, 192.0, 0.0, 0.0, 0.0, 0.0, 0.0, 0.0, 0.0, 0.0, 0.0, 1.747689476147453E9, 0.0, 2025-05-19 23:17:56.147
58.0, 23854.4298832929, 20123.07436741285, 48813.23710837807, 33066.857822758895, 47358.04913735976, 9012.893916713467, 10456.771905037393, 3769.040557031698, 0.0, 0.0, 12468.27244380384, -19275.2503484786, 12313.888944851034, 3434.412590791296, -17891.29738703935, -33105.14636101083, 0.056, -0.006, 1.028, 192.0, 0.5, 96.0, 127.5, 104.0, 16.0, 16.0, 0.0, 0.0, 0.0, 1.747689476155523E9, 0.0, 2025-05-19 23:17:56.155
60.0, 23865.00225842026, 20130.94218146112, 48811.337210099366, 33078.458378131196, 47370.32024506572, 9029.009524465744, 10451.809817768315, 3755.1824754694076, 0.0, 0.0, 12492.837010960224, -19256.161958713765, 12341.314535297697, 3467.403765607329, -17863.15654077012, -33079.62066884287, 0.056, -0.006, 1.028, 192.0, 0.0, 0.0, 0.0, 0.0, 0.0, 0.0, 0.0, 0.0, 0.0, 1.747689476165589E9, 0.0, 2025-05-19 23:17:56.165
62.0, 23869.53966254469, 20123.722568002053, 48808.43148332018, 33057.268924387565, 47367.68273921999, 9012.491585313272, 10429.949811691024, 3755.8083243141564, 0.0, 0.0, 12476.743754952402, -19274.713906611672, 12331.144491570532, 3442.8168467064916, -17891.006814361433, -33097.83734057395, 0.056, -0.006, 1.028, 192.0, 0.0, 0.0, 0.0, 0.0, 0.0, 0.0, 0.0, 0.0, 0.0, 1.747689476172595E9, 0.0, 2025-05-19 23:17:56.172
64.0, 23885.5882150636, 20136.12778617475, 48818.84739623635, 33078.99481999812, 47391.24147787589, 9028.584841321093, 10472.708698834027, 3769.0629087761536, 0.0, 0.0, 12487.874923691144, -19268.23190071963, 12327.501157224317, 3452.6069107779163, -17871.9184245966, -33094.21635797219, 0.056, -0.006, 1.028, 192.0, 0.0, 0.0, 0.0, 0.0, 0.0, 0.0, 0.0, 0.0, 0.0, 1.747689476179602E9, 0.0, 2025-05-19 23:17:56.179
66.0, 23882.816598751142, 20130.02575993845, 48816.67927702419, 33067.483671603644, 47376.243457346376, 9025.567355819627, 10428.094616901233, 3747.716992821335, 0.0, 0.0, 12497.217952873463, -19266.220243718653, 12347.908299912013, 3464.9674254617007, -17868.409200717117, -33081.11823572138, 0.056, -0.006, 1.028, 192.0, 0.0, 0.0, 0.0, 0.0, 0.0, 0.0, 0.0, 0.0, 0.0, 1.747689476187625E9, 0.0, 2025-05-19 23:17:56.187
68.0, 23890.95263373287, 20137.64770479771, 48816.232242135084, 33064.53324133554, 47396.71765526744, 9013.564469047125, 10455.967242237002, 3762.8714755620335, 0.0, 0.0, 12481.28115907683, -19281.48648518163, 12320.303895509709, 3435.4631227806954, -17888.45871549353, -33109.16967501279, 0.054, -0.004, 1.026, 192.0, 0.5, 88.0, 127.5, 112.0, 16.0, 8.0, 0.0, 0.0, 0.0, 1.747689476196646E9, 0.0, 2025-05-19 23:17:56.196
70.0, 23906.084764729116, 20152.489263116036, 48823.988297461074, 33084.13572122285, 47404.965448971445, 9037.592594336582, 10453.910881747113, 3760.3904319274943, 0.0, 0.0, 12499.207258129985, -19259.470016893152, 12344.86846266609, 3471.695300542748, -17854.573470899282, -33078.07839847546, 0.054, -0.004, 1.026, 192.0, 0.0, 0.0, 0.0, 0.0, 0.0, 0.0, 0.0, 0.0, 0.0, 1.747689476204653E9, 0.0, 2025-05-19 23:17:56.204
72.0, 23892.070220955637, 20132.5515070619, 48809.01262867601, 33055.77135750906, 47390.05683541976, 9018.437149338382, 10421.657314498105, 3753.528446379715, 0.0, 0.0, 12489.305435336284, -19274.177464744746, 12339.414637018996, 3443.4873990401506, -17886.000023603443, -33099.40196268582, 0.054, -0.004, 1.026, 192.0, 0.0, 0.0, 0.0, 0.0, 0.0, 0.0, 0.0, 0.0, 0.0, 1.747689476211698E9, 0.0, 2025-05-19 23:17:56.211
74.0, 23919.31699744666, 20158.47953063006, 48830.04562020846, 33084.51570087859, 47423.24917593589, 9042.420571138928, 10485.829172829292, 3783.949170583388, 0.0, 0.0, 12496.010958672878, -19268.43306641973, 12332.910279382502, 3453.0762974114773, -17869.12445653969, -33096.40682892881, 0.054, -0.004, 1.026, 192.0, 0.0, 0.0, 0.0, 0.0, 0.0, 0.0, 0.0, 0.0, 0.0, 1.747689476221693E9, 0.0, 2025-05-19 23:17:56.221
76.0, 23908.02936649673, 20145.76138803499, 48817.23807063557, 33068.668314059774, 47411.693324052496, 9044.8345595401, 10421.053817397811, 3759.0940307490864, 0.0, 0.0, 12505.264580877374, -19263.314516939463, 12356.357259316119, 3468.2307801521756, -17861.524863424882, -33077.340790908434, 0.054, -0.004, 1.026, 192.0, 0.0, 0.0, 0.0, 0.0, 0.0, 0.0, 0.0, 0.0, 0.0, 1.747689476228718E9, 0.0, 2025-05-19 23:17:56.228
78.0, 23912.857343299074, 20148.957687492097, 48824.055352694435, 33066.991933225625, 47412.67680080853, 9031.02118146672, 10464.840884785759, 3770.9628070548547, 0.0, 0.0, 12488.478420791438, -19278.379592702342, 12326.562383957194, 3433.6973349687264, -17890.31391028332, -33109.013212801605, 0.062, -0.004, 1.03, 192.0, 0.5, 120.0, 127.5, 112.0, 16.0, 24.0, 0.0, 0.0, 0.0, 1.74768947623571E9, 0.0, 2025-05-19 23:17:56.235
80.0, 23921.127488747537, 20160.69235333113, 48830.067971952914, 33086.281488690554, 47430.93817602852, 9057.820923068633, 10456.21311142601, 3767.4535831753715, 0.0, 0.0, 12514.80877575979, -19254.127949968333, 12355.865520938101, 3471.605893564927, -17854.52876741037, -33079.95594500971, 0.062, -0.004, 1.03, 192.0, 0.0, 0.0, 0.0, 0.0, 0.0, 0.0, 0.0, 0.0, 0.0, 1.747689476243722E9, 0.0, 2025-05-19 23:17:56.243
82.0, 23917.93118929043, 20155.149120706217, 48823.51891082751, 33066.03080821405, 47423.87502478064, 9042.711143816847, 10426.418236067086, 3758.557588882159, 0.0, 0.0, 12504.705787265992, -19264.119179739857, 12352.289241825252, 3448.829465964969, -17880.970881101, -33094.28341320556, 0.062, -0.004, 1.03, 192.0, 0.0, 0.0, 0.0, 0.0, 0.0, 0.0, 0.0, 0.0, 0.0, 1.747689476251793E9, 0.0, 2025-05-19 23:17:56.251
84.0, 23930.738738863318, 20165.6097371113, 48829.55388183044, 33080.51473862109, 47433.1957022185, 9052.903539288467, 10468.886550532168, 3763.8996558069775, 0.0, 0.0, 12502.38120584264, -19261.81695006096, 12341.001610875323, 3446.5272362860724, -17873.01366007491, -33100.72071560869, 0.062, -0.004, 1.03, 192.0, 0.0, 0.0, 0.0, 0.0, 0.0, 0.0, 0.0, 0.0, 0.0, 1.747689476259767E9, 0.0, 2025-05-19 23:17:56.259
86.0, 23930.49286967431, 20164.89448128873, 48831.543187086965, 33080.38062815436, 47439.74476334391, 9072.573074409136, 10442.489140330452, 3757.1270772370194, 0.0, 0.0, 12511.56777281377, -19254.932612768724, 12363.152189630531, 3464.6992045282373, -17863.53652042586, -33082.302878177514, 0.062, -0.004, 1.03, 192.0, 0.0, 0.0, 0.0, 0.0, 0.0, 0.0, 0.0, 0.0, 0.0, 1.747689476267788E9, 0.0, 2025-05-19 23:17:56.267
88.0, 23938.807718611686, 20172.739943592544, 48834.24774816606, 33079.844186287424, 47442.20345523399, 9066.761620850757, 10456.526035848385, 3764.6149116295474, 0.0, 0.0, 12504.23640063243, -19262.174577972244, 12344.510834754807, 3441.743962972637, -17881.21675029001, -33102.12887550937, 0.062, -0.006, 1.03, 192.0, 0.5, 120.0, 127.5, 104.0, 16.0, 24.0, 0.0, 0.0, 0.0, 1.747689476275815E9, 0.0, 2025-05-19 23:17:56.275
90.0, 23943.859212858584, 20177.120885505785, 48835.65590806674, 33096.25036671762, 47458.028490308345, 9080.597350668591, 10460.012907983411, 3762.6032546285696, 0.0, 0.0, 12519.636752562137, -19243.041484718502, 12368.002518177334, 3474.668082555304, -17854.171139499085, -33074.21154668469, 0.062, -0.006, 1.03, 192.0, 0.0, 0.0, 0.0, 0.0, 0.0, 0.0, 0.0, 0.0, 0.0, 1.747689476284847E9, 0.0, 2025-05-19 23:17:56.284
92.0, 23934.53853542072, 20166.03442025595, 48821.32843987089, 33067.01428497008, 47447.43376343653, 9063.095934760087, 10425.747683733427, 3748.3204899216285, 0.0, 0.0, 12498.80492672979, -19262.800426816993, 12353.853863937124, 3448.9412246872457, -17885.262416036418, -33092.31645969349, 0.062, -0.006, 1.03, 192.0, 0.0, 0.0, 0.0, 0.0, 0.0, 0.0, 0.0, 0.0, 0.0, 1.747689476291949E9, 0.0, 2025-05-19 23:17:56.291
94.0, 23952.732855407343, 20184.80988559841, 48837.86873076782, 33092.31645969349, 47464.66695841157, 9077.870437845044, 10472.596940111749, 3764.2125802293517, 0.0, 0.0, 12509.891391979623, -19256.787807558514, 12348.735314456859, 3457.345480602441, -17868.54331118385, -33090.88594804835, 0.062, -0.006, 1.03, 192.0, 0.0, 0.0, 0.0, 0.0, 0.0, 0.0, 0.0, 0.0, 0.0, 1.747689476299954E9, 0.0, 2025-05-19 23:17:56.299
96.0, 23939.970009323362, 20167.353173178813, 48826.514044584525, 33076.89375601933, 47461.805935121294, 9083.927760592433, 10432.296744858832, 3747.8958067769777, 0.0, 0.0, 12513.266505392374, -19253.27858367903, 12366.817875721203, 3473.1258121878877, -17861.278994235872, -33075.172671696266, 0.062, -0.006, 1.03, 192.0, 0.0, 0.0, 0.0, 0.0, 0.0, 0.0, 0.0, 0.0, 0.0, 1.747689476307979E9, 0.0, 2025-05-19 23:17:56.307
98.0, 23941.467576201867, 20167.867263301287, 48819.272079381, 33066.9025262478, 47467.57268519076, 9064.325280705129, 10453.933233491569, 3757.7529260817682, 0.0, 0.0, 12492.300569093297, -19274.356278700387, 12333.357314271607, 3440.715782727693, -17887.475238737494, -33104.967547055196, 0.058, -0.008, 1.034, 192.0, 0.5, 104.0, 127.5, 96.0, 16.0, 40.0, 0.0, 0.0, 0.0, 1.747689476316177E9, 0.0, 2025-05-19 23:17:56.316
100.0, 23943.255715758292, 20170.03538251345, 48823.004820705035, 33083.353410166914, 47476.692196928525, 9088.353405994583, 10453.866178258202, 3756.0988969920754, 0.0, 0.0, 12506.09159542222, -19260.162920971266, 12350.255233079819, 3468.744870274648, -17863.20124425903, -33081.945250266224, 0.058, -0.008, 1.034, 192.0, 0.0, 0.0, 0.0, 0.0, 0.0, 0.0, 0.0, 0.0, 0.0, 1.747689476324057E9, 0.0, 2025-05-19 23:17:56.324
102.0, 23937.98070406684, 20162.458141143103, 48816.656925279734, 33060.129947677844, 47458.76609787537, 9082.161972780463, 10440.477483329474, 3757.261187703751, 0.0, 0.0, 12491.026519659343, -19273.37280194435, 12340.241651563842, 3447.6224717643827, -17886.648224192646, -33095.40100042832, 0.058, -0.008, 1.034, 192.0, 0.0, 0.0, 0.0, 0.0, 0.0, 0.0, 0.0, 0.0, 0.0, 1.747689476332093E9, 0.0, 2025-05-19 23:17:56.332
104.0, 23946.519070448765, 20174.595138382334, 48818.64623053625, 33075.97733449666, 47480.11201383019, 9090.27565601774, 10470.987614510968, 3766.358347697061, 0.0, 0.0, 12491.451202803995, -19271.942290299212, 12330.026904347767, 3451.3328613439635, -17874.69004090906, -33095.937442295246, 0.058, -0.008, 1.034, 192.0, 0.0, 0.0, 0.0, 0.0, 0.0, 0.0, 0.0, 0.0, 0.0, 1.747689476340126E9, 0.0, 2025-05-19 23:17:56.340
106.0, 23936.371378466058, 20159.530062619455, 48815.4722828236, 33067.126043692355, 47474.00998759389, 9102.300894534696, 10437.951736206023, 3750.399202155972, 0.0, 0.0, 12498.201429629496, -19268.589528630917, 12349.562329001705, 3459.893579470346, -17875.517055453904, -33085.521529379075, 0.058, -0.008, 1.034, 192.0, 0.0, 0.0, 0.0, 0.0, 0.0, 0.0, 0.0, 0.0, 0.0, 1.747689476347151E9, 0.0, 2025-05-19 23:17:56.347
108.0, 23942.16048027998, 20163.307507432404, 48815.02524793449, 33063.147433179314, 47485.83406041075, 9093.315493263663, 10458.35887889372, 3764.950187796377, 0.0, 0.0, 12487.763164968868, -19278.33488921343, 12327.76937815778, 3431.3951052898296, -17892.951416129043, -33109.66141339081, 0.061, -0.008, 1.0350000000000001, 192.0, 1.0, 0.0, 127.5, 96.0, 16.0, 48.0, 0.0, 0.0, 0.0, 1.747689476356124E9, 0.0, 2025-05-19 23:17:56.356
110.0, 23941.020541312762, 20160.580594608855, 48816.76868400201, 33074.97150599617, 47491.91373490259, 9105.296028291707, 10471.345242422252, 3763.1620482399526, 0.0, 0.0, 12495.340406339217, -19268.67893560874, 12340.509872497305, 3456.026727679578, -17868.72212513949, -33089.96952652568, 0.061, -0.008, 1.0350000000000001, 192.0, 0.0, 0.0, 0.0, 0.0, 0.0, 0.0, 0.0, 0.0, 0.0, 1.747689476364188E9, 0.0, 2025-05-19 23:17:56.364
112.0, 23943.5015849473, 20167.75550457901, 48806.10690189683, 33052.172726651756, 47487.57749647826, 9101.742100923313, 10440.455131585019, 3755.9647865253437, 0.0, 0.0, 12486.734984723924, -19281.57589215945, 12334.564308472194, 3435.932509414257, -17891.140924828163, -33105.235767988655, 0.061, -0.008, 1.0350000000000001, 192.0, 0.0, 0.0, 0.0, 0.0, 0.0, 0.0, 0.0, 0.0, 0.0, 1.747689476372212E9, 0.0, 2025-05-19 23:17:56.372
114.0, 23947.7037129049, 20164.00041151052, 48819.11561716982, 33076.223203685666, 47508.1634531216, 9107.508850992781, 10485.78446934038, 3774.181458256419, 0.0, 0.0, 12492.23351385993, -19274.87036882286, 12328.797558402724, 3440.447561794229, -17880.121514811697, -33103.425276687776, 0.061, -0.008, 1.0350000000000001, 192.0, 0.0, 0.0, 0.0, 0.0, 0.0, 0.0, 0.0, 0.0, 0.0, 1.747689476379295E9, 0.0, 2025-05-19 23:17:56.379
116.0, 23943.255715758292, 20156.356114906805, 48808.65500076473, 33059.34763662191, 47497.36756054969, 9105.519545736259, 10440.455131585019, 3749.0357457441983, 0.0, 0.0, 12497.419118573562, -19269.416543175765, 12350.657564480016, 3455.378527090374, -17873.550101941837, -33087.42142765778, 0.061, -0.008, 1.0350000000000001, 192.0, 0.0, 0.0, 0.0, 0.0, 0.0, 0.0, 0.0, 0.0, 0.0, 1.747689476388278E9, 0.0, 2025-05-19 23:17:56.388
118.0, 23953.090483318625, 20165.52033013348, 48802.57532627289, 33048.90937196128, 47502.0614268853, 9098.456394488383, 10459.096486460745, 3758.98227202681, 0.0, 0.0, 12477.190789841508, -19292.304729498, 12316.705264652404, 3417.0899888384333, -17904.753137201445, -33123.36303274191, 0.0625, -0.009000000000000001, 1.0325000000000002, 192.0, 1.0, 0.0, 127.5, 88.0, 16.0, 24.0, 0.0, 0.0, 0.0, 1.747689476396292E9, 0.0, 2025-05-19 23:17:56.396
120.0, 23952.01759958477, 20165.788551066944, 48809.12438739829, 33068.1542239373, 47511.49386304544, 9117.008342386287, 10465.44438188605, 3755.36128942505, 0.0, 0.0, 12490.244208603408, -19276.770267101558, 12332.39618926003, 3446.8178089639914, -17876.992270587954, -33100.1619219973, 0.0625, -0.009000000000000001, 1.0325000000000002, 192.0, 0.0, 0.0, 0.0, 0.0, 0.0, 0.0, 0.0, 0.0, 0.0, 1.747689476404327E9, 0.0, 2025-05-19 23:17:56.404
122.0, 23943.568640180667, 20158.993620752528, 48801.70360823913, 33049.49051731712, 47507.09056938774, 9107.911182392978, 10437.258832127909, 3748.521655621726, 0.0, 0.0, 12475.760278196369, -19287.320290484466, 12327.657619435504, 3427.617660476883, -17902.339148800274, -33113.52826518157, 0.0625, -0.009000000000000001, 1.0325000000000002, 192.0, 0.0, 0.0, 0.0, 0.0, 0.0, 0.0, 0.0, 0.0, 0.0, 1.747689476412352E9, 0.0, 2025-05-19 23:17:56.412
124.0, 23972.402390528012, 20189.07906878937, 48827.31870738491, 33082.526395622066, 47528.25767138692, 9132.632211760547, 10485.471544918008, 3766.2242372303294, 0.0, 0.0, 12497.888505207124, -19269.796522831504, 12333.558479971705, 3442.772143217581, -17877.640471177157, -33103.64879413233, 0.0625, -0.009000000000000001, 1.0325000000000002, 192.0, 0.0, 0.0, 0.0, 0.0, 0.0, 0.0, 0.0, 0.0, 0.0, 1.747689476420373E9, 0.0, 2025-05-19 23:17:56.420
126.0, 23965.98743986934, 20179.110190762305, 48821.30608812643, 33074.81504378498, 47532.30333713333, 9147.965508456888, 10439.002268195423, 3741.7714287962235, 0.0, 0.0, 12505.577505299749, -19260.028810504533, 12360.648794251538, 3460.6982422707374, -17869.10210479523, -33085.18625321225, 0.0625, -0.009000000000000001, 1.0325000000000002, 192.0, 0.0, 0.0, 0.0, 0.0, 0.0, 0.0, 0.0, 0.0, 0.0, 1.747689476427409E9, 0.0, 2025-05-19 23:17:56.427
128.0, 23972.60355622811, 20189.03436530046, 48820.90375672624, 33068.98123848215, 47530.62695629919, 9142.154054898507, 10455.49785560344, 3750.376850411517, 0.0, 0.0, 12495.966255183966, -19269.081267008933, 12338.654677707515, 3435.150198358321, -17888.056384093332, -33107.29212847855, 0.06025, -0.009500000000000001, 1.03025, 192.0, 0.5, 104.0, 127.5, 88.0, 16.0, 16.0, 0.0, 0.0, 0.0, 1.747689476435431E9, 0.0, 2025-05-19 23:17:56.435
130.0, 23967.932041636952, 20177.56792039489, 48815.02524793449, 33075.59735484092, 47546.29552916235, 9145.61857528908, 10450.468713100996, 3737.993983983277, 0.0, 0.0, 12501.218915130963, -19262.643964605806, 12347.416561533995, 3457.0772596689776, -17867.00104081643, -33092.40586667131, 0.06025, -0.009500000000000001, 1.03025, 192.0, 0.0, 0.0, 0.0, 0.0, 0.0, 0.0, 0.0, 0.0, 0.0, 1.747689476444489E9, 0.0, 2025-05-19 23:17:56.444
132.0, 23959.304268277203, 20165.073295244372, 48811.15839614373, 33050.11636616187, 47537.868921502704, 9128.720656480868, 10436.96825944999, 3734.3282978926063, 0.0, 0.0, 12492.479383048938, -19277.48552292413, 12340.621631219583, 3437.027744892567, -17890.425669005595, -33108.29795697903, 0.06025, -0.009500000000000001, 1.03025, 192.0, 0.0, 0.0, 0.0, 0.0, 0.0, 0.0, 0.0, 0.0, 0.0, 1.747689476452522E9, 0.0, 2025-05-19 23:17:56.452
134.0, 23967.328544536656, 20175.08687676035, 48814.28764036747, 33063.90739249079, 47549.93886350857, 9133.369819327572, 10485.963283296023, 3748.45460038836, 0.0, 0.0, 12489.596008014203, -19282.67112763776, 12323.947229855923, 3438.1676838597878, -17879.741535155958, -33113.55061692603, 0.06025, -0.009500000000000001, 1.03025, 192.0, 0.0, 0.0, 0.0, 0.0, 0.0, 0.0, 0.0, 0.0, 0.0, 1.747689476459517E9, 0.0, 2025-05-19 23:17:56.459
136.0, 23957.382018254044, 20166.123827233772, 48806.75510248603, 33055.77135750906, 47541.48990410446, 9141.684668264947, 10432.766131492393, 3729.880300746, 0.0, 0.0, 12493.105231893687, -19278.603110146894, 12343.035619620756, 3448.6953554982374, -17878.40043048864, -33101.50302666462, 0.06025, -0.009500000000000001, 1.03025, 192.0, 0.0, 0.0, 0.0, 0.0, 0.0, 0.0, 0.0, 0.0, 0.0, 1.74768947646756E9, 0.0, 2025-05-19 23:17:56.467
138.0, 23975.062248118193, 20178.99843204003, 48817.215718891115, 33061.11342443388, 47561.45001190305, 9138.466017063382, 10465.623195841694, 3746.532350365204, 0.0, 0.0, 12479.738888709413, -19287.56615967347, 12321.041503076733, 3421.6944481962264, -17899.366366787715, -33124.3688612424, 0.059125, -0.009750000000000002, 1.027125, 192.0, 0.5, 104.0, 127.5, 88.0, 16.0, 0.0, 0.0, 0.0, 0.0, 1.747689476476519E9, 0.0, 2025-05-19 23:17:56.476
140.0, 23980.40431504301, 20184.631071642765, 48826.75991377353, 33085.27566019007, 47569.183715484585, 9164.8634272651, 10468.663033087616, 3747.2252544433186, 0.0, 0.0, 12511.165441413576, -19257.234842447622, 12353.451532536928, 3464.9227219727904, -17860.899014580133, -33086.437950901745, 0.059125, -0.009750000000000002, 1.027125, 192.0, 0.0, 0.0, 0.0, 0.0, 0.0, 0.0, 0.0, 0.0, 0.0, 1.747689476483573E9, 0.0, 2025-05-19 23:17:56.483
142.0, 23968.803759670707, 20168.13548423475, 48818.15449215824, 33062.43217735674, 47553.962177510526, 9154.38045911556, 10440.410428096107, 3739.1339229504974, 0.0, 0.0, 12493.015824915867, -19272.635194377326, 12344.264965565797, 3447.9130444423017, -17884.658918936126, -33098.75376209662, 0.059125, -0.009750000000000002, 1.027125, 192.0, 0.0, 0.0, 0.0, 0.0, 0.0, 0.0, 0.0, 0.0, 0.0, 1.747689476492635E9, 0.0, 2025-05-19 23:17:56.492
144.0, 23979.21967258688, 20179.937205307153, 48824.50238758355, 33080.31357292099, 47573.251732975456, 9166.115124954596, 10480.934140793579, 3756.009490014254, 0.0, 0.0, 12497.106194151187, -19269.975336787145, 12334.072570094177, 3455.065602668, -17868.766828628402, -33094.93161379476, 0.059125, -0.009750000000000002, 1.027125, 192.0, 0.0, 0.0, 0.0, 0.0, 0.0, 0.0, 0.0, 0.0, 0.0, 1.747689476500669E9, 0.0, 2025-05-19 23:17:56.500
146.0, 23966.23330905835, 20167.241414456537, 48813.66179152272, 33066.27667740305, 47565.31686369382, 9170.116087212096, 10443.092637430744, 3741.614966585036, 0.0, 0.0, 12499.274313363352, -19270.62353737635, 12350.814026691203, 3467.2473033961423, -17867.023392560888, -33081.90054677732, 0.059125, -0.009750000000000002, 1.027125, 192.0, 0.0, 0.0, 0.0, 0.0, 0.0, 0.0, 0.0, 0.0, 0.0, 1.747689476508648E9, 0.0, 2025-05-19 23:17:56.508
148.0, 23975.5092830073, 20173.298737203924, 48813.19240488916, 33060.53227907804, 47577.18563999959, 9155.8109707607, 10463.432724885073, 3751.628548101014, 0.0, 0.0, 12482.599911999692, -19286.58268291744, 12321.779110643758, 3435.8207506919803, -17891.409145761627, -33108.521474423585, 0.0595625, -0.006875000000000001, 1.0295625, 192.0, 0.5, 112.0, 127.5, 112.0, 16.0, 32.0, 0.0, 0.0, 0.0, 1.747689476515656E9, 0.0, 2025-05-19 23:17:56.515
150.0, 23979.59965224262, 20177.545568650436, 48814.44410257866, 33079.17363395377, 47588.24975350496, 9178.497991382837, 10478.453097159041, 3754.7801440692124, 0.0, 0.0, 12497.28500810683, -19269.23772922012, 12339.749913185826, 3464.6321492948714, -17864.452941948526, -33084.87332878987, 0.0595625, -0.006875000000000001, 1.0295625, 192.0, 0.0, 0.0, 0.0, 0.0, 0.0, 0.0, 0.0, 0.0, 0.0, 1.747689476523701E9, 0.0, 2025-05-19 23:17:56.523
152.0, 23968.535538737244, 20161.13938822024, 48803.581154773376, 33054.67612203075, 47573.117622508726, 9171.85952327961, 10433.816663481792, 3749.9298155224105, 0.0, 0.0, 12474.799153184791, -19286.426220706253, 12327.523508968772, 3442.414515306296, -17890.69388993906, -33098.70905860771, 0.0595625, -0.006875000000000001, 1.0295625, 192.0, 0.0, 0.0, 0.0, 0.0, 0.0, 0.0, 0.0, 0.0, 0.0, 1.747689476531724E9, 0.0, 2025-05-19 23:17:56.531
154.0, 23983.5112075223, 20177.74673435053, 48810.68900951016, 33071.57404083896, 47591.28959075089, 9171.881875024066, 10494.926332822602, 3766.335995952606, 0.0, 0.0, 12478.844818931202, -19282.984052060136, 12318.225183275365, 3444.359117073908, -17881.26145377892, -33099.93840455275, 0.0595625, -0.006875000000000001, 1.0295625, 192.0, 0.0, 0.0, 0.0, 0.0, 0.0, 0.0, 0.0, 0.0, 0.0, 1.747689476539754E9, 0.0, 2025-05-19 23:17:56.539
156.0, 23974.324640551167, 20169.8118650689, 48806.50923329702, 33062.72275003466, 47581.83480284629, 9178.833267549666, 10456.92836724858, 3749.0580974886534, 0.0, 0.0, 12483.538685266816, -19278.08902002442, 12339.593450974638, 3459.3347858589636, -17873.01366007491, -33085.096846234424, 0.0595625, -0.006875000000000001, 1.0295625, 192.0, 0.0, 0.0, 0.0, 0.0, 0.0, 0.0, 0.0, 0.0, 0.0, 1.747689476547792E9, 0.0, 2025-05-19 23:17:56.547
158.0, 23986.908672679507, 20180.09366751834, 48814.15352990074, 33061.87338374536, 47593.54711694087, 9174.251159936328, 10475.949701780046, 3760.7704115832344, 0.0, 0.0, 12480.18592359852, -19284.86159859438, 12322.695532166426, 3429.316393055486, -17896.952378386544, -33111.85188434743, 0.059781249999999994, -0.0054375000000000005, 1.0277812499999999, 192.0, 0.5, 112.0, 127.5, 112.0, 16.0, 8.0, 0.0, 0.0, 0.0, 1.747689476555817E9, 0.0, 2025-05-19 23:17:56.555
160.0, 23978.772637697773, 20174.013993026496, 48803.916430940204, 33067.32720939245, 47600.006771088454, 9182.834229807166, 10463.477428373984, 3743.827789286112, 0.0, 0.0, 12492.546438282305, -19271.450551921196, 12340.86750040859, 3453.5680357894944, -17873.974785086488, -33093.85873006091, 0.059781249999999994, -0.0054375000000000005, 1.0277812499999999, 192.0, 0.0, 0.0, 0.0, 0.0, 0.0, 0.0, 0.0, 0.0, 0.0, 1.747689476564851E9, 0.0, 2025-05-19 23:17:56.564
162.0, 23973.65408821751, 20165.788551066944, 48801.32362858339, 33048.10470916089, 47591.22253551752, 9179.570875116691, 10443.405561853118, 3738.619832828025, 0.0, 0.0, 12474.642690973604, -19287.655566651294, 12329.781035158758, 3427.7964744325254, -17903.9261226566, -33114.35527972642, 0.059781249999999994, -0.0054375000000000005, 1.0277812499999999, 192.0, 0.0, 0.0, 0.0, 0.0, 0.0, 0.0, 0.0, 0.0, 0.0, 1.747689476572948E9, 0.0, 2025-05-19 23:17:56.572
164.0, 23988.22742560237, 20177.634975628254, 48802.91060243972, 33062.85686050139, 47616.457655007565, 9191.238485722362, 10484.711585606527, 3751.5167893787375, 0.0, 0.0, 12475.000318884888, -19287.610863162383, 12315.945305340923, 3430.7245529561706, -17892.996119617954, -33115.74108788265, 0.059781249999999994, -0.0054375000000000005, 1.0277812499999999, 192.0, 0.0, 0.0, 0.0, 0.0, 0.0, 0.0, 0.0, 0.0, 0.0, 1.747689476579959E9, 0.0, 2025-05-19 23:17:56.579
166.0, 23988.830922702662, 20181.412420441204, 48815.740503757064, 33066.6566570588, 47600.6326199332, 9206.750596374344, 10450.714582290004, 3738.038687472187, 0.0, 0.0, 12494.848667961201, -19276.926729312745, 12347.997706889833, 3454.8420852234467, -17876.656994421126, -33093.79167482754, 0.059781249999999994, -0.0054375000000000005, 1.0277812499999999, 192.0, 0.0, 0.0, 0.0, 0.0, 0.0, 0.0, 0.0, 0.0, 0.0, 1.747689476589946E9, 0.0, 2025-05-19 23:17:56.589
168.0, 23985.835788945653, 20173.365792437293, 48806.53158504148, 33053.24561038561, 47608.14280607019, 9187.930427542977, 10462.628062084683, 3741.1902834403854, 0.0, 0.0, 12482.778725955335, -19290.114258541376, 12324.886003123047, 3426.611831976394, -17897.511171997925, -33118.98209082867, 0.056890625, -0.0017187500000000002, 1.027890625, 192.0, 0.5, 88.0, 0.0, 8.0, 16.0, 16.0, 0.0, 0.0, 0.0, 1.74768947659697E9, 0.0, 2025-05-19 23:17:56.596
170.0, 23984.628794745066, 20171.04121101394, 48809.90669845423, 33068.62361057087, 47624.81720743385, 9213.478471455392, 10468.819495298803, 3743.6713270749246, 0.0, 0.0, 12483.449278288994, -19285.465095694675, 12329.848090392125, 3449.120038642888, -17878.35572699973, -33101.59243364244, 0.056890625, -0.0017187500000000002, 1.027890625, 192.0, 0.0, 0.0, 0.0, 0.0, 0.0, 0.0, 0.0, 0.0, 0.0, 1.747689476603986E9, 0.0, 2025-05-19 23:17:56.603
172.0, 23975.486931262843, 20156.311411417893, 48798.79788145994, 33039.61104626788, 47615.00479161797, 9201.788509105267, 10436.387114094152, 3731.4449228578715, 0.0, 0.0, 12477.593121241704, -19294.96458708818, 12326.316514768187, 3434.770218702581, -17894.314872540817, -33109.97433781318, 0.056890625, -0.0017187500000000002, 1.027890625, 192.0, 0.0, 0.0, 0.0, 0.0, 0.0, 0.0, 0.0, 0.0, 0.0, 1.747689476612006E9, 0.0, 2025-05-19 23:17:56.612
174.0, 23984.606443000608, 20168.113132490296, 48804.207003618125, 33051.5021743181, 47634.38375406072, 9202.7719858613, 10475.21209421302, 3740.1397514509863, 0.0, 0.0, 12471.066411860755, -19300.194895290722, 12305.216468002376, 3426.097741853922, -17891.699718439548, -33122.53601819706, 0.056890625, -0.0017187500000000002, 1.027890625, 192.0, 0.0, 0.0, 0.0, 0.0, 0.0, 0.0, 0.0, 0.0, 0.0, 1.747689476620064E9, 0.0, 2025-05-19 23:17:56.620
176.0, 23977.386829541545, 20157.04901898492, 48801.14481462775, 33046.048348671, 47624.43722777811, 9205.320084729205, 10451.809817768315, 3727.600422811559, 0.0, 0.0, 12472.452220016983, -19298.451459223208, 12325.578907201161, 3441.9227769282793, -17884.144828813653, -33107.7168116232, 0.056890625, -0.0017187500000000002, 1.027890625, 192.0, 0.0, 0.0, 0.0, 0.0, 0.0, 0.0, 0.0, 0.0, 0.0, 1.747689476627098E9, 0.0, 2025-05-19 23:17:56.627
178.0, 23982.661841233, 20164.22392895507, 48804.22935536258, 33041.600351524394, 47630.40514354767, 9197.899305570043, 10471.725222077994, 3736.719934549324, 0.0, 0.0, 12467.423077514539, -19307.034529094046, 12306.356406969597, 3421.5603377294947, -17899.858105165735, -33127.40869848832, 0.0564453125, 0.001140625, 1.0299453125, 192.0, 0.5, 96.0, 0.0, 16.0, 16.0, 32.0, 0.0, 0.0, 0.0, 1.747689476636109E9, 0.0, 2025-05-19 23:17:56.636
180.0, 23991.7142977374, 20169.23071971306, 48808.476186809086, 33058.610029054886, 47643.637376265215, 9214.685465655979, 10485.650358873649, 3732.9424897363774, 0.0, 0.0, 12478.37543229764, -19295.076345810456, 12320.639171676537, 3447.4213060642846, -17876.50053220994, -33107.60505290092, 0.0564453125, 0.001140625, 1.0299453125, 192.0, 0.0, 0.0, 0.0, 0.0, 0.0, 0.0, 0.0, 0.0, 0.0, 1.747689476644232E9, 0.0, 2025-05-19 23:17:56.644
182.0, 23988.78621921375, 20163.955708021607, 48804.38581757377, 33042.36031083588, 47635.90367268368, 9215.423073223004, 10451.318079390297, 3730.2826321461957, 0.0, 0.0, 12476.60964448567, -19297.535037700538, 12325.221279289875, 3433.384410546352, -17894.35957602973, -33116.72456463869, 0.0564453125, 0.001140625, 1.0299453125, 192.0, 0.0, 0.0, 0.0, 0.0, 0.0, 0.0, 0.0, 0.0, 0.0, 1.74768947665125E9, 0.0, 2025-05-19 23:17:56.651
184.0, 24001.839637975652, 20180.47364717408, 48814.08647466737, 33063.25919190159, 47647.7948007339, 9227.11303557313, 10487.55025715235, 3745.9288532649107, 0.0, 0.0, 12478.978929397934, -19292.125915542354, 12314.805366373703, 3435.843102436436, -17884.837732891767, -33114.89172159335, 0.0564453125, 0.001140625, 1.0299453125, 192.0, 0.0, 0.0, 0.0, 0.0, 0.0, 0.0, 0.0, 0.0, 0.0, 1.747689476659273E9, 0.0, 2025-05-19 23:17:56.659
186.0, 23988.719163980386, 20165.497978389023, 48808.36442808681, 33056.26309588708, 47644.844370465806, 9232.812730409232, 10457.867140515702, 3726.304021633151, 0.0, 0.0, 12485.952673667989, -19283.565197415974, 12339.660506208003, 3454.484457312162, -17877.215788032507, -33095.84803531743, 0.0564453125, 0.001140625, 1.0299453125, 192.0, 0.0, 0.0, 0.0, 0.0, 0.0, 0.0, 0.0, 0.0, 0.0, 1.747689476668285E9, 0.0, 2025-05-19 23:17:56.668
188.0, 23997.637510018052, 20170.61652786929, 48811.35956184383, 33048.66350277227, 47653.069812425354, 9218.798186635755, 10474.765059323914, 3735.982326982299, 0.0, 0.0, 12472.251054316886, -19297.132706300345, 12315.967657085379, 3425.717762198182, -17898.517000498414, -33122.37955598588, 0.05522265625, 0.0025703125, 1.03397265625, 192.0, 0.5, 88.0, 0.0, 16.0, 16.0, 56.0, 0.0, 0.0, 0.0, 1.747689476676302E9, 0.0, 2025-05-19 23:17:56.676
190.0, 24001.169085641992, 20176.51738840549, 48820.143797414756, 33072.512814106085, 47666.3020451429, 9244.905024159554, 10484.063385017322, 3740.206806684352, 0.0, 0.0, 12490.959464425978, -19284.05693579399, 12333.53612822725, 3455.1997131347316, -17869.817360617802, -33099.580776641465, 0.05522265625, 0.0025703125, 1.03397265625, 192.0, 0.0, 0.0, 0.0, 0.0, 0.0, 0.0, 0.0, 0.0, 0.0, 1.747689476683352E9, 0.0, 2025-05-19 23:17:56.683
192.0, 23994.75413498332, 20169.655402857712, 48817.23807063557, 33054.67612203075, 47655.61791129326, 9241.552262491257, 10457.040125970856, 3742.889016018989, 0.0, 0.0, 12482.577560255237, -19286.068592794967, 12333.9608113719, 3444.582634518461, -17885.418878247605, -33102.6653173763, 0.05522265625, 0.0025703125, 1.03397265625, 192.0, 0.0, 0.0, 0.0, 0.0, 0.0, 0.0, 0.0, 0.0, 0.0, 1.747689476691449E9, 0.0, 2025-05-19 23:17:56.691
194.0, 24010.109783424115, 20185.972176310086, 48826.46934109561, 33072.82573852846, 47676.89677201471, 9242.35692529165, 10500.022530558412, 3754.556626624659, 0.0, 0.0, 12492.591141771216, -19279.452476436196, 12327.322343268675, 3450.058811910011, -17869.370325728694, -33102.77707609857, 0.05522265625, 0.0025703125, 1.03397265625, 192.0, 0.0, 0.0, 0.0, 0.0, 0.0, 0.0, 0.0, 0.0, 0.0, 1.747689476700381E9, 0.0, 2025-05-19 23:17:56.700
196.0, 23996.296405350735, 20170.057734257905, 48816.38870434627, 33058.945305221714, 47667.86666725477, 9246.40259103806, 10453.30738464682, 3731.4449228578715, 0.0, 0.0, 12492.009996415378, -19276.65850837928, 12344.510834754807, 3462.0169951936005, -17865.034087304364, -33091.601203870916, 0.05522265625, 0.0025703125, 1.03397265625, 192.0, 0.0, 0.0, 0.0, 0.0, 0.0, 0.0, 0.0, 0.0, 0.0, 1.747689476707443E9, 0.0, 2025-05-19 23:17:56.707
198.0, 24008.008719445315, 20178.260824473004, 48815.00289619004, 33052.21743014067, 47680.29423717192, 9234.01972460982, 10476.97788202499, 3741.0338212291986, 0.0, 0.0, 12477.70487996398, -19294.048165565513, 12318.895735609023, 3429.674020966771, -17891.49855273945, -33120.03262281807, 0.057611328125, -0.0027148437500000002, 1.036986328125, 192.0, 0.5, 112.0, 127.5, 96.0, 16.0, 64.0, 0.0, 0.0, 0.0, 1.747689476715449E9, 0.0, 2025-05-19 23:17:56.715
200.0, 24003.091335665147, 20179.780743095966, 48815.56168980142, 33063.92974423525, 47681.747100561515, 9252.705782974457, 10473.133381978678, 3731.6907920468802, 0.0, 0.0, 12491.42885105954, -19276.703211868193, 12334.25138404982, 3453.9033119563237, -17868.07392455029, -33099.871349319386, 0.057611328125, -0.0027148437500000002, 1.036986328125, 192.0, 0.0, 0.0, 0.0, 0.0, 0.0, 0.0, 0.0, 0.0, 0.0, 1.747689476723506E9, 0.0, 2025-05-19 23:17:56.723
202.0, 23998.822152474186, 20172.203501725617, 48806.933916441674, 33039.47693580114, 47671.24178066752, 9244.435637525992, 10453.463846858007, 3726.527539077704, 0.0, 0.0, 12478.37543229764, -19292.43883996473, 12327.34469501313, 3430.277518067064, -17895.678328952592, -33119.3173669955, 0.057611328125, -0.0027148437500000002, 1.036986328125, 192.0, 0.0, 0.0, 0.0, 0.0, 0.0, 0.0, 0.0, 0.0, 0.0, 1.747689476732539E9, 0.0, 2025-05-19 23:17:56.732
204.0, 24013.998986959337, 20187.201522255127, 48817.52864331349, 33062.70039829021, 47690.48663264354, 9258.114905132641, 10499.016702057923, 3744.587748597592, 0.0, 0.0, 12482.80107769979, -19290.44953470821, 12314.783014629247, 3432.4903407681395, -17887.02820384839, -33121.239617018655, 0.057611328125, -0.0027148437500000002, 1.036986328125, 192.0, 0.0, 0.0, 0.0, 0.0, 0.0, 0.0, 0.0, 0.0, 0.0, 1.747689476740605E9, 0.0, 2025-05-19 23:17:56.740
206.0, 23996.721088495386, 20166.213234211595, 48808.051503664436, 33052.664465029775, 47681.68004532815, 9262.875826701622, 10452.055686957323, 3725.856986744045, 0.0, 0.0, 12489.506601036383, -19281.39707820381, 12341.06866610869, 3451.77989623307, -17875.96409034301, -33100.92188130878, 0.057611328125, -0.0027148437500000002, 1.036986328125, 192.0, 0.0, 0.0, 0.0, 0.0, 0.0, 0.0, 0.0, 0.0, 0.0, 1.747689476748619E9, 0.0, 2025-05-19 23:17:56.748
208.0, 24004.767716499297, 20170.929452291664, 48810.934878699176, 33050.563401050975, 47690.620743110274, 9247.11784686063, 10478.430745414586, 3741.4138008849386, 0.0, 0.0, 12475.55911249627, -19297.222113278167, 12313.665427406482, 3424.130788341855, -17900.059270865833, -33123.09481180845, 0.0578056640625, -0.005357421875000001, 1.0334931640625, 192.0, 0.5, 104.0, 127.5, 96.0, 16.0, 24.0, 0.0, 0.0, 0.0, 1.747689476755627E9, 0.0, 2025-05-19 23:17:56.755
210.0, 24010.04272819075, 20178.17141749518, 48813.90766071173, 33067.282505903546, 47704.009438039, 9274.968120451942, 10470.674690088594, 3734.887091503989, 0.0, 0.0, 12485.57269401225, -19280.324194469955, 12327.367046757585, 3451.802247977525, -17876.232311276475, -33101.391267942345, 0.0578056640625, -0.005357421875000001, 1.0334931640625, 192.0, 0.0, 0.0, 0.0, 0.0, 0.0, 0.0, 0.0, 0.0, 0.0, 1.747689476763762E9, 0.0, 2025-05-19 23:17:56.763
212.0, 24005.997062444338, 20170.32595519137, 48805.682218752176, 33040.706281746185, 47696.141623990734, 9264.082820902207, 10448.948794478036, 3724.02414369871, 0.0, 0.0, 12481.772897454846, -19294.651662665805, 12327.814081646691, 3434.6584599803045, -17894.672500452103, -33114.28822449306, 0.0578056640625, -0.005357421875000001, 1.0334931640625, 192.0, 0.0, 0.0, 0.0, 0.0, 0.0, 0.0, 0.0, 0.0, 0.0, 1.747689476771727E9, 0.0, 2025-05-19 23:17:56.771
214.0, 24024.101975453137, 20189.548455422933, 48822.28956488247, 33069.36121813789, 47714.09007478834, 9273.425850084526, 10496.893286334669, 3742.8666642745334, 0.0, 0.0, 12485.058603889776, -19286.24740675061, 12319.58863968714, 3439.508788527106, -17879.16038980012, -33113.08123029247, 0.0578056640625, -0.005357421875000001, 1.0334931640625, 192.0, 0.0, 0.0, 0.0, 0.0, 0.0, 0.0, 0.0, 0.0, 0.0, 1.747689476779741E9, 0.0, 2025-05-19 23:17:56.779
216.0, 24014.69189103745, 20183.021746041984, 48817.79686424695, 33062.231011656644, 47712.52545267647, 9278.49969607588, 10468.193646454054, 3734.0600769591424, 0.0, 0.0, 12496.815621473268, -19276.971432801656, 12347.550672000727, 3459.4912480701505, -17866.26343324941, -33096.11625625089, 0.0578056640625, -0.005357421875000001, 1.0334931640625, 192.0, 0.0, 0.0, 0.0, 0.0, 0.0, 0.0, 0.0, 0.0, 0.0, 1.747689476787782E9, 0.0, 2025-05-19 23:17:56.787
218.0, 24016.837658505163, 20185.636900143254, 48814.10882641182, 33054.63141854184, 47713.10659803231, 9266.541512792292, 10483.772812339403, 3743.336050908095, 0.0, 0.0, 12480.096516620699, -19289.309595740986, 12320.929744354456, 3428.6234889773714, -17893.130230084687, -33122.55836994152, 0.0578056640625, -0.005357421875000001, 1.0334931640625, 192.0, 0.0, 0.0, 0.0, 0.0, 0.0, 0.0, 0.0, 0.0, 0.0, 1.747689476795776E9, 0.0, 2025-05-19 23:17:56.795
220.0, 24023.006739974826, 20189.190827511648, 48820.59083230387, 33072.669276317276, 47721.0638190584, 9291.307245648772, 10481.962321038523, 3736.2952514046733, 0.0, 0.0, 12497.75439474039, -19272.322269954955, 12342.096846353632, 3457.412535835807, -17867.559834427815, -33098.28437546306, 0.06, -0.01, 1.034, 192.0, 0.5, 112.0, 127.5, 88.0, 16.0, 40.0, 0.0, 0.0, 0.0, 1.747689476803836E9, 0.0, 2025-05-19 23:17:56.803
222.0, 24014.401318359534, 20179.22194948458, 48811.672486266194, 33048.328226605445, 47709.217394497085, 9279.192600153996, 10457.442457371051, 3727.399257111461, 0.0, 0.0, 12488.366662069162, -19286.940310828722, 12339.571099230183, 3439.1958641047318, -17889.19632306055, -33113.30474773702, 0.06, -0.01, 1.034, 192.0, 0.0, 0.0, 0.0, 0.0, 0.0, 0.0, 0.0, 0.0, 0.0, 1.747689476811861E9, 0.0, 2025-05-19 23:17:56.811
224.0, 24027.879420266083, 20193.772935124987, 48818.73563751407, 33068.7577210376, 47726.20472028312, 9291.128431693129, 10507.26449576193, 3744.9677282533326, 0.0, 0.0, 12488.500772535894, -19281.86646483737, 12328.976372358367, 3440.425210049774, -17880.25562527843, -33114.243521004144, 0.06, -0.01, 1.034, 192.0, 0.0, 0.0, 0.0, 0.0, 0.0, 0.0, 0.0, 0.0, 0.0, 1.747689476818891E9, 0.0, 2025-05-19 23:17:56.818
226.0, 24016.547085827242, 20180.80892334091, 48812.879480466785, 33060.48757558913, 47720.28150800247, 9303.17602195454, 10468.93125402108, 3728.561547823137, 0.0, 0.0, 12494.111060394176, -19277.57492990195, 12348.690610967948, 3457.63605328036, -17870.890244351656, -33097.14443649584, 0.06, -0.01, 1.034, 192.0, 0.0, 0.0, 0.0, 0.0, 0.0, 0.0, 0.0, 0.0, 0.0, 1.747689476827917E9, 0.0, 2025-05-19 23:17:56.827
228.0, 24024.459603364423, 20187.514446677502, 48812.96888744461, 33056.53131682054, 47725.60122318283, 9296.135222451117, 10478.386041925674, 3738.016335727732, 0.0, 0.0, 12477.526066008339, -19294.33873824343, 12319.253363520309, 3429.092875610933, -17894.896017896655, -33120.65847166282, 0.06, -0.01, 1.034, 192.0, 0.0, 0.0, 0.0, 0.0, 0.0, 0.0, 0.0, 0.0, 0.0, 1.747689476835929E9, 0.0, 2025-05-19 23:17:56.835
230.0, 24026.538315598766, 20185.525141420978, 48807.71622749761, 33064.332075635444, 47736.71004017712, 9311.468519147458, 10472.082849989278, 3730.7073152908465, 0.0, 0.0, 12489.03721440282, -19277.86550257987, 12333.692590438437, 3453.5233323005837, -17873.86302636421, -33100.38543944185, 0.054, -0.004, 1.028, 192.0, 0.5, 88.0, 127.5, 112.0, 16.0, 16.0, 0.0, 0.0, 0.0, 1.747689476843E9, 0.0, 2025-05-19 23:17:56.843
232.0, 24015.250684648836, 20170.37065868028, 48797.05444539242, 33039.11930788986, 47723.83543537086, 9291.97779798243, 10446.691268288048, 3723.8006262541567, 0.0, 0.0, 12471.111115349666, -19298.8537906234, 12323.544898455728, 3428.9811168886563, -17901.646244722157, -33119.40677397332, 0.054, -0.004, 1.028, 192.0, 0.0, 0.0, 0.0, 0.0, 0.0, 0.0, 0.0, 0.0, 0.0, 1.747689476850999E9, 0.0, 2025-05-19 23:17:56.850
234.0, 24031.90273426804, 20185.94982456563, 48806.50923329702, 33061.22518315616, 47743.1696943247, 9304.539478366314, 10497.921466579613, 3749.1251527220197, 0.0, 0.0, 12477.280196819329, -19295.121049299367, 12311.184383771943, 3430.1210558558773, -17891.29738703935, -33119.09384955095, 0.054, -0.004, 1.028, 192.0, 0.0, 0.0, 0.0, 0.0, 0.0, 0.0, 0.0, 0.0, 0.0, 1.747689476860031E9, 0.0, 2025-05-19 23:17:56.860
236.0, 24016.055347449226, 20168.94014703514, 48801.055407649925, 33052.5527063075, 47737.045316343945, 9309.233344701928, 10463.946815007546, 3739.3797921395058, 0.0, 0.0, 12480.834124187724, -19289.801334119, 12331.658581693004, 3450.215274121198, -17877.886340366167, -33099.714887108195, 0.054, -0.004, 1.028, 192.0, 0.0, 0.0, 0.0, 0.0, 0.0, 0.0, 0.0, 0.0, 0.0, 1.747689476868055E9, 0.0, 2025-05-19 23:17:56.868
238.0, 24014.89305673755, 20163.732190577055, 48797.23325934807, 33041.30977884648, 47740.6662989457, 9293.02832997183, 10480.59886462675, 3748.879283533011, 0.0, 0.0, 12460.382278011117, -19309.426165750763, 12299.986159799833, 3419.0345906060447, -17902.40620403364, -33128.63804443336, 0.054, -0.004, 1.028, 192.0, 0.0, 0.0, 0.0, 0.0, 0.0, 0.0, 0.0, 0.0, 0.0, 1.747689476875056E9, 0.0, 2025-05-19 23:17:56.875
240.0, 24021.017434718306, 20166.07912374486, 48804.38581757377, 33062.34277037892, 47749.96462463911, 9312.787272070322, 10493.048786288356, 3752.07558299012, 0.0, 0.0, 12472.742792694902, -19295.031642321544, 12315.408863473996, 3452.428096822274, -17872.030183318875, -33101.100695264424, 0.052000000000000005, -0.002, 1.024, 192.0, 0.5, 80.0, 127.5, 120.0, 16.0, 0.0, 0.0, 0.0, 0.0, 1.747689476885108E9, 0.0, 2025-05-19 23:17:56.885
242.0, 24004.70066126593, 20150.164681692684, 48791.39945404523, 33034.067813642956, 47739.12402857829, 9297.766899796356, 10449.060553200312, 3736.205844426852, 0.0, 0.0, 12459.957594866466, -19311.281360540554, 12309.060968048689, 3434.859625680402, -17892.392622517662, -33113.72943088167, 0.052000000000000005, -0.002, 1.024, 192.0, 0.0, 0.0, 0.0, 0.0, 0.0, 0.0, 0.0, 0.0, 0.0, 1.747689476892106E9, 0.0, 2025-05-19 23:17:56.892
244.0, 24017.463507349912, 20165.632088855757, 48796.294486080944, 33047.99295043862, 47757.184238098176, 9308.003998756885, 10502.302408492853, 3747.4487718878713, 0.0, 0.0, 12459.018821599344, -19310.096718084424, 12292.923008551958, 3429.696372711226, -17889.77746841639, -33121.597244929944, 0.052000000000000005, -0.002, 1.024, 192.0, 0.0, 0.0, 0.0, 0.0, 0.0, 0.0, 0.0, 0.0, 0.0, 1.747689476899146E9, 0.0, 2025-05-19 23:17:56.899
246.0, 24005.862951977608, 20146.14136769073, 48784.358654541815, 33035.744194477105, 47750.389307783764, 9314.038969759818, 10458.269471915899, 3725.3876001104836, 0.0, 0.0, 12461.723382678436, -19309.068537839477, 12308.993912815324, 3438.994698404634, -17886.15648581463, -33111.78482911406, 0.052000000000000005, -0.002, 1.024, 192.0, 0.0, 0.0, 0.0, 0.0, 0.0, 0.0, 0.0, 0.0, 0.0, 1.747689476908175E9, 0.0, 2025-05-19 23:17:56.908
248.0, 24016.860010249617, 20155.730266062055, 48786.14679409824, 33033.53137177603, 47752.155095595735, 9309.590972613212, 10466.673727831094, 3735.848216515567, 0.0, 0.0, 12446.524196448827, -19325.38531129185, 12284.205828214388, 3405.7576543995924, -17915.68314024009, -33140.529172483584, 0.052000000000000005, -0.002, 1.024, 192.0, 0.0, 0.0, 0.0, 0.0, 0.0, 0.0, 0.0, 0.0, 0.0, 1.747689476915153E9, 0.0, 2025-05-19 23:17:56.915
250.0, 24014.75894627082, 20155.84202478433, 48784.068081863894, 33048.77526149455, 47760.15702011073, 9338.447074705015, 10472.708698834027, 3734.775332781712, 0.0, 0.0, 12460.382278011117, -19304.262912781585, 12303.607142401594, 3438.9723466601786, -17887.38583175967, -33111.29309073604, 0.06, -0.006, 1.03, 192.0, 0.5, 112.0, 127.5, 104.0, 16.0, 24.0, 0.0, 0.0, 0.0, 1.747689476924273E9, 0.0, 2025-05-19 23:17:56.924
252.0, 24005.974710699884, 20145.94020199063, 48776.60259921582, 33023.83071468243, 47756.73720320907, 9311.8484988032, 10445.104294431721, 3722.437169842383, 0.0, 0.0, 12441.56210917975, -19325.34060780294, 12292.833601574135, 3416.0394568490337, -17913.44796579456, -33131.16379155681, 0.06, -0.006, 1.03, 192.0, 0.0, 0.0, 0.0, 0.0, 0.0, 0.0, 0.0, 0.0, 0.0, 1.747689476932236E9, 0.0, 2025-05-19 23:17:56.932
254.0, 24022.403242874534, 20163.195748710128, 48790.639494733754, 33041.84622071341, 47764.649720746245, 9320.185699485028, 10493.451117688552, 3741.8161322851342, 0.0, 0.0, 12454.32495526373, -19313.337721030442, 12289.637302117028, 3419.1687010727765, -17901.1768580886, -33131.320253768, 0.06, -0.006, 1.03, 192.0, 0.0, 0.0, 0.0, 0.0, 0.0, 0.0, 0.0, 0.0, 0.0, 1.747689476939282E9, 0.0, 2025-05-19 23:17:56.939
0.0, 24009.908617724017, 20144.5543938344, 48781.140003340246, 33032.50319153109, 47760.939331166664, 9322.622039630656, 10454.648489314139, 3722.727742520302, 0.0, 0.0, 12455.219025041943, -19312.667168696782, 12306.222296502865, 3433.026782635067, -17892.616139962214, -33119.496180951144, 0.06, -0.006, 1.03, 192.0, 0.0, 0.0, 0.0, 0.0, 0.0, 0.0, 0.0, 0.0, 0.0, 1.747689476947258E9, 0.0, 2025-05-19 23:17:56.947
2.0, 24009.975672957382, 20145.850795012808, 48776.98257887156, 33024.09893561589, 47762.52630502299, 9313.010789514874, 10468.663033087616, 3727.2204431558184, 0.0, 0.0, 12439.908080090056, -19326.68171247026, 12281.9483020244, 3401.264953764076, -17918.968846675023, -33147.77113768711, 0.06, -0.006, 1.03, 192.0, 0.0, 0.0, 0.0, 0.0, 0.0, 0.0, 0.0, 0.0, 0.0, 1.747689476956324E9, 0.0, 2025-05-19 23:17:56.956
4.0, 24011.339129369157, 20148.398893880712, 48774.59094221484, 33036.63826425532, 47780.60886628734, 9335.742513625923, 10476.866123302714, 3727.622774556014, 0.0, 0.0, 12447.50767320486, -19316.690482698737, 12292.297159707208, 3423.39318077483, -17898.226427820497, -33129.17448630029, 0.06, -0.008, 1.034, 192.0, 0.5, 112.0, 127.5, 96.0, 16.0, 40.0, 0.0, 0.0, 0.0, 1.747689476963455E9, 0.0, 2025-05-19 23:17:56.963
6.0, 24006.33233861117, 20144.04030371193, 48777.295503293935, 33021.05909836997, 47764.60501725734, 9327.070036777262, 10455.430800370073, 3716.9386407063776, 0.0, 0.0, 12437.874071344624, -19326.949933403725, 12291.71601435137, 3411.122073068866, -17915.951361173557, -33137.77990791558, 0.06, -0.008, 1.034, 192.0, 0.0, 0.0, 0.0, 0.0, 0.0, 0.0, 0.0, 0.0, 0.0, 1.747689476971367E9, 0.0, 2025-05-19 23:17:56.971
8.0, 24018.826963761683, 20153.159815449693, 48785.02920687547, 33038.02407241155, 47778.75367149755, 9329.215804244972, 10492.713510121526, 3731.6460885579695, 0.0, 0.0, 12454.347307008185, -19314.388253019843, 12290.732537595337, 3415.547718471017, -17905.088413368274, -33136.28234103708, 0.06, -0.008, 1.034, 192.0, 0.0, 0.0, 0.0, 0.0, 0.0, 0.0, 0.0, 0.0, 0.0, 1.747689476980459E9, 0.0, 2025-05-19 23:17:56.980
10.0, 24002.867818220595, 20136.41835885267, 48772.64634044723, 33025.50709551658, 47779.11129940883, 9328.679362378045, 10447.630041555172, 3713.205899382341, 0.0, 0.0, 12447.93235634951, -19322.412529279296, 12302.556610412194, 3424.2648988085866, -17905.088413368274, -33128.01219558861, 0.06, -0.008, 1.034, 192.0, 0.0, 0.0, 0.0, 0.0, 0.0, 0.0, 0.0, 0.0, 0.0, 1.747689476988406E9, 0.0, 2025-05-19 23:17:56.988
12.0, 24003.828943232173, 20139.882879243243, 48773.13807882525, 33020.03091812503, 47778.48545056408, 9327.740589110923, 10468.126591220689, 3730.550853079659, 0.0, 0.0, 12434.45425444296, -19333.76721546259, 12278.170857211455, 3397.643971162316, -17927.12723340121, -33150.09571911046, 0.06, -0.008, 1.034, 192.0, 0.0, 0.0, 0.0, 0.0, 0.0, 0.0, 0.0, 0.0, 0.0, 1.747689476995446E9, 0.0, 2025-05-19 23:17:56.995
14.0, 24013.32843462568, 20149.494129359024, 48782.59286672984, 33045.37779633734, 47793.70698853815, 9346.717220153478, 10481.112954749222, 3733.456579858849, 0.0, 0.0, 12445.786588881801, -19315.617598964884, 12295.359348697586, 3428.355268043908, -17898.53935224287, -33123.60890193092, 0.064, -0.004, 1.03, 192.0, 1.0, 0.0, 127.5, 112.0, 16.0, 24.0, 0.0, 0.0, 0.0, 1.747689477003511E9, 0.0, 2025-05-19 23:17:57.003
16.0, 24007.5169810673, 20139.771120520963, 48771.57345671338, 33020.232083825125, 47782.39700584376, 9335.451940948004, 10450.468713100996, 3719.2185186408187, 0.0, 0.0, 12441.36094347965, -19326.34643630343, 12296.275770220253, 3410.451520735207, -17917.717148985525, -33136.79643115955, 0.064, -0.004, 1.03, 192.0, 0.0, 0.0, 0.0, 0.0, 0.0, 0.0, 0.0, 0.0, 0.0, 1.747689477011526E9, 0.0, 2025-05-19 23:17:57.011
18.0, 24015.451850348934, 20150.008219481497, 48775.59677071533, 33035.76654622156, 47803.809977031946, 9344.32558349676, 10493.40641419964, 3734.015373470232, 0.0, 0.0, 12441.56210917975, -19321.384349034353, 12285.278711948242, 3413.357247514397, -17908.664692481125, -33136.774079415096, 0.064, -0.004, 1.03, 192.0, 0.0, 0.0, 0.0, 0.0, 0.0, 0.0, 0.0, 0.0, 0.0, 1.747689477019549E9, 0.0, 2025-05-19 23:17:57.019
20.0, 24009.305120623725, 20144.576745578855, 48777.11668933829, 33033.3972613093, 47785.0792151784, 9356.641394691635, 10454.424971869585, 3714.3905418384725, 0.0, 0.0, 12445.69718190398, -19316.33285478745, 12303.271866234763, 3427.036515121045, -17903.21086683403, -33124.59237868695, 0.064, -0.004, 1.03, 192.0, 0.0, 0.0, 0.0, 0.0, 0.0, 0.0, 0.0, 0.0, 0.0, 1.747689477027626E9, 0.0, 2025-05-19 23:17:57.027
22.0, 24022.023263218794, 20156.199652695617, 48779.28480855046, 33026.84820018389, 47796.83623276189, 9346.784275386844, 10479.1236494927, 3730.59555656857, 0.0, 0.0, 12441.383295224106, -19323.843040924436, 12287.782107327237, 3400.8402706194247, -17923.886230455188, -33146.407681275334, 0.064, -0.004, 1.03, 192.0, 0.0, 0.0, 0.0, 0.0, 0.0, 0.0, 0.0, 0.0, 0.0, 1.747689477035588E9, 0.0, 2025-05-19 23:17:57.035
24.0, 24016.927065482985, 20143.74973103401, 48768.980654356565, 33029.91038917427, 47799.31727639643, 9354.316813268282, 10476.240274457965, 3721.073713430609, 0.0, 0.0, 12450.32399300623, -19317.048110610023, 12297.505116165295, 3420.420398762274, -17904.708433712534, -33133.17544855779, 0.062, -0.008, 1.03, 192.0, 0.5, 120.0, 127.5, 96.0, 16.0, 24.0, 0.0, 0.0, 0.0, 1.747689477043666E9, 0.0, 2025-05-19 23:17:57.043
26.0, 24004.968882199395, 20130.875126227755, 48761.53752345294, 33009.43619125321, 47795.31631413893, 9351.254624277904, 10451.563948579305, 3717.49743431776, 0.0, 0.0, 12428.866318329136, -19335.600058507927, 12286.977444526845, 3393.8218228604583, -17935.598544549768, -33153.91786741232, 0.062, -0.008, 1.03, 192.0, 0.0, 0.0, 0.0, 0.0, 0.0, 0.0, 0.0, 0.0, 0.0, 1.747689477051672E9, 0.0, 2025-05-19 23:17:57.051
28.0, 24037.37891165959, 20161.98875450954, 48769.45004099012, 33025.93177866123, 47821.020820262536, 9361.223502304972, 10497.988521812978, 3731.7131437913354, 0.0, 0.0, 12438.008181811356, -19332.292000328544, 12278.439078144918, 3395.677017650249, -17925.07087291132, -33154.119033112416, 0.062, -0.008, 1.03, 192.0, 0.0, 0.0, 0.0, 0.0, 0.0, 0.0, 0.0, 0.0, 0.0, 1.747689477059746E9, 0.0, 2025-05-19 23:17:57.059
30.0, 24003.35955659861, 20131.5009750725, 48767.438383989145, 33023.89776991579, 47810.783721302, 9368.644281464134, 10461.063439972811, 3723.040666942676, 0.0, 0.0, 12449.496978461382, -19321.67492171227, 12305.127061024556, 3417.4029132608075, -17909.35759655924, -33132.46019273522, 0.062, -0.008, 1.03, 192.0, 0.0, 0.0, 0.0, 0.0, 0.0, 0.0, 0.0, 0.0, 0.0, 1.747689477067782E9, 0.0, 2025-05-19 23:17:57.067
32.0, 23995.759963483808, 20124.08019591334, 48760.12936355226, 33008.87739764183, 47807.855642778355, 9365.000947117918, 10477.134344236178, 3726.1028559330534, 0.0, 0.0, 12423.501899659861, -19345.68069525727, 12269.028993729235, 3388.323293724453, -17931.865803225734, -33158.008236647634, 0.062, -0.008, 1.03, 192.0, 0.0, 0.0, 0.0, 0.0, 0.0, 0.0, 0.0, 0.0, 0.0, 1.747689477075886E9, 0.0, 2025-05-19 23:17:57.075
34.0, 23979.13026560906, 20112.814916707866, 48758.02829957346, 33024.50126701609, 47817.55629987196, 9361.5587784718, 10480.129477993189, 3724.649992543458, 0.0, 0.0, 12423.591306637682, -19337.365846319895, 12272.851142031092, 3408.86454687888, -17912.352730316252, -33142.630236462384, 0.058, -0.002, 1.032, 192.0, 0.5, 104.0, 127.5, 120.0, 16.0, 32.0, 0.0, 0.0, 0.0, 1.747689477083834E9, 0.0, 2025-05-19 23:17:57.083
36.0, 23958.678419432454, 20091.513704241956, 48746.27128198997, 32999.467313226145, 47796.880936250804, 9353.869778379176, 10441.349201363231, 3706.3215620901065, 0.0, 0.0, 12417.377521679107, -19342.8643754559, 12274.527522865239, 3394.6264856608495, -17933.050445681863, -33151.66034122233, 0.058, -0.002, 1.032, 192.0, 0.0, 0.0, 0.0, 0.0, 0.0, 0.0, 0.0, 0.0, 0.0, 1.747689477091889E9, 0.0, 2025-05-19 23:17:57.091
38.0, 23972.469445761377, 20109.75272771749, 48757.26834026198, 33025.596502494394, 47813.98002075911, 9376.199171090027, 10488.69019611957, 3726.8181117556232, 0.0, 0.0, 12411.253143698352, -19344.853680712426, 12256.959051723368, 3386.646912890305, -17934.6821230271, -33162.54564077206, 0.058, -0.002, 1.032, 192.0, 0.0, 0.0, 0.0, 0.0, 0.0, 0.0, 0.0, 0.0, 0.0, 1.747689477098821E9, 0.0, 2025-05-19 23:17:57.098
40.0, 23961.003000855806, 20102.6448729807, 48758.05065131791, 33023.4954385156, 47813.35417191436, 9392.113613142206, 10454.872006758691, 3716.893937217467, 0.0, 0.0, 12424.574783393715, -19324.82651768047, 12288.452659660896, 3413.9160411257794, -17917.046596651864, -33133.8683526359, 0.058, -0.002, 1.032, 192.0, 0.0, 0.0, 0.0, 0.0, 0.0, 0.0, 0.0, 0.0, 0.0, 1.747689477106922E9, 0.0, 2025-05-19 23:17:57.106
42.0, 23968.803759670707, 20105.08121312633, 48757.156581539704, 33016.3428802899, 47809.57672710142, 9385.832772950265, 10474.452134901541, 3730.3943908684723, 0.0, 0.0, 12409.26383844183, -19337.25408759762, 12263.686926804416, 3380.7907558430143, -17944.852166754266, -33160.80220470455, 0.058, -0.002, 1.032, 192.0, 0.0, 0.0, 0.0, 0.0, 0.0, 0.0, 0.0, 0.0, 0.0, 1.747689477115961E9, 0.0, 2025-05-19 23:17:57.115
44.0, 23982.125399366072, 20122.180297634637, 48768.332453767354, 33040.75098523509, 47837.27053848154, 9415.940572731564, 10496.088623534277, 3741.4138008849386, 0.0, 0.0, 12429.447463684972, -19318.411567021798, 12285.502229392796, 3416.710009182693, -17908.240009336474, -33130.31442526751, 0.06, 0.0, 1.03, 192.0, 0.5, 112.0, 0.0, 0.0, 16.0, 24.0, 0.0, 0.0, 0.0, 1.747689477123017E9, 0.0, 2025-05-19 23:17:57.123
46.0, 23976.559814996697, 20112.703157985587, 48762.208075786606, 33017.92985414623, 47813.35417191436, 9390.660749752611, 10466.003175497435, 3738.530425850204, 0.0, 0.0, 12424.50772816035, -19329.408625293807, 12287.402127671496, 3404.193032287721, -17925.69672175607, -33139.322178283, 0.06, 0.0, 1.03, 192.0, 0.0, 0.0, 0.0, 0.0, 0.0, 0.0, 0.0, 0.0, 0.0, 1.747689477131012E9, 0.0, 2025-05-19 23:17:57.131
48.0, 23990.775524470275, 20129.51166981598, 48774.88151489276, 33043.94728469221, 47829.22391047763, 9410.822023251298, 10517.523946466918, 3763.8773040625224, 0.0, 0.0, 12426.049998527766, -19325.497070014128, 12275.71216532137, 3410.473872479662, -17912.039805893877, -33136.975245115194, 0.06, 0.0, 1.03, 192.0, 0.0, 0.0, 0.0, 0.0, 0.0, 0.0, 0.0, 0.0, 0.0, 1.747689477140062E9, 0.0, 2025-05-19 23:17:57.140
50.0, 23982.281861577256, 20115.966512676063, 48767.147811311224, 33038.6499212563, 47826.720515098634, 9415.582944820278, 10470.227655199487, 3737.7704665387237, 0.0, 0.0, 12437.382332966607, -19308.28622678354, 12304.568267413171, 3431.1492361008213, -17899.791049932366, -33115.62932916037, 0.06, 0.0, 1.03, 192.0, 0.0, 0.0, 0.0, 0.0, 0.0, 0.0, 0.0, 0.0, 0.0, 1.747689477148105E9, 0.0, 2025-05-19 23:17:57.148
52.0, 23992.07192564868, 20123.11907090176, 48764.37619499877, 33024.702432716185, 47826.452294165174, 9396.159278888617, 10474.206265712532, 3734.2835944036956, 0.0, 0.0, 12421.93727754799, -19329.453328782718, 12275.779220554736, 3391.1396135258215, -17934.771530004924, -33151.07919586649, 0.06, 0.0, 1.03, 192.0, 0.0, 0.0, 0.0, 0.0, 0.0, 0.0, 0.0, 0.0, 0.0, 1.747689477155098E9, 0.0, 2025-05-19 23:17:57.155
54.0, 23993.837713460653, 20125.35424534729, 48768.354805511815, 33040.77333697955, 47841.5397216725, 9409.637380795168, 10486.097393762755, 3732.763675780735, 0.0, 0.0, 12435.46008294345, -19317.651607710315, 12288.586770127627, 3415.0783318374556, -17909.871686681712, -33133.73424216917, 0.058, -0.004, 1.024, 192.0, 0.5, 104.0, 127.5, 112.0, 16.0, 0.0, 0.0, 0.0, 0.0, 1.747689477163053E9, 0.0, 2025-05-19 23:17:57.163
56.0, 23986.238120345846, 20117.955817932587, 48765.94081711064, 33027.78697345102, 47828.59806163288, 9406.061101682319, 10455.095524203245, 3730.304983890651, 0.0, 0.0, 12428.016952039832, -19324.848869424924, 12291.0007585288, 3404.260087521087, -17927.104881656753, -33138.69632943825, 0.058, -0.004, 1.024, 192.0, 0.0, 0.0, 0.0, 0.0, 0.0, 0.0, 0.0, 0.0, 0.0, 1.74768947717216E9, 0.0, 2025-05-19 23:17:57.172
58.0, 24003.47131532089, 20135.36782686327, 48782.056424862916, 33053.37972085235, 47848.71463164266, 9411.492575584958, 10508.762062640437, 3749.683946333402, 0.0, 0.0, 12435.057751543254, -19309.515572728586, 12286.731575337837, 3408.3728085008634, -17915.034939650886, -33134.4718497362, 0.058, -0.004, 1.024, 192.0, 0.0, 0.0, 0.0, 0.0, 0.0, 0.0, 0.0, 0.0, 0.0, 1.747689477179178E9, 0.0, 2025-05-19 23:17:57.179
60.0, 24004.745364754843, 20134.473757085056, 48780.13417483976, 33051.7033400182, 47844.4454484517, 9429.217508938016, 10472.105201733733, 3737.4798938608046, 0.0, 0.0, 12445.071333059232, -19305.380500004354, 12310.983218071846, 3428.9140616552904, -17902.62972147819, -33116.99278557215, 0.058, -0.004, 1.024, 192.0, 0.0, 0.0, 0.0, 0.0, 0.0, 0.0, 0.0, 0.0, 0.0, 1.747689477187204E9, 0.0, 2025-05-19 23:17:57.187
62.0, 24016.636492805064, 20146.029608968453, 48786.437366776154, 33054.8549359864, 47863.578541705436, 9429.038694982373, 10498.74848112446, 3758.825809815623, 0.0, 0.0, 12439.773969623324, -19307.01217734959, 12296.454584175895, 3410.8538521354026, -17918.186535619086, -33129.88974212286, 0.058, -0.004, 1.024, 192.0, 0.0, 0.0, 0.0, 0.0, 0.0, 0.0, 0.0, 0.0, 0.0, 1.747689477195268E9, 0.0, 2025-05-19 23:17:57.195
64.0, 24008.008719445315, 20140.575783321357, 48786.102090609325, 33069.808253027, 47860.87398062635, 9444.170825978617, 10510.438443474584, 3761.3068534501617, 0.0, 0.0, 12453.833216885712, -19283.81106660498, 12315.475918707361, 3448.2706723535866, -17882.49079972396, -33097.680878362764, 0.06, 0.0, 1.026, 192.0, 0.5, 112.0, 0.0, 0.0, 16.0, 8.0, 0.0, 0.0, 0.0, 1.747689477204291E9, 0.0, 2025-05-19 23:17:57.204
66.0, 23987.93685292445, 20113.88780044172, 48764.80087814342, 33030.782107208026, 47838.18696000421, 9416.208793665028, 10461.443419628551, 3736.4517136158606, 0.0, 0.0, 12425.357094449651, -19318.366863532887, 12294.755851597292, 3418.7216661836705, -17919.170012375118, -33123.1171635529, 0.06, 0.0, 1.026, 192.0, 0.0, 0.0, 0.0, 0.0, 0.0, 0.0, 0.0, 0.0, 0.0, 1.747689477211308E9, 0.0, 2025-05-19 23:17:57.211
68.0, 24010.109783424115, 20138.005332708995, 48780.53650623996, 33054.273790630556, 47864.58437020593, 9438.985221264986, 10514.506460965451, 3762.0668127616423, 0.0, 0.0, 12433.493129431383, -19312.354244274407, 12287.558589882683, 3419.4145702617852, -17907.10007036925, -33123.81006763101, 0.06, 0.0, 1.026, 192.0, 0.0, 0.0, 0.0, 0.0, 0.0, 0.0, 0.0, 0.0, 0.0, 1.74768947721933E9, 0.0, 2025-05-19 23:17:57.219
70.0, 23993.03305066026, 20117.30761734338, 48774.6132939593, 33043.32143584746, 47866.12664057334, 9455.033773783896, 10480.55416113784, 3746.9346817653995, 0.0, 0.0, 12434.409550954051, -19315.818764664982, 12302.333092967641, 3433.4961692686284, -17897.68998595357, -33110.91311108031, 0.06, 0.0, 1.026, 192.0, 0.0, 0.0, 0.0, 0.0, 0.0, 0.0, 0.0, 0.0, 0.0, 1.747689477227367E9, 0.0, 2025-05-19 23:17:57.227
72.0, 23988.473294791376, 20115.87710569824, 48774.59094221484, 33036.5488572775, 47875.112041844375, 9437.241785197471, 10497.921466579613, 3754.64603360248, 0.0, 0.0, 12426.385274694596, -19319.77502343357, 12282.887075291525, 3411.3008870245085, -17916.510154784937, -33130.15796305632, 0.06, 0.0, 1.026, 192.0, 0.0, 0.0, 0.0, 0.0, 0.0, 0.0, 0.0, 0.0, 0.0, 1.747689477235391E9, 0.0, 2025-05-19 23:17:57.235
74.0, 23971.88830040554, 20099.113297356762, 48767.17016305568, 33038.11347938937, 47883.56100124848, 9445.958965535041, 10509.611428929738, 3747.6722893324245, 0.0, 0.0, 12426.787606094791, -19319.86443041139, 12283.401165413996, 3425.2036720757096, -17899.478125509995, -33124.1676955423, 0.056, -0.002, 1.032, 192.0, 0.5, 96.0, 127.5, 120.0, 16.0, 32.0, 0.0, 0.0, 0.0, 1.747689477244435E9, 0.0, 2025-05-19 23:17:57.244
76.0, 23933.867983087064, 20067.172654530128, 48754.6084826718, 33012.878359899325, 47867.423041751754, 9429.10575021574, 10485.650358873649, 3745.6829840759024, 0.0, 0.0, 12411.677826843004, -19337.25408759762, 12275.689813576915, 3406.517613711073, -17920.801689720356, -33140.75268992814, 0.056, -0.002, 1.032, 192.0, 0.0, 0.0, 0.0, 0.0, 0.0, 0.0, 0.0, 0.0, 0.0, 1.747689477250463E9, 0.0, 2025-05-19 23:17:57.250
78.0, 23905.660081584465, 20040.976410028507, 48752.88739834874, 33017.77339193504, 47871.58046622044, 9427.205851937038, 10526.956382627057, 3752.4108591569498, 0.0, 0.0, 12396.657454569036, -19345.09954990143, 12251.929909220924, 3398.2251165181538, -17918.745329230467, -33151.57093424451, 0.056, -0.002, 1.032, 192.0, 0.0, 0.0, 0.0, 0.0, 0.0, 0.0, 0.0, 0.0, 0.0, 1.747689477259492E9, 0.0, 2025-05-19 23:17:57.259
80.0, 23869.651421266964, 20015.45071786055, 48753.78146812695, 33019.00273788008, 47872.049852854, 9436.124197974706, 10493.853449088747, 3735.825864771112, 0.0, 0.0, 12397.126841202598, -19342.663209755803, 12266.749115794793, 3414.1619103147877, -17911.704529727045, -33138.51751548261, 0.056, -0.002, 1.032, 192.0, 0.0, 0.0, 0.0, 0.0, 0.0, 0.0, 0.0, 0.0, 0.0, 1.747689477267522E9, 0.0, 2025-05-19 23:17:57.267
82.0, 23852.887612925486, 20003.850162488245, 48760.55404669691, 33012.319566287944, 47875.69318720022, 9436.794750308365, 10518.619181945227, 3750.712126578346, 0.0, 0.0, 12384.632216052081, -19354.420227339295, 12243.927984705924, 3391.966628070668, -17928.468338068527, -33158.432919792285, 0.056, -0.002, 1.032, 192.0, 0.0, 0.0, 0.0, 0.0, 0.0, 0.0, 0.0, 0.0, 0.0, 1.747689477275576E9, 0.0, 2025-05-19 23:17:57.275
84.0, 23848.461967523333, 20006.040633444863, 48761.917503108685, 33033.77724096504, 47897.73200723315, 9467.595454167778, 10533.103112352266, 3753.0590597461537, 0.0, 0.0, 12404.994655250866, -19335.533003274562, 12265.89974950549, 3429.450503522218, -17891.655014950637, -33127.83338163297, 0.061, -0.003, 1.033, 192.0, 1.0, 8.0, 127.5, 112.0, 16.0, 40.0, 0.0, 0.0, 0.0, 1.747689477282585E9, 0.0, 2025-05-19 23:17:57.282
86.0, 23818.398871230947, 19981.27490058838, 48749.91461633619, 33010.10674358687, 47865.321977772954, 9444.506102145446, 10485.136268751177, 3730.7743705242124, 0.0, 0.0, 12386.398003864051, -19344.9654394347, 12259.75301978028, 3405.24356427712, -17925.853183967254, -33144.44072776326, 0.061, -0.003, 1.033, 192.0, 0.0, 0.0, 0.0, 0.0, 0.0, 0.0, 0.0, 0.0, 0.0, 1.74768947729162E9, 0.0, 2025-05-19 23:17:57.291
88.0, 23811.4698304498, 19976.536330763858, 48747.81355235739, 33016.85697041237, 47882.26460007008, 9436.30301193035, 10521.100225579767, 3733.12130369202, 0.0, 0.0, 12382.218227650908, -19353.839081983457, 12240.195243381888, 3391.899572837302, -17929.54122180238, -33160.46692853772, 0.061, -0.003, 1.033, 192.0, 0.0, 0.0, 0.0, 0.0, 0.0, 0.0, 0.0, 0.0, 0.0, 1.747689477299573E9, 0.0, 2025-05-19 23:17:57.299
90.0, 23810.57576067159, 19979.933795921064, 48756.32956699486, 33022.35549954838, 47886.98081815014, 9455.234939483993, 10492.534696165883, 3727.399257111461, 0.0, 0.0, 12391.337739388675, -19342.372637077886, 12266.592653583606, 3411.8149771469807, -17920.220544364518, -33142.58553297348, 0.061, -0.003, 1.033, 192.0, 0.0, 0.0, 0.0, 0.0, 0.0, 0.0, 0.0, 0.0, 0.0, 1.747689477306646E9, 0.0, 2025-05-19 23:17:57.306
92.0, 23809.547580426646, 19981.163141866105, 48750.31694773638, 33016.72285994564, 47883.851573926404, 9459.146494763672, 10508.963228340535, 3744.1630654529413, 0.0, 0.0, 12382.285282884275, -19346.77593073558, 12250.253528386776, 3395.2970379945086, -17932.759873003946, -33154.99075114617, 0.061, -0.003, 1.033, 192.0, 0.0, 0.0, 0.0, 0.0, 0.0, 0.0, 0.0, 0.0, 0.0, 1.747689477315682E9, 0.0, 2025-05-19 23:17:57.315
94.0, 23824.14326955596, 19998.888075219165, 48769.181820056656, 33043.74611899211, 47903.16348113579, 9495.021044614441, 10525.570574470828, 3751.4497341453716, 0.0, 0.0, 12393.930541745489, -19333.45429104022, 12262.792857026203, 3423.6614017082934, -17905.177820346096, -33131.23084679018, 0.0645, -0.0045000000000000005, 1.0345, 192.0, 1.0, 16.0, 127.5, 104.0, 16.0, 48.0, 0.0, 0.0, 0.0, 1.7476894773237E9, 0.0, 2025-05-19 23:17:57.323
96.0, 23836.973170873305, 20010.309816635825, 48775.686177693155, 33040.840392212915, 47896.74853047711, 9479.844210129288, 10495.932161323091, 3747.761696310246, 0.0, 0.0, 12402.379501149595, -19325.45236652522, 12279.981348512334, 3423.3037737970085, -17912.799765205356, -33127.56516069951, 0.0645, -0.0045000000000000005, 1.0345, 192.0, 0.0, 0.0, 0.0, 0.0, 0.0, 0.0, 0.0, 0.0, 0.0, 1.747689477330751E9, 0.0, 2025-05-19 23:17:57.330
98.0, 23839.76713893022, 20018.758776039933, 48758.85531411831, 33030.715051974665, 47906.82916722646, 9476.290282760892, 10517.255725533454, 3741.0338212291986, 0.0, 0.0, 12400.233733681885, -19330.190936349743, 12260.401220369486, 3411.747921913615, -17912.30802682734, -33140.21624806121, 0.0645, -0.0045000000000000005, 1.0345, 192.0, 0.0, 0.0, 0.0, 0.0, 0.0, 0.0, 0.0, 0.0, 0.0, 1.747689477338716E9, 0.0, 2025-05-19 23:17:57.338
100.0, 23844.930391899397, 20024.324360409304, 48763.50447696501, 33034.31368283197, 47902.872908457866, 9492.383538768714, 10484.018681528412, 3728.7403617787795, 0.0, 0.0, 12408.012140752333, -19324.871221169382, 12281.925950279947, 3427.4388465212405, -17905.557800001836, -33126.08994556546, 0.0645, -0.0045000000000000005, 1.0345, 192.0, 0.0, 0.0, 0.0, 0.0, 0.0, 0.0, 0.0, 0.0, 0.0, 1.747689477347812E9, 0.0, 2025-05-19 23:17:57.347
102.0, 23856.86622343853, 20037.221316960015, 48756.75425013951, 33030.82681069694, 47903.834033469444, 9479.173657795627, 10494.814574100325, 3744.0289549862096, 0.0, 0.0, 12391.605960322138, -19330.235639838655, 12259.685964546916, 3403.4554247206956, -17928.31187585734, -33142.83140216248, 0.0645, -0.0045000000000000005, 1.0345, 192.0, 0.0, 0.0, 0.0, 0.0, 0.0, 0.0, 0.0, 0.0, 0.0, 1.747689477355846E9, 0.0, 2025-05-19 23:17:57.355
104.0, 23890.840875010595, 20064.98218357351, 48777.83194516086, 33056.3525028649, 47919.81553075499, 9508.856774432275, 10502.525925937405, 3747.471123632327, 0.0, 0.0, 12408.235658196887, -19316.98105537666, 12275.533351365728, 3433.0491343795225, -17901.53448599988, -33117.8645036059, 0.06225, -0.00425, 1.03325, 192.0, 0.5, 112.0, 127.5, 112.0, 16.0, 32.0, 0.0, 0.0, 0.0, 1.747689477362871E9, 0.0, 2025-05-19 23:17:57.362
106.0, 23909.81750605315, 20085.009346605464, 48783.82221267489, 33046.4506800712, 47916.75334176461, 9505.436957530614, 10493.093489777266, 3752.2320452013073, 0.0, 0.0, 12418.249239712864, -19315.55054373152, 12291.470145162362, 3430.322221555975, -17907.323587813808, -33117.193951272246, 0.06225, -0.00425, 1.03325, 192.0, 0.0, 0.0, 0.0, 0.0, 0.0, 0.0, 0.0, 0.0, 0.0, 1.747689477370927E9, 0.0, 2025-05-19 23:17:57.370
108.0, 23937.466613944365, 20106.08704162682, 48791.42180578969, 33065.09203494692, 47937.16048445231, 9504.095852863295, 10535.830025175814, 3767.051251775176, 0.0, 0.0, 12431.79439685278, -19297.49033421163, 12291.537200395727, 3433.876148924369, -17893.376099273693, -33115.025832060084, 0.06225, -0.00425, 1.03325, 192.0, 0.0, 0.0, 0.0, 0.0, 0.0, 0.0, 0.0, 0.0, 0.0, 1.747689477379924E9, 0.0, 2025-05-19 23:17:57.379
110.0, 23940.573506423654, 20106.668186982657, 48785.99033188705, 33063.39330236832, 47933.78537103956, 9524.16771938416, 10497.809707857336, 3747.493475376782, 0.0, 0.0, 12430.855623585658, -19290.91892134177, 12311.497308194317, 3453.188056133754, -17884.34599451375, -33096.80916032901, 0.06225, -0.00425, 1.03325, 192.0, 0.0, 0.0, 0.0, 0.0, 0.0, 0.0, 0.0, 0.0, 0.0, 1.747689477386958E9, 0.0, 2025-05-19 23:17:57.386
112.0, 23968.244966059327, 20123.27553311295, 48796.85327969233, 33052.91033421878, 47946.74938282363, 9506.59924824229, 10514.46175747654, 3752.947301023877, 0.0, 0.0, 12431.593231152681, -19304.709947670694, 12296.186363242432, 3422.2755935520645, -17909.44700353706, -33122.424259474785, 0.06225, -0.00425, 1.03325, 192.0, 0.0, 0.0, 0.0, 0.0, 0.0, 0.0, 0.0, 0.0, 0.0, 1.747689477394995E9, 0.0, 2025-05-19 23:17:57.394
114.0, 23981.678364476964, 20142.27451589996, 48801.055407649925, 33075.12796820736, 47953.49960964914, 9532.5496235549, 10526.218775060031, 3750.4886091337935, 0.0, 0.0, 12450.122827306132, -19288.43787770723, 12313.508965195295, 3448.3377275869525, -17881.68613692357, -33102.79942784303, 0.057125, -0.006125, 1.031625, 192.0, 0.5, 80.0, 127.5, 96.0, 16.0, 24.0, 0.0, 0.0, 0.0, 1.747689477403022E9, 0.0, 2025-05-19 23:17:57.403
116.0, 23986.79691395723, 20139.637010054234, 48793.455814535126, 33055.12315691986, 47952.40437417083, 9528.191033386116, 10497.452079946052, 3748.4769521328158, 0.0, 0.0, 12441.629164413114, -19290.270720752564, 12316.504098952306, 3430.5904424894384, -17901.467430766515, -33111.96364306971, 0.057125, -0.006125, 1.031625, 192.0, 0.0, 0.0, 0.0, 0.0, 0.0, 0.0, 0.0, 0.0, 0.0, 1.747689477412036E9, 0.0, 2025-05-19 23:17:57.412
118.0, 24000.543236797243, 20152.668077071678, 48802.105939639325, 33066.14256693632, 47951.934987537265, 9518.69154199261, 10536.925260654123, 3759.0493272601757, 0.0, 0.0, 12443.260841758352, -19295.121049299367, 12300.835526089137, 3427.5282534990615, -17894.0242998629, -33118.445648961744, 0.057125, -0.006125, 1.031625, 192.0, 0.0, 0.0, 0.0, 0.0, 0.0, 0.0, 0.0, 0.0, 0.0, 1.747689477419059E9, 0.0, 2025-05-19 23:17:57.419
120.0, 24006.779373500274, 20155.864376528785, 48798.30614308192, 33070.411750127285, 47954.617196871906, 9537.958745713086, 10512.114824308734, 3743.179588696908, 0.0, 0.0, 12452.626222685127, -19277.373764201853, 12325.131872312055, 3446.3931258193406, -17887.20701780403, -33099.13374175236, 0.057125, -0.006125, 1.031625, 192.0, 0.0, 0.0, 0.0, 0.0, 0.0, 0.0, 0.0, 0.0, 0.0, 1.747689477427111E9, 0.0, 2025-05-19 23:17:57.427
122.0, 24018.04465270575, 20161.6087748538, 48799.53548902697, 33062.18630816774, 47962.52971440908, 9532.415513088168, 10526.934030882601, 3757.015318514743, 0.0, 0.0, 12440.51157719035, -19292.90822659829, 12304.657674390994, 3422.3202970409748, -17907.234180835985, -33118.9150355953, 0.057125, -0.006125, 1.031625, 192.0, 0.0, 0.0, 0.0, 0.0, 0.0, 0.0, 0.0, 0.0, 0.0, 1.747689477436129E9, 0.0, 2025-05-19 23:17:57.436
124.0, 24031.38864414557, 20179.80309484042, 48812.61125953332, 33085.63328810135, 47971.91744708031, 9558.209426189593, 10538.176958343622, 3757.3729464260277, 0.0, 0.0, 12469.412382771061, -19270.08709550942, 12330.093959581132, 3453.6350910228603, -17878.936872355567, -33094.529282394564, 0.0565625, -0.0070625, 1.0318125, 192.0, 0.5, 96.0, 127.5, 96.0, 16.0, 32.0, 0.0, 0.0, 0.0, 1.74768947744315E9, 0.0, 2025-05-19 23:17:57.443
126.0, 24033.109728468626, 20172.002336025518, 48808.34207634236, 33065.27084890257, 47964.943702810255, 9540.909175981185, 10497.094452034766, 3739.4915508617823, 0.0, 0.0, 12455.75546690887, -19296.171581288767, 12325.847128134625, 3433.2726518240756, -17902.58501798928, -33112.05305004752, 0.0565625, -0.0070625, 1.0318125, 192.0, 0.0, 0.0, 0.0, 0.0, 0.0, 0.0, 0.0, 0.0, 0.0, 1.747689477451188E9, 0.0, 2025-05-19 23:17:57.451
128.0, 24069.14074053058, 20202.42306022919, 48828.01161146303, 33094.93161379476, 47985.9766943427, 9557.98590874504, 10545.150702613677, 3763.2961587066843, 0.0, 0.0, 12479.560074753772, -19257.704229081184, 12336.151282328521, 3448.2930240980418, -17885.575340458792, -33100.67601211977, 0.0565625, -0.0070625, 1.0318125, 192.0, 0.0, 0.0, 0.0, 0.0, 0.0, 0.0, 0.0, 0.0, 0.0, 1.747689477461288E9, 0.0, 2025-05-19 23:17:57.461
130.0, 24056.355542702146, 20192.476533946578, 48809.5714222874, 33078.72659906466, 47989.64238043337, 9571.016975762484, 10493.115841521721, 3739.8715305175224, 0.0, 0.0, 12484.477458533938, -19259.402961659787, 12354.524416270784, 3462.531085316072, -17880.25562527843, -33088.047276502526, 0.0565625, -0.0070625, 1.0318125, 192.0, 0.0, 0.0, 0.0, 0.0, 0.0, 0.0, 0.0, 0.0, 0.0, 1.747689477468285E9, 0.0, 2025-05-19 23:17:57.468
132.0, 24034.696702324953, 20164.98388826655, 48790.12540461128, 33043.38849108082, 47975.89605759335, 9537.422303846157, 10518.842699389781, 3739.1562746949526, 0.0, 0.0, 12447.574728438227, -19291.030680064046, 12312.883116350546, 3421.3144685404864, -17912.039805893877, -33124.815896131506, 0.0565625, -0.0070625, 1.0318125, 192.0, 0.0, 0.0, 0.0, 0.0, 0.0, 0.0, 0.0, 0.0, 0.0, 1.74768947747528E9, 0.0, 2025-05-19 23:17:57.475
134.0, 24058.031923536295, 20188.09559203334, 48809.459663565125, 33078.01134324209, 48007.814348675536, 9570.391126917735, 10546.04477239189, 3747.828751543612, 0.0, 0.0, 12456.336612264708, -19292.640005664827, 12315.900601852012, 3440.1793408607655, -17888.25754979343, -33113.617672159395, 0.055281250000000004, -0.0045312500000000006, 1.0309062500000001, 192.0, 0.5, 88.0, 127.5, 120.0, 16.0, 24.0, 0.0, 0.0, 0.0, 1.747689477483303E9, 0.0, 2025-05-19 23:17:57.483
136.0, 24059.440083436977, 20179.400763440226, 48809.884346709776, 33059.21352615518, 47991.89990662336, 9563.484437881045, 10515.266420276932, 3738.1951496833744, 0.0, 0.0, 12468.071278103744, -19284.325156727453, 12334.541956727739, 3439.709954227204, -17896.840619664268, -33108.879102334875, 0.055281250000000004, -0.0045312500000000006, 1.0309062500000001, 192.0, 0.0, 0.0, 0.0, 0.0, 0.0, 0.0, 0.0, 0.0, 0.0, 1.747689477491358E9, 0.0, 2025-05-19 23:17:57.491
138.0, 24071.755894631853, 20196.05281305943, 48809.660829265216, 33071.77520653906, 48005.95915388574, 9567.664214094188, 10561.087496410311, 3745.012431742243, 0.0, 0.0, 12461.388106511606, -19293.042337065024, 12312.860764606092, 3426.388314531841, -17899.366366787715, -33125.77702114308, 0.055281250000000004, -0.0045312500000000006, 1.0309062500000001, 192.0, 0.0, 0.0, 0.0, 0.0, 0.0, 0.0, 0.0, 0.0, 0.0, 1.74768947749936E9, 0.0, 2025-05-19 23:17:57.499
140.0, 24064.737446872885, 20191.76127812401, 48795.75804421402, 33070.16588093828, 47997.71136018173, 9577.521333398978, 10524.27417329242, 3730.304983890651, 0.0, 0.0, 12475.872036918645, -19273.305746710987, 12342.543881242738, 3452.2269311221758, -17884.63656719167, -33099.49136966364, 0.055281250000000004, -0.0045312500000000006, 1.0309062500000001, 192.0, 0.0, 0.0, 0.0, 0.0, 0.0, 0.0, 0.0, 0.0, 0.0, 1.747689477507389E9, 0.0, 2025-05-19 23:17:57.507
142.0, 24063.44104569448, 20188.162647266705, 48794.059311635414, 33054.765529008575, 47994.76092991364, 9566.904254782708, 10536.165301342644, 3730.6849635463914, 0.0, 0.0, 12439.41634171204, -19313.851811152916, 12299.382662699541, 3406.875241622358, -17925.741425244978, -33140.97620737269, 0.055281250000000004, -0.0045312500000000006, 1.0309062500000001, 192.0, 0.0, 0.0, 0.0, 0.0, 0.0, 0.0, 0.0, 0.0, 0.0, 1.747689477515421E9, 0.0, 2025-05-19 23:17:57.515
144.0, 24080.562481947243, 20204.85940037482, 48810.286678109966, 33089.32132593648, 48009.15545334285, 9584.852705580319, 10549.777513715926, 3742.821960785623, 0.0, 0.0, 12478.576597997737, -19269.818874575958, 12335.167805572488, 3449.209445620709, -17884.9718433585, -33102.017116787094, 0.057640625, -0.0032656250000000003, 1.0304531250000002, 192.0, 0.5, 112.0, 127.5, 120.0, 16.0, 24.0, 0.0, 0.0, 0.0, 1.747689477524466E9, 0.0, 2025-05-19 23:17:57.524
146.0, 24052.13106300009, 20172.024687769972, 48781.207058573615, 33043.500249803095, 47976.745423882654, 9561.472780880069, 10479.50362914844, 3712.2224226263074, 0.0, 0.0, 12447.552376693771, -19293.71288939868, 12322.360255999596, 3425.516596498084, -17916.130175129198, -33119.18325652877, 0.057640625, -0.0032656250000000003, 1.0304531250000002, 192.0, 0.0, 0.0, 0.0, 0.0, 0.0, 0.0, 0.0, 0.0, 0.0, 1.747689477530502E9, 0.0, 2025-05-19 23:17:57.530
148.0, 24069.274850997313, 20187.492094933044, 48794.81927094689, 33062.27571514556, 48009.28956380959, 9554.163760443183, 10546.335345069809, 3740.1621031954414, 0.0, 0.0, 12449.564033694749, -19310.67786344026, 12298.19802024341, 3408.931602112246, -17921.36048333174, -33140.21624806121, 0.057640625, -0.0032656250000000003, 1.0304531250000002, 192.0, 0.0, 0.0, 0.0, 0.0, 0.0, 0.0, 0.0, 0.0, 0.0, 1.747689477539508E9, 0.0, 2025-05-19 23:17:57.539
150.0, 24065.631516651098, 20183.625243142276, 48797.30031458144, 33066.9025262478, 48009.35661904295, 9572.000452518518, 10523.245993047476, 3733.9259664924107, 0.0, 0.0, 12461.678679189525, -19291.9023980978, 12328.775206658269, 3442.615681006394, -17893.666671951614, -33107.98503255666, 0.057640625, -0.0032656250000000003, 1.0304531250000002, 192.0, 0.0, 0.0, 0.0, 0.0, 0.0, 0.0, 0.0, 0.0, 0.0, 1.747689477547541E9, 0.0, 2025-05-19 23:17:57.547
152.0, 24055.41676943502, 20175.28804246045, 48790.48303252256, 33043.47789805864, 48005.66858120782, 9549.358135385291, 10534.310106552854, 3734.820036270623, 0.0, 0.0, 12445.384257481606, -19302.497124969617, 12303.562438912682, 3411.7255701691593, -17915.50432628445, -33133.51072472462, 0.057640625, -0.0032656250000000003, 1.0304531250000002, 192.0, 0.0, 0.0, 0.0, 0.0, 0.0, 0.0, 0.0, 0.0, 0.0, 1.747689477556594E9, 0.0, 2025-05-19 23:17:57.556
154.0, 24066.614993407133, 20186.59802515483, 48800.027227404986, 33066.32138089197, 48031.8871774539, 9575.532028142456, 10554.314917840353, 3739.960937495344, 0.0, 0.0, 12450.41339998405, -19301.692462169227, 12305.842316847125, 3434.8819774248577, -17888.7716399159, -33121.35137574093, 0.0598203125, -0.0026328125, 1.0302265625000002, 192.0, 0.5, 120.0, 127.5, 120.0, 16.0, 24.0, 0.0, 0.0, 0.0, 1.747689477564605E9, 0.0, 2025-05-19 23:17:57.564
156.0, 24062.636382894085, 20178.61845238429, 48798.01557040401, 33046.11540390437, 48017.20208134676, 9564.780839059453, 10511.89130686418, 3734.2612426592405, 0.0, 0.0, 12449.742847650392, -19301.91597961378, 12316.884078608045, 3429.24933782212, -17898.382890031684, -33120.01027107362, 0.0598203125, -0.0026328125, 1.0302265625000002, 192.0, 0.0, 0.0, 0.0, 0.0, 0.0, 0.0, 0.0, 0.0, 0.0, 1.747689477571627E9, 0.0, 2025-05-19 23:17:57.571
158.0, 24069.654830653053, 20186.352155965826, 48797.769701214995, 33052.73152026314, 48030.88134895341, 9575.532028142456, 10545.977717158523, 3750.1980364558744, 0.0, 0.0, 12453.319126763241, -19301.49129646913, 12301.57313365616, 3424.2425470641315, -17897.086488853274, -33130.80616364553, 0.0598203125, -0.0026328125, 1.0302265625000002, 192.0, 0.0, 0.0, 0.0, 0.0, 0.0, 0.0, 0.0, 0.0, 0.0, 1.747689477579666E9, 0.0, 2025-05-19 23:17:57.579
160.0, 24073.320516743723, 20192.118906035295, 48794.88632618026, 33064.86851750237, 48025.09224713949, 9599.738967387553, 10505.856335861246, 3736.272899660218, 0.0, 0.0, 12459.778780910825, -19294.696366154716, 12326.897660124025, 3452.2492828666313, -17885.30711952533, -33106.420410444785, 0.0598203125, -0.0026328125, 1.0302265625000002, 192.0, 0.0, 0.0, 0.0, 0.0, 0.0, 0.0, 0.0, 0.0, 0.0, 1.74768947758669E9, 0.0, 2025-05-19 23:17:57.586
162.0, 24080.696592413973, 20192.454182202124, 48785.27507606448, 33039.4992875456, 48024.64521225038, 9574.168571730683, 10476.93317853608, 3731.176701924408, 0.0, 0.0, 12442.187958024497, -19299.546694701516, 12304.545915668717, 3413.312544025486, -17926.8813642122, -33135.94706487025, 0.0598203125, -0.0026328125, 1.0302265625000002, 192.0, 0.0, 0.0, 0.0, 0.0, 0.0, 0.0, 0.0, 0.0, 0.0, 1.747689477594714E9, 0.0, 2025-05-19 23:17:57.594
164.0, 24074.125179544113, 20195.963406081606, 48808.43148332018, 33087.5108346356, 48038.32447985703, 9603.89639185624, 10545.08364738031, 3758.7811063267122, 0.0, 0.0, 12459.912891377557, -19296.01511907758, 12316.928782096957, 3446.840160708447, -17891.20798006153, -33112.567140169995, 0.06191015625, -0.00331640625, 1.0311132812500001, 192.0, 1.0, 0.0, 127.5, 112.0, 16.0, 32.0, 0.0, 0.0, 0.0, 1.747689477603734E9, 0.0, 2025-05-19 23:17:57.603
166.0, 24097.616862966643, 20212.123717322793, 48806.03984666346, 33071.01524722758, 48038.704459512766, 9605.483365712567, 10515.288772021386, 3750.8462370450784, 0.0, 0.0, 12456.090743075698, -19273.350450199898, 12339.191119574443, 3454.998547434634, -17890.939759128065, -33094.10459924991, 0.06191015625, -0.00331640625, 1.0311132812500001, 192.0, 0.0, 0.0, 0.0, 0.0, 0.0, 0.0, 0.0, 0.0, 0.0, 1.747689477610768E9, 0.0, 2025-05-19 23:17:57.610
168.0, 24108.81508693875, 20224.372473284304, 48823.80948350543, 33089.38838116985, 48039.79969499108, 9609.909011114718, 10562.13802839971, 3770.292254721195, 0.0, 0.0, 12484.589217256214, -19268.991860031114, 12333.089093338143, 3456.764335246603, -17875.762924642913, -33098.820817329986, 0.06191015625, -0.00331640625, 1.0311132812500001, 192.0, 0.0, 0.0, 0.0, 0.0, 0.0, 0.0, 0.0, 0.0, 0.0, 1.74768947761878E9, 0.0, 2025-05-19 23:17:57.618
170.0, 24098.10860134466, 20216.05762434693, 48812.879480466785, 33087.44377940223, 48041.61018629196, 9617.642714696254, 10519.312086023341, 3753.595501613081, 0.0, 0.0, 12475.156781096075, -19264.14153148431, 12347.260099322808, 3475.6292075668825, -17864.7658663709, -33079.46420663169, 0.06191015625, -0.00331640625, 1.0311132812500001, 192.0, 0.0, 0.0, 0.0, 0.0, 0.0, 0.0, 0.0, 0.0, 0.0, 1.747689477627818E9, 0.0, 2025-05-19 23:17:57.627
172.0, 24105.171752592534, 20217.689301692164, 48811.58307928838, 33072.1551861948, 48046.46051483876, 9602.331769744369, 10528.141025083189, 3759.921045293933, 0.0, 0.0, 12461.969251867444, -19284.503970683094, 12323.366084500085, 3444.2026548627205, -17890.425669005595, -33109.05791629051, 0.06191015625, -0.00331640625, 1.0311132812500001, 192.0, 0.0, 0.0, 0.0, 0.0, 0.0, 0.0, 0.0, 0.0, 0.0, 1.747689477635849E9, 0.0, 2025-05-19 23:17:57.635
174.0, 24115.542962019797, 20231.90501116574, 48826.156416673235, 33099.871349319386, 48056.16117193236, 9628.14803459025, 10536.36646704274, 3760.435135416405, 0.0, 0.0, 12483.717499222459, -19262.420447161254, 12342.901509154024, 3472.1199836873993, -17862.91067158111, -33087.913166035796, 0.06295507812500001, -0.001658203125, 1.029556640625, 192.0, 1.0, 0.0, 0.0, 0.0, 16.0, 16.0, 0.0, 0.0, 0.0, 1.747689477642861E9, 0.0, 2025-05-19 23:17:57.642
176.0, 24102.333081046712, 20218.91864763721, 48815.80755899043, 33075.06091297399, 48044.82883749352, 9605.99745583504, 10488.489030419472, 3741.5479113516703, 0.0, 0.0, 12483.449278288994, -19267.226072219142, 12351.976317402878, 3463.1122306719103, -17878.82511363329, -33090.617727114884, 0.06295507812500001, -0.001658203125, 1.029556640625, 192.0, 0.0, 0.0, 0.0, 0.0, 0.0, 0.0, 0.0, 0.0, 0.0, 1.747689477650908E9, 0.0, 2025-05-19 23:17:57.650
178.0, 24121.242656855902, 20235.615400745322, 48822.35662011583, 33086.057971246, 48063.82782028053, 9617.329790273881, 10542.021458389934, 3758.7811063267122, 0.0, 0.0, 12475.17913284053, -19268.656583864282, 12330.809215403702, 3451.9363584442567, -17880.456790978526, -33105.28047147757, 0.06295507812500001, -0.001658203125, 1.029556640625, 192.0, 0.0, 0.0, 0.0, 0.0, 0.0, 0.0, 0.0, 0.0, 0.0, 1.747689477659919E9, 0.0, 2025-05-19 23:17:57.659
180.0, 24116.593494009197, 20231.502679765545, 48822.78130326048, 33093.32228819398, 48055.78119227663, 9627.455130512135, 10503.375292226709, 3743.917196263933, 0.0, 0.0, 12486.310301579273, -19267.00255477459, 12355.530244771273, 3476.0985942004436, -17865.34701172674, -33081.72173282167, 0.06295507812500001, -0.001658203125, 1.029556640625, 192.0, 0.0, 0.0, 0.0, 0.0, 0.0, 0.0, 0.0, 0.0, 0.0, 1.747689477666926E9, 0.0, 2025-05-19 23:17:57.666
182.0, 24129.311636604267, 20240.62219150331, 48828.70451554114, 33086.03561950155, 48064.83364878102, 9615.18402280617, 10516.115786566234, 3754.4672196468377, 0.0, 0.0, 12489.350138825195, -19259.402961659787, 12348.914128412502, 3453.2774631115753, -17882.803724146335, -33098.48554116315, 0.06295507812500001, -0.001658203125, 1.029556640625, 192.0, 0.0, 0.0, 0.0, 0.0, 0.0, 0.0, 0.0, 0.0, 0.0, 1.747689477674967E9, 0.0, 2025-05-19 23:17:57.674
184.0, 24142.92384897755, 20252.468616064623, 48835.54414934447, 33109.303785479526, 48075.16015471937, 9633.758322448532, 10530.152682084166, 3754.400164413472, 0.0, 0.0, 12504.348159354706, -19244.494348108095, 12363.375707075085, 3480.144259946854, -17857.099218022733, -33080.24651768762, 0.0614775390625, -0.0018291015625, 1.0307783203125, 192.0, 0.5, 112.0, 127.5, 120.0, 16.0, 32.0, 0.0, 0.0, 0.0, 1.747689477682995E9, 0.0, 2025-05-19 23:17:57.682
186.0, 24135.748939007397, 20244.466691549624, 48829.442123108165, 33089.8130643145, 48063.96193074727, 9629.802063679941, 10492.98173105499, 3745.3924113979833, 0.0, 0.0, 12496.815621473268, -19254.396170901797, 12365.812047220714, 3466.73321327367, -17876.25466302093, -33086.907337535304, 0.0614775390625, -0.0018291015625, 1.0307783203125, 192.0, 0.0, 0.0, 0.0, 0.0, 0.0, 0.0, 0.0, 0.0, 0.0, 1.747689477692036E9, 0.0, 2025-05-19 23:17:57.692
188.0, 24151.104587448193, 20264.20328190366, 48841.31089941393, 33109.907282579814, 48086.62659962495, 9637.692229472665, 10544.971888658034, 3762.759716839757, 0.0, 0.0, 12505.018711688366, -19241.968600984645, 12361.58756751866, 3469.63894005286, -17864.609404159713, -33088.13668348035, 0.0614775390625, -0.0018291015625, 1.0307783203125, 192.0, 0.0, 0.0, 0.0, 0.0, 0.0, 0.0, 0.0, 0.0, 0.0, 1.747689477698996E9, 0.0, 2025-05-19 23:17:57.698
190.0, 24141.2474681434, 20258.637697534286, 48829.598585319356, 33101.2124539867, 48081.93273328933, 9648.689287744677, 10501.31893173682, 3738.664536316936, 0.0, 0.0, 12503.007054687389, -19241.72273179564, 12377.54671305975, 3482.446489625751, -17860.697848880034, -33075.21737518518, 0.0614775390625, -0.0018291015625, 1.0307783203125, 192.0, 0.0, 0.0, 0.0, 0.0, 0.0, 0.0, 0.0, 0.0, 0.0, 1.747689477707086E9, 0.0, 2025-05-19 23:17:57.707
192.0, 24143.482642588933, 20255.19552888817, 48828.391591118765, 33082.861671788894, 48080.926904788845, 9634.80885443793, 10511.421920230618, 3745.6159288425365, 0.0, 0.0, 12493.172287127052, -19261.61578436086, 12352.021020891789, 3448.740058987148, -17887.519942226405, -33106.286299978055, 0.0614775390625, -0.0018291015625, 1.0307783203125, 192.0, 0.0, 0.0, 0.0, 0.0, 0.0, 0.0, 0.0, 0.0, 0.0, 1.747689477715131E9, 0.0, 2025-05-19 23:17:57.715
194.0, 24148.221212413457, 20259.10708416785, 48832.70547779864, 33104.65462263282, 48098.16009976389, 9650.723296490109, 10534.13129259721, 3752.9249492794215, 0.0, 0.0, 12503.208220387485, -19250.95400225568, 12361.900491941034, 3478.803155279536, -17857.993287800942, -33083.66633458929, 0.06173876953125, -0.00391455078125, 1.0333891601562502, 192.0, 0.5, 120.0, 127.5, 104.0, 16.0, 48.0, 0.0, 0.0, 0.0, 1.74768947772316E9, 0.0, 2025-05-19 23:17:57.723
196.0, 24140.666322787565, 20248.020618918017, 48820.03203869248, 33076.558479852494, 48086.42543392485, 9635.837034682874, 10500.156641025143, 3743.894844519478, 0.0, 0.0, 12488.724289980448, -19265.594394873904, 12358.815951206203, 3461.8158294935024, -17881.127343312186, -33095.15513123931, 0.06173876953125, -0.00391455078125, 1.0333891601562502, 192.0, 0.0, 0.0, 0.0, 0.0, 0.0, 0.0, 0.0, 0.0, 0.0, 1.747689477731193E9, 0.0, 2025-05-19 23:17:57.731
198.0, 24157.40777938459, 20271.400543618267, 48833.46543711012, 33096.83151207346, 48108.50895744669, 9643.414276053223, 10555.477208552029, 3756.07654524762, 0.0, 0.0, 12488.254903346886, -19261.593432616406, 12343.996744632334, 3462.598140549438, -17872.566625185806, -33100.22897723067, 0.06173876953125, -0.00391455078125, 1.0333891601562502, 192.0, 0.0, 0.0, 0.0, 0.0, 0.0, 0.0, 0.0, 0.0, 0.0, 1.747689477739335E9, 0.0, 2025-05-19 23:17:57.739
200.0, 24147.662418802076, 20254.413217832236, 48830.224434164105, 33097.07738126247, 48104.12801553345, 9656.19947388166, 10527.895155894179, 3764.79372558519, 0.0, 0.0, 12498.894333707613, -19250.551670855486, 12370.34945134514, 3490.6272280963935, -17853.85821507671, -33073.25042167311, 0.06173876953125, -0.00391455078125, 1.0333891601562502, 192.0, 0.0, 0.0, 0.0, 0.0, 0.0, 0.0, 0.0, 0.0, 0.0, 1.747689477748231E9, 0.0, 2025-05-19 23:17:57.748
202.0, 24146.366017623666, 20252.96035444264, 48825.105884683835, 33077.38549439734, 48102.876317843955, 9638.631002739789, 10531.627897218215, 3762.3126819506506, 0.0, 0.0, 12480.744717209902, -19274.155113000288, 12342.25330856482, 3455.8702654683907, -17886.067078836808, -33104.542863910545, 0.06173876953125, -0.00391455078125, 1.0333891601562502, 192.0, 0.0, 0.0, 0.0, 0.0, 0.0, 0.0, 0.0, 0.0, 0.0, 1.747689477756262E9, 0.0, 2025-05-19 23:17:57.756
204.0, 24162.92866026505, 20265.58909005989, 48822.93776547167, 33090.68478234825, 48107.39137022393, 9652.086752901883, 10543.921356668634, 3755.2271789583183, 0.0, 0.0, 12495.18394412803, -19265.32617394044, 12349.651735979527, 3475.182172677776, -17867.24691000544, -33092.13764573785, 0.061869384765625, -0.001957275390625, 1.032694580078125, 192.0, 0.5, 120.0, 0.0, 0.0, 16.0, 32.0, 0.0, 0.0, 0.0, 1.747689477763293E9, 0.0, 2025-05-19 23:17:57.763
206.0, 24136.799470996797, 20242.410331059735, 48808.02915191998, 33067.64013381483, 48088.124166503454, 9651.237386612582, 10501.40833871464, 3761.150391238975, 0.0, 0.0, 12482.264635832864, -19274.758610100584, 12351.752799958325, 3459.6924137702485, -17890.11274458322, -33097.99380278514, 0.061869384765625, -0.001957275390625, 1.032694580078125, 192.0, 0.0, 0.0, 0.0, 0.0, 0.0, 0.0, 0.0, 0.0, 0.0, 1.747689477771281E9, 0.0, 2025-05-19 23:17:57.771
208.0, 24147.3494943797, 20260.5822993019, 48814.77937874549, 33083.420465400275, 48111.88407085944, 9647.48229354409, 10562.38389758872, 3773.1309262670193, 0.0, 0.0, 12475.313243307262, -19277.977261302145, 12330.518642725783, 3451.77989623307, -17888.950453871545, -33109.54965466853, 0.061869384765625, -0.001957275390625, 1.032694580078125, 192.0, 0.0, 0.0, 0.0, 0.0, 0.0, 0.0, 0.0, 0.0, 0.0, 1.747689477779355E9, 0.0, 2025-05-19 23:17:57.779
210.0, 24141.023950698847, 20245.070188649916, 48815.22641363459, 33082.861671788894, 48110.16298653639, 9656.065363414928, 10526.688161693593, 3754.757792324757, 0.0, 0.0, 12482.890484677611, -19270.24355772061, 12350.434047035462, 3475.517448844606, -17870.95729958502, -33084.672163089774, 0.061869384765625, -0.001957275390625, 1.032694580078125, 192.0, 0.0, 0.0, 0.0, 0.0, 0.0, 0.0, 0.0, 0.0, 0.0, 1.747689477787408E9, 0.0, 2025-05-19 23:17:57.787
212.0, 24143.929677478038, 20250.05462766345, 48818.35565785834, 33075.32913390746, 48107.92781209086, 9648.5775290224, 10544.726019469026, 3769.018205287243, 0.0, 0.0, 12469.904121149078, -19282.849941593402, 12329.401055503018, 3444.1355996293546, -17892.034994606376, -33107.02390754508, 0.061869384765625, -0.001957275390625, 1.032694580078125, 192.0, 0.0, 0.0, 0.0, 0.0, 0.0, 0.0, 0.0, 0.0, 0.0, 1.747689477795392E9, 0.0, 2025-05-19 23:17:57.795
214.0, 24159.68765731903, 20265.52203482652, 48832.437256865174, 33103.82760808797, 48124.73632392124, 9674.170276423727, 10566.273101123941, 3771.9015803219772, 0.0, 0.0, 12490.311263836773, -19258.710057581673, 12349.741142957348, 3476.903257000835, -17856.965107556, -33079.79948279852, 0.061869384765625, -0.001957275390625, 1.032694580078125, 192.0, 0.0, 0.0, 0.0, 0.0, 0.0, 0.0, 0.0, 0.0, 0.0, 1.747689477803409E9, 0.0, 2025-05-19 23:17:57.803
216.0, 24149.40585486959, 20253.608555031846, 48822.110750926826, 33081.07353223247, 48111.92877434835, 9660.96039545064, 10514.12648130971, 3751.986176012299, 0.0, 0.0, 12485.304473078784, -19265.236766962622, 12357.430143049973, 3465.0344806950666, -17876.388773487663, -33084.403942156314, 0.058, -0.004, 1.026, 192.0, 0.5, 104.0, 127.5, 112.0, 16.0, 8.0, 0.0, 0.0, 0.0, 1.747689477810385E9, 0.0, 2025-05-19 23:17:57.810
218.0, 24172.15993072509, 20278.709564055152, 48838.00284123455, 33103.67114587678, 48130.74894317972, 9671.175142666716, 10566.630729035227, 3773.5779611561256, 0.0, 0.0, 12490.132449881132, -19256.184310458222, 12350.63521273556, 3463.6486725388377, -17869.77265712889, -33089.70130559222, 0.058, -0.004, 1.026, 192.0, 0.0, 0.0, 0.0, 0.0, 0.0, 0.0, 0.0, 0.0, 0.0, 1.747689477819486E9, 0.0, 2025-05-19 23:17:57.819
220.0, 24164.940317266028, 20268.07013369443, 48827.072838195905, 33093.12112249388, 48122.858777387, 9674.572607823922, 10516.451062733062, 3749.4827806333046, 0.0, 0.0, 12496.972083684455, -19250.730484811127, 12371.35527984563, 3484.614608837916, -17857.322735467285, -33069.42827337125, 0.058, -0.004, 1.026, 192.0, 0.0, 0.0, 0.0, 0.0, 0.0, 0.0, 0.0, 0.0, 0.0, 1.747689477828548E9, 0.0, 2025-05-19 23:17:57.828
222.0, 24166.01320099988, 20268.360706372347, 48828.123370185305, 33082.861671788894, 48127.64205070044, 9659.90986346124, 10541.552071756372, 3763.1620482399526, 0.0, 0.0, 12482.935188166522, -19269.014211775568, 12346.544843500238, 3448.963576431701, -17890.336262027773, -33101.525378409075, 0.058, -0.004, 1.026, 192.0, 0.0, 0.0, 0.0, 0.0, 0.0, 0.0, 0.0, 0.0, 0.0, 1.747689477835553E9, 0.0, 2025-05-19 23:17:57.835
224.0, 24167.846044045218, 20268.87479649482, 48823.228338149594, 33091.310631193, 48133.31939379208, 9671.577474066911, 10548.570519515339, 3740.3856206399946, 0.0, 0.0, 12496.681511006536, -19254.351467412886, 12358.413619806006, 3475.8527250114353, -17860.586090157758, -33080.3582764099, 0.058, -0.004, 1.026, 192.0, 0.0, 0.0, 0.0, 0.0, 0.0, 0.0, 0.0, 0.0, 0.0, 1.747689477842598E9, 0.0, 2025-05-19 23:17:57.842
226.0, 24161.274631175358, 20257.743627756077, 48815.91931771271, 33072.937497250736, 48123.28346053165, 9659.082848916394, 10514.551164454362, 3756.210655714352, 0.0, 0.0, 12481.102345121188, -19276.65850837928, 12350.188177846454, 3450.2599776101088, -17891.811477161824, -33101.70419236472, 0.062, -0.01, 1.026, 192.0, 0.5, 120.0, 127.5, 88.0, 16.0, 8.0, 0.0, 0.0, 0.0, 1.747689477851601E9, 0.0, 2025-05-19 23:17:57.851
228.0, 24183.514616908386, 20284.744535058086, 48834.85124526635, 33101.391267942345, 48142.595367741036, 9684.5861893399, 10567.368336602252, 3775.880190835022, 0.0, 0.0, 12489.28308359183, -19259.782941315527, 12347.371858045086, 3459.088916669955, -17875.271186264898, -33094.35046843892, 0.062, -0.01, 1.026, 192.0, 0.0, 0.0, 0.0, 0.0, 0.0, 0.0, 0.0, 0.0, 0.0, 1.747689477859619E9, 0.0, 2025-05-19 23:17:57.859
230.0, 24176.339706938234, 20276.988479732096, 48825.463512595124, 33095.46805566169, 48136.67215546038, 9696.67848309022, 10523.335400025297, 3749.952167266866, 0.0, 0.0, 12496.435641817528, -19249.72465631064, 12371.623500779093, 3479.764280291114, -17864.989383815453, -33074.56917459598, 0.062, -0.01, 1.026, 192.0, 0.0, 0.0, 0.0, 0.0, 0.0, 0.0, 0.0, 0.0, 0.0, 1.747689477867667E9, 0.0, 2025-05-19 23:17:57.867
232.0, 24185.906253565106, 20282.82228503493, 48832.63842256527, 33088.13668348035, 48142.81888518559, 9681.233427671603, 10540.970926400534, 3769.040557031698, 0.0, 0.0, 12491.85353420419, -19263.71684833966, 12352.691573225447, 3451.3328613439635, -17888.972805616, -33099.06668651899, 0.062, -0.01, 1.026, 192.0, 0.0, 0.0, 0.0, 0.0, 0.0, 0.0, 0.0, 0.0, 0.0, 1.747689477874678E9, 0.0, 2025-05-19 23:17:57.874
234.0, 24185.056887275805, 20283.179912946216, 48833.06310570992, 33100.050163275024, 48152.72070797929, 9693.10220397737, 10552.862054450758, 3762.782068584212, 0.0, 0.0, 12502.023577931355, -19249.94817375519, 12363.308651841719, 3477.931437245779, -17859.557909912815, -33078.90541302031, 0.062, -0.01, 1.026, 192.0, 0.0, 0.0, 0.0, 0.0, 0.0, 0.0, 0.0, 0.0, 0.0, 1.747689477883715E9, 0.0, 2025-05-19 23:17:57.883
236.0, 24170.05886674629, 20268.137188927794, 48821.61901254881, 33076.31261066349, 48134.0122978702, 9679.601750326367, 10509.32085625182, 3744.78891429769, 0.0, 0.0, 12490.691243492514, -19261.548729127495, 12362.079305896677, 3458.664233525304, -17884.837732891767, -33092.18234922676, 0.06, -0.002, 1.02, 192.0, 0.5, 112.0, 127.5, 120.0, 15.5, 112.0, 0.0, 0.0, 0.0, 1.747689477890749E9, 0.0, 2025-05-19 23:17:57.890
238.0, 24182.866416319182, 20282.464657123644, 48824.837663750375, 33088.89664279183, 48148.83150444407, 9688.363634152845, 10559.768743487448, 3772.1250977665304, 0.0, 0.0, 12489.618359758659, -19267.024906519047, 12345.15903534401, 3452.808076478014, -17880.725011911993, -33101.055991775516, 0.06, -0.002, 1.02, 192.0, 0.0, 0.0, 0.0, 0.0, 0.0, 0.0, 0.0, 0.0, 0.0, 1.747689477898739E9, 0.0, 2025-05-19 23:17:57.898
240.0, 24173.21046271449, 20274.261566908546, 48824.36827711681, 33087.73435208015, 48139.55553049511, 9700.880611047818, 10518.79799590087, 3756.4565249033603, 0.0, 0.0, 12492.635845260125, -19261.414618660765, 12361.811084963214, 3471.248265653642, -17869.571491428793, -33082.61580259989, 0.06, -0.002, 1.02, 192.0, 0.0, 0.0, 0.0, 0.0, 0.0, 0.0, 0.0, 0.0, 0.0, 1.74768947790777E9, 0.0, 2025-05-19 23:17:57.907
242.0, 24175.19976797101, 20269.81356976194, 48819.0709136809, 33075.06091297399, 48139.89080666194, 9682.552180594466, 10531.404379773663, 3758.758754582257, 0.0, 0.0, 12482.577560255237, -19271.38349668783, 12342.901509154024, 3443.5097507846062, -17891.945587628554, -33104.1628842548, 0.06, -0.002, 1.02, 192.0, 0.0, 0.0, 0.0, 0.0, 0.0, 0.0, 0.0, 0.0, 0.0, 1.747689477915758E9, 0.0, 2025-05-19 23:17:57.915
244.0, 24184.609852386697, 20276.07205820943, 48825.70938178413, 33093.92578529427, 48149.52440852218, 9696.946704023685, 10545.173054358133, 3770.918103565944, 0.0, 0.0, 12490.04304290331, -19263.403923917285, 12351.194006346943, 3467.962559218712, -17865.905805338123, -33084.91803227878, 0.06, -0.002, 1.02, 192.0, 0.0, 0.0, 0.0, 0.0, 0.0, 0.0, 0.0, 0.0, 0.0, 1.747689477922779E9, 0.0, 2025-05-19 23:17:57.922
246.0, 24174.35040168171, 20266.930194727207, 48821.70841952663, 33073.45158737321, 48134.884015903954, 9691.87285803233, 10500.246048002964, 3755.562455125148, 0.0, 0.0, 12486.399708557095, -19275.67503162325, 12352.959794158913, 3452.0481171665333, -17886.15648581463, -33093.92578529427, 0.062, 0.002, 1.024, 192.0, 0.5, 120.0, 0.0, 8.0, 16.0, 0.0, 0.0, 0.0, 0.0, 1.747689477930793E9, 0.0, 2025-05-19 23:17:57.930
248.0, 24184.4086866866, 20280.564758844943, 48829.03979170797, 33089.857767803405, 48146.6633852319, 9688.318930663936, 10550.693935238593, 3758.848161560078, 0.0, 0.0, 12490.557133025783, -19264.72267684015, 12344.35437254362, 3454.2385881231535, -17877.126381054688, -33096.07155276198, 0.062, 0.002, 1.024, 192.0, 0.0, 0.0, 0.0, 0.0, 0.0, 0.0, 0.0, 0.0, 0.0, 1.747689477939852E9, 0.0, 2025-05-19 23:17:57.939
250.0, 24179.78187558435, 20275.714430298143, 48829.173902174705, 33084.538052623044, 48141.14250435144, 9701.417052914745, 10516.696931922072, 3755.584806869603, 0.0, 0.0, 12490.892409192611, -19267.494293152606, 12359.397096562041, 3469.8848092418684, -17871.33727924076, -33083.19694795572, 0.062, 0.002, 1.024, 192.0, 0.0, 0.0, 0.0, 0.0, 0.0, 0.0, 0.0, 0.0, 0.0, 1.747689477946855E9, 0.0, 2025-05-19 23:17:57.946
252.0, 24178.64193661713, 20277.34610764338, 48829.66564055272, 33081.02882874356, 48138.77321943918, 9684.072099217427, 10514.79703364337, 3756.300062692173, 0.0, 0.0, 12487.114964379665, -19274.602147889396, 12345.851939422124, 3442.72743972867, -17894.851314407744, -33105.48163717766, 0.062, 0.002, 1.024, 192.0, 0.0, 0.0, 0.0, 0.0, 0.0, 0.0, 0.0, 0.0, 0.0, 1.747689477954862E9, 0.0, 2025-05-19 23:17:57.954
254.0, 24192.723535623973, 20289.617215349343, 48841.75793430304, 33106.286299978055, 48150.709050978316, 9706.960285539662, 10550.023382904934, 3762.044461017187, 0.0, 0.0, 12504.035234932333, -19250.28344992202, 12364.917977442501, 3476.0985942004436, -17860.340220968752, -33081.11823572138, 0.062, 0.002, 1.024, 192.0, 0.0, 0.0, 0.0, 0.0, 0.0, 0.0, 0.0, 0.0, 0.0, 1.74768947796491E9, 0.0, 2025-05-19 23:17:57.964
0.0, 24180.273613962367, 20281.883511767806, 48832.593719076365, 33087.04144800203, 48139.04144037264, 9698.399567413278, 10492.378233954696, 3743.559568352648, 0.0, 0.0, 12503.498793065404, -19255.200833702187, 12371.824666479191, 3466.6661580403043, -17878.020450832897, -33084.98508751215, 0.064, -0.004, 1.03, 192.0, 1.0, 0.0, 127.5, 112.0, 16.0, 24.0, 0.0, 0.0, 0.0, 1.747689477971918E9, 0.0, 2025-05-19 23:17:57.971
2.0, 24192.07533503477, 20291.58416886141, 48838.78515229048, 33100.3630876974, 48153.25714984622, 9702.06525350395, 10563.367374344753, 3767.922969808933, 0.0, 0.0, 12498.112022651676, -19254.70909532417, 12356.960756416413, 3464.5874458059607, -17875.04766882034, -33088.71782883618, 0.064, -0.004, 1.03, 192.0, 0.0, 0.0, 0.0, 0.0, 0.0, 0.0, 0.0, 0.0, 0.0, 1.747689477980934E9, 0.0, 2025-05-19 23:17:57.980
4.0, 24180.050096517814, 20279.022488477527, 48827.65398355174, 33090.72948583716, 48138.862626417, 9710.290695463502, 10527.649286705171, 3751.047402745176, 0.0, 0.0, 12500.078976163742, -19259.648830848793, 12367.06374491021, 3484.033463482078, -17863.424761703583, -33070.2552879161, 0.064, -0.004, 1.03, 192.0, 0.0, 0.0, 0.0, 0.0, 0.0, 0.0, 0.0, 0.0, 0.0, 1.747689477987926E9, 0.0, 2025-05-19 23:17:57.987
6.0, 24193.774067613373, 20294.020509007038, 48835.79001853347, 33093.903433549815, 48143.355327052515, 9710.961247797162, 10549.688106738104, 3777.8024408581787, 0.0, 0.0, 12490.154801625587, -19263.068647750457, 12351.43987553595, 3454.707974756715, -17888.548122471348, -33093.23288121616, 0.064, -0.004, 1.03, 192.0, 0.0, 0.0, 0.0, 0.0, 0.0, 0.0, 0.0, 0.0, 0.0, 1.747689477995949E9, 0.0, 2025-05-19 23:17:57.995
8.0, 24194.399916458122, 20299.384927676314, 48834.6277278218, 33108.722640123684, 48149.94909166683, 9736.710457409676, 10546.46945553654, 3769.912275065455, 0.0, 0.0, 12508.930266968044, -19238.28056314952, 12372.562274046217, 3493.5553066200387, -17845.990401028444, -33061.605162811895, 0.064, -0.004, 1.03, 192.0, 0.0, 0.0, 0.0, 0.0, 0.0, 0.0, 0.0, 0.0, 0.0, 1.74768947800303E9, 0.0, 2025-05-19 23:17:58.003
10.0, 24182.084105263246, 20289.103125226873, 48827.56457657392, 33089.05310500301, 48131.330088535564, 9726.540413682511, 10493.629931644195, 3756.3224144366286, 0.0, 0.0, 12488.61253125817, -19256.56429011396, 12362.63809950806, 3467.470820840695, -17879.9203491116, -33080.44768338772, 0.064, -0.004, 1.022, 192.0, 1.0, 0.0, 127.5, 112.0, 15.5, 120.0, 0.0, 0.0, 0.0, 1.747689478014049E9, 0.0, 2025-05-19 23:17:58.014
12.0, 24188.432000688554, 20292.321776428435, 48831.23026266459, 33096.09390450644, 48141.120152606985, 9712.101186764383, 10541.037981633901, 3765.330167452117, 0.0, 0.0, 12495.027481916844, -19253.144473212298, 12352.177483102976, 3466.2638266401086, -17873.527750197383, -33086.706171835205, 0.064, -0.004, 1.022, 192.0, 0.0, 0.0, 0.0, 0.0, 0.0, 0.0, 0.0, 0.0, 0.0, 1.747689478021088E9, 0.0, 2025-05-19 23:17:58.021
14.0, 24175.333878437745, 20277.815494276943, 48820.501425326045, 33086.61676485738, 48127.99967861172, 9712.816442586953, 10501.877725348202, 3747.828751543612, 0.0, 0.0, 12493.909894694078, -19262.979240772635, 12358.97241341739, 3477.842030267958, -17869.77265712889, -33080.067703731984, 0.064, -0.004, 1.022, 192.0, 0.0, 0.0, 0.0, 0.0, 0.0, 0.0, 0.0, 0.0, 0.0, 1.747689478028195E9, 0.0, 2025-05-19 23:17:58.028
16.0, 24172.718724336475, 20278.91072975525, 48821.820178248905, 33078.92776476476, 48118.36607675148, 9701.707625592664, 10513.724149909514, 3761.686833105902, 0.0, 0.0, 12479.872999176145, -19274.043354278012, 12337.805311418213, 3447.7789339755695, -17898.360538287227, -33103.38057319887, 0.064, -0.004, 1.022, 192.0, 0.0, 0.0, 0.0, 0.0, 0.0, 0.0, 0.0, 0.0, 0.0, 1.747689478035134E9, 0.0, 2025-05-19 23:17:58.035
18.0, 24184.07341051977, 20289.68427058271, 48829.866806252816, 33099.714887108195, 48120.221271541275, 9725.31106773747, 10530.197385573076, 3766.067775019142, 0.0, 0.0, 12496.815621473268, -19258.017153503555, 12353.965622659402, 3479.2278384241868, -17865.414066960104, -33079.575965353964, 0.064, -0.004, 1.022, 192.0, 0.0, 0.0, 0.0, 0.0, 0.0, 0.0, 0.0, 0.0, 0.0, 1.747689478043192E9, 0.0, 2025-05-19 23:17:58.043
20.0, 24168.44954114551, 20275.669726809232, 48814.77937874549, 33073.65275307331, 48103.502166688704, 9707.273209962035, 10485.248027473453, 3748.3428416660836, 0.0, 0.0, 12484.879789934133, -19269.03656352002, 12352.736276714359, 3458.865399225402, -17892.571436473303, -33093.88108180536, 0.062, 0.002, 1.034, 192.0, 0.5, 120.0, 0.0, 8.0, 16.0, 40.0, 0.0, 0.0, 0.0, 1.747689478051276E9, 0.0, 2025-05-19 23:17:58.051
22.0, 24180.050096517814, 20289.72897407162, 48822.803655004944, 33090.01423001459, 48108.263088257685, 9712.436462931211, 10529.996219872979, 3768.8393913316004, 0.0, 0.0, 12485.371528312151, -19267.896624552803, 12341.605107975616, 3456.652576524327, -17885.642395692157, -33098.30672720751, 0.062, 0.002, 1.034, 192.0, 0.0, 0.0, 0.0, 0.0, 0.0, 0.0, 0.0, 0.0, 0.0, 1.747689478059281E9, 0.0, 2025-05-19 23:17:58.059
24.0, 24172.78577956984, 20284.54336935799, 48819.80852124793, 33084.13572122285, 48097.75776836369, 9727.613297416365, 10487.863181574725, 3749.2592631887514, 0.0, 0.0, 12494.647502261103, -19264.186234973222, 12361.811084963214, 3476.0315389670777, -17874.82415137579, -33080.134758965345, 0.062, 0.002, 1.034, 192.0, 0.0, 0.0, 0.0, 0.0, 0.0, 0.0, 0.0, 0.0, 0.0, 1.747689478067262E9, 0.0, 2025-05-19 23:17:58.067
26.0, 24195.428096703065, 20312.88538132732, 48820.99316370406, 33077.005514741606, 48092.50510841669, 9722.83002410293, 10501.251876503453, 3763.497324406782, 0.0, 0.0, 12481.638786988115, -19270.422371676254, 12343.0132678763, 3447.1307333863656, -17898.718166198512, -33103.469980176684, 0.062, 0.002, 1.034, 192.0, 0.0, 0.0, 0.0, 0.0, 0.0, 0.0, 0.0, 0.0, 0.0, 1.747689478075288E9, 0.0, 2025-05-19 23:17:58.075
28.0, 24173.478683647954, 20283.291671668492, 48826.715210284616, 33093.85873006091, 48094.002675295196, 9732.798902129996, 10520.31791452383, 3761.485667405804, 0.0, 0.0, 12491.317092337262, -19258.978278515136, 12353.228015092376, 3478.467879112706, -17863.7153343815, -33079.59831709842, 0.062, 0.002, 1.034, 192.0, 0.0, 0.0, 0.0, 0.0, 0.0, 0.0, 0.0, 0.0, 0.0, 1.747689478083322E9, 0.0, 2025-05-19 23:17:58.083
30.0, 24146.410721112577, 20255.955488199652, 48811.91835545521, 33064.84616575792, 48076.165983219864, 9713.241125731603, 10469.288881932365, 3739.715068306335, 0.0, 0.0, 12476.90021716359, -19275.205644989688, 12346.611898733605, 3456.1608381463097, -17890.73859342797, -33095.579814383964, 0.064, -0.006, 1.036, 192.0, 1.0, 0.0, 127.5, 104.0, 16.0, 48.0, 0.0, 0.0, 0.0, 1.747689478090356E9, 0.0, 2025-05-19 23:17:58.090
32.0, 24140.35339836519, 20247.30536309545, 48813.61708803381, 33070.277639660555, 48082.75974783418, 9709.73190185212, 10512.204231286554, 3755.6742138474247, 0.0, 0.0, 12471.580501983226, -19284.77219161656, 12325.53420371225, 3444.7614484741034, -17890.73859342797, -33110.77900061357, 0.064, -0.006, 1.036, 192.0, 0.0, 0.0, 0.0, 0.0, 0.0, 0.0, 0.0, 0.0, 0.0, 1.74768947809936E9, 0.0, 2025-05-19 23:17:58.099
34.0, 24119.76744172185, 20226.026502373996, 48816.09813166835, 33070.4564536162, 48067.493506371204, 9718.337323467413, 10475.256797701932, 3749.8627602890447, 0.0, 0.0, 12479.783592198324, -19281.553540414996, 12342.543881242738, 3461.6817190267707, -17881.328509012284, -33095.35629693941, 0.064, -0.006, 1.036, 192.0, 0.0, 0.0, 0.0, 0.0, 0.0, 0.0, 0.0, 0.0, 0.0, 1.74768947810742E9, 0.0, 2025-05-19 23:17:58.107
36.0, 24118.560447521264, 20220.662083704723, 48817.3721811023, 33060.24170640012, 48058.485753355715, 9703.406358171267, 10481.69410010506, 3749.795705055679, 0.0, 0.0, 12475.38029854063, -19292.371784731364, 12327.612915946595, 3436.6924687257374, -17904.484916267982, -33115.83049486047, 0.064, -0.006, 1.036, 192.0, 0.0, 0.0, 0.0, 0.0, 0.0, 0.0, 0.0, 0.0, 0.0, 1.747689478115481E9, 0.0, 2025-05-19 23:17:58.115
38.0, 24118.62750275463, 20221.33263603838, 48824.50238758355, 33078.816006042485, 48060.38565163442, 9713.73286410962, 10496.535658423383, 3752.1202864790307, 0.0, 0.0, 12485.259769589875, -19285.10746778339, 12333.022038104778, 3465.123887672888, -17874.421819975596, -33095.15513123931, 0.064, -0.006, 1.036, 192.0, 0.0, 0.0, 0.0, 0.0, 0.0, 0.0, 0.0, 0.0, 0.0, 1.747689478122457E9, 0.0, 2025-05-19 23:17:58.122
40.0, 24108.211589838458, 20213.800098156942, 48809.75023624304, 33055.34667436441, 48035.061125166554, 9703.182840726715, 10447.25006189943, 3737.7704665387237, 0.0, 0.0, 12475.447353773994, -19298.406755734297, 12332.083264837654, 3449.0306316650667, -17898.002910375944, -33105.50398892212, 0.056, -0.008, 1.038, 192.0, 0.5, 96.0, 127.5, 96.0, 16.0, 56.0, 0.0, 0.0, 0.0, 1.747689478131524E9, 0.0, 2025-05-19 23:17:58.131
42.0, 24120.43799405551, 20228.887525664275, 48813.03594267797, 33066.924877992264, 48038.8385699795, 9711.743558853097, 10498.055577046345, 3757.328242937117, 0.0, 0.0, 12475.290891562807, -19294.271683010065, 12321.712055410393, 3437.2065588482096, -17899.16520108762, -33116.03166056057, 0.056, -0.008, 1.038, 192.0, 0.0, 0.0, 0.0, 0.0, 0.0, 0.0, 0.0, 0.0, 0.0, 1.747689478139493E9, 0.0, 2025-05-19 23:17:58.139
