%OpenBCI Raw EXG Data
%Number of channels = 16
%Sample Rate = 125 Hz
%Board = OpenBCI_GUI$BoardCytonSerialDaisy
Sample Index, EXG Channel 0, EXG Channel 1, EXG Channel 2, EXG Channel 3, EXG Channel 4, EXG Channel 5, EXG Channel 6, EXG Channel 7, EXG Channel 8, EXG Channel 9, EXG Channel 10, EXG Channel 11, EXG Channel 12, EXG Channel 13, EXG Channel 14, EXG Channel 15, Accel Channel 0, Accel Channel 1, Accel Channel 2, Not Used, Digital Channel 0 (D11), Digital Channel 1 (D12), Digital Channel 2 (D13), Digital Channel 3 (D17), Not Used, Digital Channel 4 (D18), Analog Channel 0, Analog Channel 1, Analog Channel 2, Timestamp, Marker Channel, Timestamp (Formatted)
194.0, 22280.911777128196, 18378.118381275937, 48021.02422964862, 33196.47558885522, 43880.65414198091, 1669.2506276667868, 6888.807641125637, 3430.769256445081, 0.0, 0.0, 8724.735227195648, -24591.769229384572, 14914.782633159475, 4160.240788488482, -11588.4854302985, -32538.127307668605, 0.0, 0.0, 0.0, 192.0, 0.0, 0.0, 0.0, 0.0, 0.0, 0.0, 0.0, 0.0, 0.0, 1.747690706337607E9, 0.0, 2025-05-19 23:38:26.337
196.0, 22285.22566380807, 18379.6382998989, 48017.939688913786, 33215.47457164223, 43893.03700840915, 1676.984331248323, 6895.870792373514, 3411.0773695799553, 0.0, 0.0, 8725.83046267396, -24590.42812471725, 14903.18207778717, 4151.568311639823, -11594.67686351262, -32557.81919453373, 0.032, 0.002, 0.515, 192.0, 1.0, 0.0, 0.0, 16.0, 16.0, 24.0, 0.0, 0.0, 0.0, 1.747690706338176E9, 0.0, 2025-05-19 23:38:26.338
0.0, 11089.57214231159, 9331.048647290309, 24196.36686997019, 16827.354350966736, 21213.884200320746, 282.2578289816176, 3368.765517326059, 1845.4494292079723, 0.0, 0.0, 4363.5299043095, -12295.694624864414, 7459.872360214277, 2083.115528001252, -5794.153308171429, -16264.805646515566, 0.054, 0.002, 1.032, 192.0, 0.5, 88.0, 0.0, 8.0, 16.0, 32.0, 0.0, 0.0, 0.0, 1.747690706428361E9, 0.0, 2025-05-19 23:38:26.428
2.0, 22173.48929327599, 18658.275146278756, 48394.29836205225, 33647.48908847441, 42414.67027839068, 574.9986261127742, 6705.746854036672, 3689.0883671150646, 0.0, 0.0, 8657.031793240523, -24667.765160532614, 15713.924552670069, 4653.700250828297, -10827.900269973312, -31936.150125998276, 0.054, 0.002, 1.032, 192.0, 0.0, 0.0, 0.0, 0.0, 0.0, 0.0, 0.0, 0.0, 0.0, 1.747690706435394E9, 0.0, 2025-05-19 23:38:26.435
4.0, 22191.28128186241, 18672.021469118772, 48408.20114710345, 33658.44144325751, 42427.38842098575, 561.58757943959, 6736.815778829548, 3707.6179632685144, 0.0, 0.0, 8659.065801985957, -24663.093645941455, 15704.603875232206, 4640.803294277584, -10828.615525795882, -31946.119004025342, 0.054, 0.002, 1.032, 192.0, 0.0, 0.0, 0.0, 0.0, 0.0, 0.0, 0.0, 0.0, 0.0, 1.747690706441385E9, 0.0, 2025-05-19 23:38:26.441
6.0, 22187.481485305012, 18666.07590509366, 48401.450920277945, 33664.81169042727, 42430.785886142956, 588.3873210415031, 6719.4931768766855, 3681.4217187668946, 0.0, 0.0, 8677.975377795146, -24643.379407331875, 15730.666009267094, 4668.005367279693, -10808.677769741747, -31921.59914035787, 0.054, 0.002, 1.032, 192.0, 0.0, 0.0, 0.0, 0.0, 0.0, 0.0, 0.0, 0.0, 0.0, 1.747690706450445E9, 0.0, 2025-05-19 23:38:26.450
8.0, 22178.54078752289, 18653.06718982067, 48391.7726149288, 33631.06055629975, 42418.425371459176, 558.9277218494084, 6700.449490600764, 3681.756994933724, 0.0, 0.0, 8656.629461840328, -24667.02755296559, 15710.191811346032, 4632.264927895657, -10844.418209125783, -31955.462033207663, 0.058, 0.004, 1.028, 192.0, 0.5, 104.0, 0.0, 16.0, 16.0, 16.0, 0.0, 0.0, 0.0, 1.747690706457426E9, 0.0, 2025-05-19 23:38:26.457
10.0, 22195.6398720312, 18670.970937129372, 48394.70069345245, 33646.01387334036, 42441.11239208131, 559.4194602274251, 6736.324040451532, 3681.689939700358, 0.0, 0.0, 8661.591549109406, -24664.479454097684, 15705.609703732694, 4637.674050053841, -10826.827386239456, -31954.74677738509, 0.058, 0.004, 1.028, 192.0, 0.0, 0.0, 0.0, 0.0, 0.0, 0.0, 0.0, 0.0, 0.0, 1.747690706465477E9, 0.0, 2025-05-19 23:38:26.465
12.0, 22181.088886390793, 18655.816454388674, 48382.63075144658, 33624.91382657454, 42423.18629302816, 559.9782538388079, 6692.402862596854, 3668.72592791628, 0.0, 0.0, 8658.730525819126, -24674.470683869207, 15711.219991590977, 4640.244500666202, -10838.293831145029, -31952.17632677273, 0.058, 0.004, 1.028, 192.0, 0.0, 0.0, 0.0, 0.0, 0.0, 0.0, 0.0, 0.0, 0.0, 1.7476907064735E9, 0.0, 2025-05-19 23:38:26.473
14.0, 22193.941139452596, 18662.186701558436, 48392.55492598473, 33624.64560564108, 42438.02785134648, 540.1075530180399, 6725.9528310242695, 3675.5879134640595, 0.0, 0.0, 8652.740258305104, -24686.630032852892, 15690.052889591801, 4618.2056806332685, -10845.021706226076, -31976.025638106545, 0.058, 0.004, 1.028, 192.0, 0.0, 0.0, 0.0, 0.0, 0.0, 0.0, 0.0, 0.0, 0.0, 1.747690706482528E9, 0.0, 2025-05-19 23:38:26.482
16.0, 22194.611691786253, 18664.913614381985, 48386.74347242636, 33634.12274529013, 42440.084211836365, 567.8013643981653, 6716.989781497691, 3675.140878574953, 0.0, 0.0, 8667.358299178875, -24674.73890480267, 15709.074224123267, 4645.161884446369, -10824.94983970521, -31952.936286084212, 0.058, 0.004, 1.028, 192.0, 0.0, 0.0, 0.0, 0.0, 0.0, 0.0, 0.0, 0.0, 0.0, 1.747690706489567E9, 0.0, 2025-05-19 23:38:26.489
18.0, 22181.58062476881, 18652.106064809093, 48378.89801012254, 33611.50277990136, 42426.382592485264, 546.2766344877047, 6697.99079871068, 3678.0019018652324, 0.0, 0.0, 8645.677107057227, -24694.855474812448, 15691.282235536843, 4616.037561421104, -10857.493979632138, -31975.42214100625, 0.06, 0.0, 1.03, 192.0, 0.5, 112.0, 0.0, 0.0, 16.0, 24.0, 0.0, 0.0, 0.0, 1.747690706497593E9, 0.0, 2025-05-19 23:38:26.497
20.0, 22193.40469758567, 18663.348992270112, 48390.25269630584, 33640.51534420435, 42447.12501133979, 562.1687247954279, 6735.564081140052, 3678.046605354143, 0.0, 0.0, 8656.227130440133, -24679.253957182642, 15695.529066983352, 4628.219262149246, -10834.181110165253, -31965.341504256907, 0.06, 0.0, 1.03, 192.0, 0.0, 0.0, 0.0, 0.0, 0.0, 0.0, 0.0, 0.0, 0.0, 1.74769070650658E9, 0.0, 2025-05-19 23:38:26.506
22.0, 22178.227863100514, 18648.038047318227, 48377.400443244034, 33627.32781497572, 42436.28441527896, 579.8266029151205, 6691.218220140722, 3670.558770961615, 0.0, 0.0, 8653.746086805593, -24678.65046008235, 15706.660235722095, 4634.8130267635615, -10844.66407831479, -31955.394977974294, 0.06, 0.0, 1.03, 192.0, 0.0, 0.0, 0.0, 0.0, 0.0, 0.0, 0.0, 0.0, 0.0, 1.747690706513586E9, 0.0, 2025-05-19 23:38:26.513
24.0, 22194.522284808434, 18661.02441084676, 48394.924210897, 33641.588227938206, 42445.0686508499, 560.9170271059307, 6729.149130481378, 3690.54123050466, 0.0, 0.0, 8647.465246613652, -24680.952689761245, 15689.807020402792, 4616.48459631021, -10851.213139440197, -31970.862385137367, 0.06, 0.0, 1.03, 192.0, 0.0, 0.0, 0.0, 0.0, 0.0, 0.0, 0.0, 0.0, 0.0, 1.747690706522628E9, 0.0, 2025-05-19 23:38:26.522
26.0, 22194.276415619424, 18663.214881803382, 48395.460652763926, 33654.28401878882, 42451.14832534175, 591.360103054059, 6726.176348468823, 3679.074785599087, 0.0, 0.0, 8669.660528857772, -24659.472663339697, 15717.769052716381, 4656.695384585308, -10819.42895882475, -31934.473745164127, 0.06, 0.0, 1.03, 192.0, 0.0, 0.0, 0.0, 0.0, 0.0, 0.0, 0.0, 0.0, 0.0, 1.747690706530662E9, 0.0, 2025-05-19 23:38:26.530
28.0, 22186.520360293434, 18652.21782353137, 48389.38097827208, 33630.680576644016, 42441.9170548817, 567.5554952091569, 6716.051008230568, 3696.7773672076905, 0.0, 0.0, 8648.739296047605, -24682.204387450744, 15699.39591877412, 4631.3932098619, -10845.044057970532, -31956.42315821924, 0.062, -0.002, 1.03, 192.0, 0.5, 120.0, 127.5, 120.0, 16.0, 24.0, 0.0, 0.0, 0.0, 1.74769070653965E9, 0.0, 2025-05-19 23:38:26.539
30.0, 22197.87504647673, 18668.378134772556, 48406.211841846925, 33658.776719424335, 42467.06276739392, 579.3795680260143, 6761.357994241476, 3702.946448677355, 0.0, 0.0, 8659.512836875063, -24666.804035521036, 15704.313302554287, 4653.275567683646, -10813.416339566273, -31939.212314988654, 0.062, -0.002, 1.03, 192.0, 0.0, 0.0, 0.0, 0.0, 0.0, 0.0, 0.0, 0.0, 0.0, 1.74769070654669E9, 0.0, 2025-05-19 23:38:26.546
32.0, 22178.96547066754, 18647.054570562195, 48391.10206259514, 33634.34626273468, 42450.522476497, 578.261980803249, 6715.536918108096, 3687.3449310475507, 0.0, 0.0, 8664.407868910774, -24668.30160239954, 15718.305494583308, 4661.098678243003, -10820.926525703255, -31931.568018384936, 0.062, -0.002, 1.03, 192.0, 0.0, 0.0, 0.0, 0.0, 0.0, 0.0, 0.0, 0.0, 0.0, 1.747690706553723E9, 0.0, 2025-05-19 23:38:26.553
34.0, 22192.82355222983, 18656.643468933522, 48391.68320795098, 33632.356957478165, 42465.051110392946, 560.7605648947435, 6744.90711032237, 3700.1971841093523, 0.0, 0.0, 8649.163979192255, -24686.920605530813, 15690.410517503085, 4626.498177826188, -10840.305488146007, -31966.079111823932, 0.062, -0.002, 1.03, 192.0, 0.0, 0.0, 0.0, 0.0, 0.0, 0.0, 0.0, 0.0, 0.0, 1.747690706561736E9, 0.0, 2025-05-19 23:38:26.561
36.0, 22190.364860339745, 18654.67651542145, 48387.7716526713, 33643.59988493918, 42464.15704061473, 591.4718617763355, 6733.820645072537, 3681.019387366699, 0.0, 0.0, 8661.56919736495, -24672.03434372358, 15709.834183434748, 4650.906282771383, -10823.675790271258, -31942.699187123682, 0.062, -0.002, 1.03, 192.0, 0.0, 0.0, 0.0, 0.0, 0.0, 0.0, 0.0, 0.0, 0.0, 1.747690706569773E9, 0.0, 2025-05-19 23:38:26.569
38.0, 22183.547578280875, 18643.36653272707, 48383.636579947066, 33621.717527117435, 42451.70711895313, 562.2581317732491, 6715.447511130275, 3688.887201414967, 0.0, 0.0, 8646.258252413065, -24690.07220149901, 15693.807982660293, 4620.731427756718, -10855.124694719874, -31969.18600430322, 0.058, 0.0, 1.03, 192.0, 0.5, 104.0, 0.0, 0.0, 16.0, 24.0, 0.0, 0.0, 0.0, 1.747690706577779E9, 0.0, 2025-05-19 23:38:26.577
40.0, 22203.507686079465, 18666.634698705042, 48396.287667308774, 33648.58432395272, 42478.462157066126, 586.6885884628998, 6754.451305204786, 3692.9105154169224, 0.0, 0.0, 8659.66929908625, -24675.74473330316, 15700.088822852234, 4638.501064598688, -10825.352171105405, -31956.199640774685, 0.058, 0.0, 1.03, 192.0, 0.0, 0.0, 0.0, 0.0, 0.0, 0.0, 0.0, 0.0, 0.0, 1.747690706585799E9, 0.0, 2025-05-19 23:38:26.585
42.0, 22199.596130799786, 18662.74549516982, 48390.00682711683, 33639.196591281485, 42468.71679648361, 605.0393706607068, 6706.864441259438, 3681.086442600065, 0.0, 0.0, 8664.005537510579, -24669.77681753359, 15716.316189326786, 4649.900454270894, -10828.973153707166, -31940.41930918924, 0.058, 0.0, 1.03, 192.0, 0.0, 0.0, 0.0, 0.0, 0.0, 0.0, 0.0, 0.0, 0.0, 1.747690706593828E9, 0.0, 2025-05-19 23:38:26.593
44.0, 22219.377424642735, 18679.75517270031, 48402.501452267345, 33647.08675707421, 42487.84988973736, 593.9752571553299, 6741.9790317987245, 3698.3196375751068, 0.0, 0.0, 8660.80923805347, -24672.995468735156, 15700.804078674804, 4630.342677872501, -10835.656325299302, -31959.015960576056, 0.058, 0.0, 1.03, 192.0, 0.0, 0.0, 0.0, 0.0, 0.0, 0.0, 0.0, 0.0, 0.0, 1.74769070660079E9, 0.0, 2025-05-19 23:38:26.600
46.0, 22211.48725885001, 18670.859178407096, 48392.48787075137, 33653.3452455217, 42488.98982870458, 620.8867574795196, 6724.969354268236, 3683.075747856587, 0.0, 0.0, 8674.041470771012, -24659.427959850786, 15719.378378317164, 4658.72939333074, -10814.131595388842, -31932.618550374336, 0.058, 0.0, 1.03, 192.0, 0.0, 0.0, 0.0, 0.0, 0.0, 0.0, 0.0, 0.0, 0.0, 1.747690706609843E9, 0.0, 2025-05-19 23:38:26.609
48.0, 22204.714680280053, 18664.399524259512, 48389.00099861634, 33632.89339934509, 42476.62931402079, 596.5010042787795, 6712.988819240191, 3693.849288684045, 0.0, 0.0, 8651.175636193233, -24679.991564749667, 15701.094651352723, 4630.365029616956, -10846.742790549135, -31956.713730897158, 0.06, -0.002, 1.032, 192.0, 0.5, 112.0, 127.5, 120.0, 16.0, 32.0, 0.0, 0.0, 0.0, 1.747690706617871E9, 0.0, 2025-05-19 23:38:26.617
50.0, 22209.185029171113, 18671.149751085013, 48394.29836205225, 33647.48908847441, 42488.74395951557, 605.9334404389192, 6749.1986452577885, 3681.8687536560005, 0.0, 0.0, 8658.462304885663, -24672.07904721249, 15698.233628062444, 4635.01419246366, -10829.800168252012, -31954.970294829644, 0.06, -0.002, 1.032, 192.0, 0.0, 0.0, 0.0, 0.0, 0.0, 0.0, 0.0, 0.0, 0.0, 1.747690706627929E9, 0.0, 2025-05-19 23:38:26.627
52.0, 22199.797296499884, 18660.51032072429, 48390.74443468385, 33638.8389633702, 42474.327084341894, 602.5583270261678, 6706.775034281616, 3678.5830472210705, 0.0, 0.0, 8661.368031664853, -24669.665058811315, 15713.745738714426, 4643.083172212026, -10837.28800264454, -31943.526201668526, 0.06, -0.002, 1.032, 192.0, 0.0, 0.0, 0.0, 0.0, 0.0, 0.0, 0.0, 0.0, 0.0, 1.74769070663494E9, 0.0, 2025-05-19 23:38:26.634
54.0, 22211.375500127735, 18669.763942928785, 48404.4237022905, 33642.1917250385, 42491.403817105755, 580.6312657155115, 6748.326927224032, 3696.307980574129, 0.0, 0.0, 8660.943348520203, -24674.94007050277, 15701.675796708561, 4626.878157481928, -10840.216081168186, -31959.485347209615, 0.06, -0.002, 1.032, 192.0, 0.0, 0.0, 0.0, 0.0, 0.0, 0.0, 0.0, 0.0, 0.0, 1.747690706641982E9, 0.0, 2025-05-19 23:38:26.641
56.0, 22204.6923285356, 18663.55015797021, 48396.73470219788, 33649.72426291994, 42489.995657205065, 603.9888386713075, 6736.838130574004, 3680.102965844031, 0.0, 0.0, 8672.208627725677, -24668.905099499836, 15718.439605050042, 4658.438820652821, -10815.38329307834, -31935.144297497787, 0.06, -0.002, 1.032, 192.0, 0.0, 0.0, 0.0, 0.0, 0.0, 0.0, 0.0, 0.0, 0.0, 1.74769070664998E9, 0.0, 2025-05-19 23:38:26.649
58.0, 22199.193799399593, 18657.98457360084, 48391.21382131742, 33626.23257949741, 42475.57878203139, 578.4184430144362, 6724.924650779325, 3688.1048903590313, 0.0, 0.0, 8652.025002482535, -24683.143160717867, 15702.748680442415, 4629.225090649735, -10846.988659738143, -31961.85463212188, 0.06, 0.002, 1.032, 192.0, 0.5, 112.0, 0.0, 8.0, 16.0, 32.0, 0.0, 0.0, 0.0, 1.747690706656976E9, 0.0, 2025-05-19 23:38:26.656
60.0, 22205.184066913615, 18664.69009693743, 48398.54519349876, 33646.259742529364, 42496.36590437483, 592.1871175989053, 6761.425049474842, 3687.277875814185, 0.0, 0.0, 8661.859770042869, -24674.001297235645, 15702.078128108757, 4638.948099487794, -10825.106301916398, -31956.534916941517, 0.06, 0.002, 1.032, 192.0, 0.0, 0.0, 0.0, 0.0, 0.0, 0.0, 0.0, 0.0, 0.0, 1.747690706666064E9, 0.0, 2025-05-19 23:38:26.666
62.0, 22193.24823537448, 18656.062323577684, 48388.64337070505, 33635.486201701904, 42481.16671814522, 609.5320712962236, 6714.933421007803, 3678.6053989655256, 0.0, 0.0, 8658.685822330215, -24677.532872859585, 15712.359930558197, 4644.2678146681565, -10834.561089820992, -31947.70597788167, 0.06, 0.002, 1.032, 192.0, 0.0, 0.0, 0.0, 0.0, 0.0, 0.0, 0.0, 0.0, 0.0, 1.747690706674063E9, 0.0, 2025-05-19 23:38:26.674
64.0, 22205.228770402526, 18670.590957473632, 48396.26531556431, 33641.94585584949, 42492.43199735069, 595.4728240338354, 6753.065497048557, 3703.147614377453, 0.0, 0.0, 8654.90837751727, -24678.561053104528, 15699.798250174315, 4625.782922003618, -10841.847758513422, -31961.966390844154, 0.06, 0.002, 1.032, 192.0, 0.0, 0.0, 0.0, 0.0, 0.0, 0.0, 0.0, 0.0, 0.0, 1.747690706681083E9, 0.0, 2025-05-19 23:38:26.681
66.0, 22217.365767641757, 18682.482085523854, 48391.21382131742, 33653.1440798216, 42496.4776630971, 633.7837140302317, 6739.900319564381, 3684.7521286907354, 0.0, 0.0, 8664.296110188498, -24663.65243955284, 15715.355064315208, 4652.11327697197, -10821.507671059093, -31936.820678331937, 0.06, 0.002, 1.032, 192.0, 0.0, 0.0, 0.0, 0.0, 0.0, 0.0, 0.0, 0.0, 0.0, 1.747690706689103E9, 0.0, 2025-05-19 23:38:26.689
68.0, 22201.116049422748, 18656.576413700153, 48396.24296381986, 33635.687367402, 42486.79935774796, 600.16669036945, 6724.701133334772, 3693.2681433282073, 0.0, 0.0, 8654.304880416976, -24677.73403855968, 15705.497945010418, 4632.734314529218, -10844.418209125783, -31955.03735006301, 0.054, -0.002, 1.028, 192.0, 0.5, 88.0, 127.5, 120.0, 16.0, 16.0, 0.0, 0.0, 0.0, 1.747690706698107E9, 0.0, 2025-05-19 23:38:26.698
70.0, 22220.07032872085, 18674.815437175686, 48406.23419359138, 33655.2451438004, 42510.40279989276, 604.7711497272431, 6757.424087217341, 3690.9435619048554, 0.0, 0.0, 8667.0453747565, -24671.117922200912, 15709.20833459, 4646.838265280517, -10819.227793124652, -31946.09665228089, 0.054, -0.002, 1.028, 192.0, 0.0, 0.0, 0.0, 0.0, 0.0, 0.0, 0.0, 0.0, 0.0, 1.747690706706109E9, 0.0, 2025-05-19 23:38:26.706
72.0, 22219.600942087287, 18669.4063150175, 48405.653048235545, 33649.12076581964, 42495.248317152065, 611.6554870194777, 6722.890642033893, 3682.271085056196, 0.0, 0.0, 8671.828648069937, -24670.804997778538, 15726.642695265138, 4655.734259573729, -10824.413397838283, -31936.84303007639, 0.054, -0.002, 1.028, 192.0, 0.0, 0.0, 0.0, 0.0, 0.0, 0.0, 0.0, 0.0, 0.0, 1.747690706713164E9, 0.0, 2025-05-19 23:38:26.713
74.0, 22237.16941322916, 18682.772658201775, 48412.20210936095, 33649.00900709737, 42512.034477238, 583.1793645834166, 6755.568892427551, 3692.5752392500926, 0.0, 0.0, 8672.14157249231, -24674.805960036036, 15712.002302646913, 4636.176483175335, -10831.074217685964, -31956.80313787498, 0.054, -0.002, 1.028, 192.0, 0.0, 0.0, 0.0, 0.0, 0.0, 0.0, 0.0, 0.0, 0.0, 1.747690706721212E9, 0.0, 2025-05-19 23:38:26.721
76.0, 22243.629067376743, 18684.247873335826, 48412.00094366085, 33659.15669908008, 42519.67877384171, 604.4135218159582, 6740.123837008934, 3670.312901772607, 0.0, 0.0, 8686.62550289935, -24658.779759261583, 15732.700018012527, 4659.645814853408, -10814.399816322306, -31936.46305042065, 0.054, -0.002, 1.028, 192.0, 0.0, 0.0, 0.0, 0.0, 0.0, 0.0, 0.0, 0.0, 0.0, 1.747690706730199E9, 0.0, 2025-05-19 23:38:26.730
78.0, 22231.78264281543, 18671.015640618283, 48405.07190287971, 33634.27920750132, 42507.16179694674, 574.5068877347575, 6723.270621689632, 3688.596628737048, 0.0, 0.0, 8671.493371903107, -24679.857454282937, 15717.098500382723, 4635.215358163758, -10842.473607358172, -31957.65250416428, 0.058, -0.002, 1.03, 192.0, 0.5, 104.0, 127.5, 120.0, 16.0, 24.0, 0.0, 0.0, 0.0, 1.747690706737274E9, 0.0, 2025-05-19 23:38:26.737
80.0, 22246.64655287821, 18683.64437623553, 48417.56652803022, 33657.726187434935, 42532.441619925696, 582.9558471388635, 6766.342433255009, 3697.5149747747155, 0.0, 0.0, 8678.802392339992, -24673.107227457433, 15715.131546870656, 4655.2425211957125, -10812.410511065784, -31941.492192923095, 0.058, -0.002, 1.03, 192.0, 0.0, 0.0, 0.0, 0.0, 0.0, 0.0, 0.0, 0.0, 0.0, 1.747690706745272E9, 0.0, 2025-05-19 23:38:26.745
82.0, 22233.123747482747, 18664.93596612644, 48396.086501608675, 33631.84286735569, 42517.84593079638, 589.8401844310981, 6723.494139134185, 3674.895009385945, 0.0, 0.0, 8671.403964925286, -24684.439561896274, 15718.68547423905, 4655.175465962347, -10824.703970516202, -31942.18509700121, 0.058, -0.002, 1.03, 192.0, 0.0, 0.0, 0.0, 0.0, 0.0, 0.0, 0.0, 0.0, 0.0, 1.747690706753405E9, 0.0, 2025-05-19 23:38:26.753
84.0, 22249.462872679578, 18682.07975412366, 48401.942658655964, 33630.76998362184, 42527.99362277909, 566.616721942034, 6760.754497141183, 3695.0339311401763, 0.0, 0.0, 8656.0930199734, -24701.337480704486, 15689.58350295824, 4625.112369669959, -10839.791398023533, -31972.114082826865, 0.058, -0.002, 1.03, 192.0, 0.0, 0.0, 0.0, 0.0, 0.0, 0.0, 0.0, 0.0, 0.0, 1.747690706761354E9, 0.0, 2025-05-19 23:38:26.761
86.0, 22248.45704417909, 18685.052536136216, 48404.28959182377, 33651.087719331714, 42528.8876925573, 598.2220886018382, 6753.691345893306, 3687.3449310475507, 0.0, 0.0, 8671.806296325482, -24684.461913640727, 15712.047006135823, 4656.047183996104, -10815.875031456355, -31943.41444294625, 0.058, -0.002, 1.03, 192.0, 0.0, 0.0, 0.0, 0.0, 0.0, 0.0, 0.0, 0.0, 0.0, 1.74769070676946E9, 0.0, 2025-05-19 23:38:26.769
88.0, 22247.898250567705, 18681.118629112083, 48399.90864991053, 33634.54742843478, 42517.64476509628, 582.4641087608468, 6729.864386303948, 3693.1563846059307, 0.0, 0.0, 8660.630424097828, -24689.155779976343, 15704.737985698937, 4638.657526809875, -10836.9080229888, -31954.120928540342, 0.06, -0.002, 1.032, 192.0, 0.5, 112.0, 127.5, 120.0, 16.0, 32.0, 0.0, 0.0, 0.0, 1.747690706777454E9, 0.0, 2025-05-19 23:38:26.777
90.0, 22262.337477485835, 18698.75415548732, 48406.368304058116, 33650.66303618706, 42543.17045726424, 588.0520448746735, 6766.76711639966, 3690.8094514381232, 0.0, 0.0, 8669.638177113316, -24679.611585093928, 15705.363834543687, 4646.033602480126, -10819.339551846928, -31949.784690116012, 0.06, -0.002, 1.032, 192.0, 0.0, 0.0, 0.0, 0.0, 0.0, 0.0, 0.0, 0.0, 0.0, 1.747690706786495E9, 0.0, 2025-05-19 23:38:26.786
92.0, 22251.07219828036, 18682.41503029049, 48387.81635616021, 33627.55133242027, 42525.98196577811, 592.678855976922, 6709.99368548318, 3671.586951206559, 0.0, 0.0, 8666.374822422842, -24687.144122975365, 15713.030482891856, 4644.133704201425, -10832.303563631007, -31951.908105839266, 0.06, -0.002, 1.032, 192.0, 0.0, 0.0, 0.0, 0.0, 0.0, 0.0, 0.0, 0.0, 0.0, 1.747690706792522E9, 0.0, 2025-05-19 23:38:26.792
94.0, 22271.568747945876, 18702.37513808908, 48402.657914478536, 33634.36861447914, 42540.66706188525, 577.5243732362239, 6756.1947412723, 3689.1330706039753, 0.0, 0.0, 8660.04927874199, -24694.855474812448, 15693.405651260096, 4616.81987247704, -10846.742790549135, -31978.819606163455, 0.06, -0.002, 1.032, 192.0, 0.0, 0.0, 0.0, 0.0, 0.0, 0.0, 0.0, 0.0, 0.0, 1.74769070680155E9, 0.0, 2025-05-19 23:38:26.801
96.0, 22271.814617134885, 18701.302254355225, 48400.17687084399, 33647.64555068559, 42547.05966079947, 603.9664869268521, 6746.359973711965, 3670.53641921716, 0.0, 0.0, 8677.95302605069, -24673.733076302182, 15719.624247506172, 4650.235730437724, -10817.841984968423, -31949.829393604923, 0.06, -0.002, 1.032, 192.0, 0.0, 0.0, 0.0, 0.0, 0.0, 0.0, 0.0, 0.0, 0.0, 1.747690706809566E9, 0.0, 2025-05-19 23:38:26.809
98.0, 22266.830178121352, 18694.641434507543, 48395.48300450838, 33628.82538185422, 42535.28029147152, 584.3863587840032, 6722.600069355974, 3677.174887320386, 0.0, 0.0, 8661.256272942575, -24690.56393987703, 15704.58152348775, 4622.228994635224, -10850.408476639805, -31972.292896782506, 0.056, 0.0, 1.032, 192.0, 0.5, 96.0, 0.0, 0.0, 16.0, 32.0, 0.0, 0.0, 0.0, 1.747690706817594E9, 0.0, 2025-05-19 23:38:26.817
100.0, 22285.493884741532, 18712.947513216437, 48413.38675181708, 33655.17808856703, 42557.90025686029, 604.1005973935839, 6760.1957035298, 3682.628712967481, 0.0, 0.0, 8678.914151062269, -24680.08097172749, 15709.945942157025, 4639.2163204212575, -10823.80990073799, -31959.865326865358, 0.056, 0.0, 1.032, 192.0, 0.0, 0.0, 0.0, 0.0, 0.0, 0.0, 0.0, 0.0, 0.0, 1.747690706825655E9, 0.0, 2025-05-19 23:38:26.825
102.0, 22271.63580317924, 18699.022376420784, 48399.03693187678, 33639.37540523713, 42544.57861716492, 606.8051584726761, 6714.531089607607, 3665.395517992439, 0.0, 0.0, 8682.781002853037, -24671.497901856652, 15728.430834821564, 4650.325137415545, -10828.19084265123, -31946.364873214352, 0.056, 0.0, 1.032, 192.0, 0.0, 0.0, 0.0, 0.0, 0.0, 0.0, 0.0, 0.0, 0.0, 1.747690706833654E9, 0.0, 2025-05-19 23:38:26.833
104.0, 22289.383088276754, 18714.825059750685, 48417.49947279686, 33650.55127746478, 42564.06933832995, 589.4155012864472, 6753.378421470931, 3688.7307392037796, 0.0, 0.0, 8673.169752737254, -24685.490093885674, 15706.2579043219, 4628.196910404791, -10839.880805001356, -31968.448396736196, 0.056, 0.0, 1.032, 192.0, 0.0, 0.0, 0.0, 0.0, 0.0, 0.0, 0.0, 0.0, 0.0, 1.747690706841704E9, 0.0, 2025-05-19 23:38:26.841
106.0, 22278.296623026923, 18704.163277645504, 48410.30221108225, 33657.457966501475, 42559.643692927806, 608.5262427957348, 6731.741932838194, 3668.0330238381657, 0.0, 0.0, 8693.420433213763, -24665.97702097619, 15732.20827963451, 4667.290111457123, -10806.844926696413, -31932.484439907606, 0.056, 0.0, 1.032, 192.0, 0.0, 0.0, 0.0, 0.0, 0.0, 0.0, 0.0, 0.0, 0.0, 1.747690706848733E9, 0.0, 2025-05-19 23:38:26.848
108.0, 22277.134332315247, 18697.681271753463, 48411.464501793926, 33640.00125408188, 42550.3453672344, 590.6671989759444, 6743.566005655051, 3687.9707798922996, 0.0, 0.0, 8675.76255509407, -24684.439561896274, 15714.215125347988, 4644.424276879344, -10832.929412475754, -31952.84687910639, 0.059, 0.0, 1.032, 192.0, 0.5, 120.0, 0.0, 0.0, 16.0, 32.0, 0.0, 0.0, 0.0, 1.747690706857752E9, 0.0, 2025-05-19 23:38:26.857
110.0, 22290.79124817744, 18710.42176609299, 48419.51112979784, 33660.65426595858, 42568.38322500983, 599.0267514022293, 6774.187895558822, 3691.211782838319, 0.0, 0.0, 8689.218305256165, -24667.988677977166, 15719.847764950726, 4663.535018388631, -10804.542697017516, -31938.27354172153, 0.059, 0.0, 1.032, 192.0, 0.0, 0.0, 0.0, 0.0, 0.0, 0.0, 0.0, 0.0, 0.0, 1.747690706866784E9, 0.0, 2025-05-19 23:38:26.866
112.0, 22272.06048632389, 18691.623949006076, 48396.80175743124, 33635.776774379825, 42547.50669568857, 602.5583270261678, 6721.773054811127, 3665.9096081149114, 0.0, 0.0, 8679.182371995732, -24677.890500770867, 15723.535802785851, 4659.623463108953, -10822.133519903842, -31941.98393130111, 0.059, 0.0, 1.032, 192.0, 0.0, 0.0, 0.0, 0.0, 0.0, 0.0, 0.0, 0.0, 0.0, 1.747690706873782E9, 0.0, 2025-05-19 23:38:26.873
114.0, 22281.31410852839, 18701.346957844133, 48404.602516246145, 33636.02264356883, 42555.79919288149, 585.97333264033, 6752.171427270345, 3687.7472624477464, 0.0, 0.0, 8668.05120325699, -24689.55811137654, 15699.999415874412, 4629.672125538841, -10838.517348589581, -31969.0965973254, 0.059, 0.0, 1.032, 192.0, 0.0, 0.0, 0.0, 0.0, 0.0, 0.0, 0.0, 0.0, 0.0, 1.747690706880809E9, 0.0, 2025-05-19 23:38:26.880
116.0, 22279.145989316225, 18699.55881828771, 48405.4742342799, 33648.38315825262, 42558.95078884969, 613.4659783203576, 6754.630119160428, 3676.8396111535567, 0.0, 0.0, 8681.685767374727, -24678.471646126705, 15719.892468439635, 4656.382460162933, -10815.763272734079, -31944.375567957828, 0.059, 0.0, 1.032, 192.0, 0.0, 0.0, 0.0, 0.0, 0.0, 0.0, 0.0, 0.0, 0.0, 1.747690706889865E9, 0.0, 2025-05-19 23:38:26.889
118.0, 22271.009954334495, 18692.428611806467, 48398.07580686519, 33627.14900102008, 42546.277349743534, 593.6623327329556, 6736.659316618361, 3690.3177130601066, 0.0, 0.0, 8672.275682959042, -24686.808846808537, 15713.432814292053, 4637.137608186914, -10835.343400876929, -31958.9936088316, 0.0555, -0.003, 1.033, 192.0, 0.5, 80.0, 127.5, 104.0, 16.0, 40.0, 0.0, 0.0, 0.0, 1.747690706897906E9, 0.0, 2025-05-19 23:38:26.897
120.0, 22277.179035804158, 18700.13996364355, 48397.20408883144, 33639.062480814755, 42560.15778305028, 597.9762194128299, 6776.9595118712805, 3689.9824368932773, 0.0, 0.0, 8666.777153823037, -24689.49105614317, 15698.881828651647, 4637.025849464637, -10825.463929827683, -31961.9440390997, 0.0555, -0.003, 1.033, 192.0, 0.0, 0.0, 0.0, 0.0, 0.0, 0.0, 0.0, 0.0, 0.0, 1.747690706904874E9, 0.0, 2025-05-19 23:38:26.904
122.0, 22270.115884556282, 18692.69683273993, 48386.00586485933, 33624.2879777298, 42546.23264625462, 610.8508242190867, 6734.781770084116, 3678.8959716434447, 0.0, 0.0, 8665.19017996671, -24691.03332651059, 15710.795308446326, 4640.87034951095, -10834.62814505436, -31956.691379152704, 0.0555, -0.003, 1.033, 192.0, 0.0, 0.0, 0.0, 0.0, 0.0, 0.0, 0.0, 0.0, 0.0, 1.747690706912921E9, 0.0, 2025-05-19 23:38:26.912
124.0, 22265.958460087593, 18682.973823901873, 48399.796891188256, 33630.76998362184, 42556.67091091525, 597.8644606905533, 6775.2607792926765, 3699.4819282867825, 0.0, 0.0, 8656.003612995579, -24698.051774269556, 15689.829372147247, 4622.363105101956, -10841.244261413129, -31974.058684594478, 0.0555, -0.003, 1.033, 192.0, 0.0, 0.0, 0.0, 0.0, 0.0, 0.0, 0.0, 0.0, 0.0, 1.747690706922965E9, 0.0, 2025-05-19 23:38:26.922
126.0, 22274.18390204715, 18689.768754216286, 48393.270181807304, 33638.28016975882, 42569.769033166056, 615.7011527658883, 6768.24233153371, 3683.29926530114, 0.0, 0.0, 8671.046337014, -24684.528968874096, 15709.163631101088, 4651.1298002159365, -10816.679694256747, -31949.583524415917, 0.0555, -0.003, 1.033, 192.0, 0.0, 0.0, 0.0, 0.0, 0.0, 0.0, 0.0, 0.0, 0.0, 1.747690706931046E9, 0.0, 2025-05-19 23:38:26.931
128.0, 22272.351059001812, 18684.5607977582, 48394.34306554116, 33620.7340503614, 42553.58637018041, 596.4339490454137, 6745.890587078404, 3691.3011898161403, 0.0, 0.0, 8657.635290340817, -24701.35983244894, 15694.053851849301, 4624.732390014218, -10847.100418460419, -31972.449358993694, 0.05475, -5.0E-4, 1.0335, 192.0, 0.5, 88.0, 0.0, 8.0, 16.0, 40.0, 0.0, 0.0, 0.0, 1.747690706937045E9, 0.0, 2025-05-19 23:38:26.937
130.0, 22277.067277081882, 18692.428611806467, 48396.287667308774, 33634.435669712504, 42568.27146628755, 593.1482426104835, 6772.869142635959, 3686.3167508026067, 0.0, 0.0, 8671.091040502912, -24690.832160810492, 15697.048985606312, 4636.668221553352, -10825.508633316593, -31963.910992611767, 0.05475, -5.0E-4, 1.0335, 192.0, 0.0, 0.0, 0.0, 0.0, 0.0, 0.0, 0.0, 0.0, 0.0, 1.747690706947084E9, 0.0, 2025-05-19 23:38:26.947
132.0, 22264.55030018691, 18679.688117466943, 48382.25077179084, 33620.041146283285, 42557.676739415736, 600.4572630473689, 6736.413447429353, 3674.3362157745623, 0.0, 0.0, 8659.177560708233, -24703.617358638927, 15699.082994351746, 4635.4612273527655, -10838.159720678297, -31963.463957722663, 0.05475, -5.0E-4, 1.0335, 192.0, 0.0, 0.0, 0.0, 0.0, 0.0, 0.0, 0.0, 0.0, 0.0, 1.747690706955078E9, 0.0, 2025-05-19 23:38:26.955
134.0, 22277.871939882272, 18689.36642281609, 48394.49952775235, 33628.53480917631, 42566.840954642415, 589.5719634976344, 6763.749630898194, 3693.5363642616708, 0.0, 0.0, 8654.170769950244, -24705.11492551743, 15683.1014970662, 4618.876232966928, -10844.95465099271, -31978.95371663019, 0.05475, -5.0E-4, 1.0335, 192.0, 0.0, 0.0, 0.0, 0.0, 0.0, 0.0, 0.0, 0.0, 0.0, 1.747690706962084E9, 0.0, 2025-05-19 23:38:26.962
136.0, 22278.676602682663, 18691.869818195086, 48395.52770799729, 33642.772870394336, 42568.8973151323, 619.9479842123967, 6757.737011639716, 3684.1933350793524, 0.0, 0.0, 8667.38065092333, -24689.13342823189, 15703.799212431815, 4651.822704294051, -10819.294848358018, -31948.868268593345, 0.05475, -5.0E-4, 1.0335, 192.0, 0.0, 0.0, 0.0, 0.0, 0.0, 0.0, 0.0, 0.0, 0.0, 1.747690706969064E9, 0.0, 2025-05-19 23:38:26.969
138.0, 22274.653288680707, 18686.728916970365, 48391.19146957296, 33622.3880794511, 42555.97800683713, 601.3736845700365, 6728.411522914354, 3684.7744804351905, 0.0, 0.0, 8657.076496729434, -24698.051774269556, 15697.764241428882, 4628.10750342697, -10847.547453349525, -31968.76132115857, 0.054375, -0.00125, 1.03275, 192.0, 0.5, 88.0, 127.5, 120.0, 16.0, 32.0, 0.0, 0.0, 0.0, 1.747690706978069E9, 0.0, 2025-05-19 23:38:26.978
140.0, 22277.40255324871, 18693.859123451606, 48394.49952775235, 33638.79425988129, 42570.70780643318, 607.1851381284164, 6768.644662933906, 3686.0932333580536, 0.0, 0.0, 8663.312633432464, -24690.228663710197, 15695.126735583155, 4637.1599599313695, -10830.336610118939, -31963.106329811377, 0.054375, -0.00125, 1.03275, 192.0, 0.0, 0.0, 0.0, 0.0, 0.0, 0.0, 0.0, 0.0, 0.0, 1.747690706985164E9, 0.0, 2025-05-19 23:38:26.985
142.0, 22268.148931044216, 18682.325623312667, 48391.884373651075, 33634.34626273468, 42557.386166737815, 622.8984144804972, 6739.967374797747, 3687.1214136029976, 0.0, 0.0, 8658.350546163387, -24695.190750979276, 15703.978026387458, 4644.312518157068, -10834.650496798813, -31954.52325994054, 0.054375, -0.00125, 1.03275, 192.0, 0.0, 0.0, 0.0, 0.0, 0.0, 0.0, 0.0, 0.0, 0.0, 1.747690706993188E9, 0.0, 2025-05-19 23:38:26.993
144.0, 22285.248015552523, 18699.5141147988, 48406.39065580257, 33643.46577447245, 42573.43471925673, 610.7837689857208, 6778.188857816322, 3705.7180649898132, 0.0, 0.0, 8660.831589797925, -24692.106210244445, 15694.456183249496, 4630.387381361411, -10837.109188688897, -31965.319152512453, 0.054375, -0.00125, 1.03275, 192.0, 0.0, 0.0, 0.0, 0.0, 0.0, 0.0, 0.0, 0.0, 0.0, 1.747690707002209E9, 0.0, 2025-05-19 23:38:27.002
146.0, 22288.489018498545, 18701.03403342176, 48404.893088924066, 33655.11103333366, 42575.51343149107, 638.0752489656508, 6764.442534976308, 3688.7754426926904, 0.0, 0.0, 8676.500162661096, -24675.476512369696, 15716.092671882234, 4658.774096819651, -10815.584458778438, -31939.88286732231, 0.054375, -0.00125, 1.03275, 192.0, 0.0, 0.0, 0.0, 0.0, 0.0, 0.0, 0.0, 0.0, 0.0, 1.747690707010218E9, 0.0, 2025-05-19 23:38:27.010
148.0, 22282.297585284425, 18693.590902518143, 48399.081635365685, 33635.17327727953, 42565.3433877639, 615.4329318324246, 6736.1675782403445, 3688.7754426926904, 0.0, 0.0, 8662.642081098806, -24687.971137520213, 15705.162668843588, 4638.255195409679, -10840.327839890462, -31957.13841404181, 0.0551875, -0.004625, 1.0313750000000002, 192.0, 0.5, 96.0, 127.5, 96.0, 16.0, 24.0, 0.0, 0.0, 0.0, 1.747690707017233E9, 0.0, 2025-05-19 23:38:27.017
150.0, 22291.104172599815, 18703.135097400558, 48403.283763323285, 33654.12755657763, 42584.722350206655, 618.6515830339889, 6772.824439147048, 3692.888163672467, 0.0, 0.0, 8668.878217801835, -24682.606718850937, 15701.742851941926, 4647.978204247738, -10821.842947225923, -31950.946980827688, 0.0551875, -0.004625, 1.0313750000000002, 192.0, 0.0, 0.0, 0.0, 0.0, 0.0, 0.0, 0.0, 0.0, 0.0, 1.747690707025233E9, 0.0, 2025-05-19 23:38:27.025
152.0, 22280.26357653899, 18692.98740541785, 48389.090405594165, 33638.25781801436, 42572.361835522875, 627.5475773272011, 6737.463979418752, 3681.309960044618, 0.0, 0.0, 8664.407868910774, -24684.439561896274, 15712.695206725028, 4656.963605518771, -10828.794339751523, -31940.17344000023, 0.0551875, -0.004625, 1.0313750000000002, 192.0, 0.0, 0.0, 0.0, 0.0, 0.0, 0.0, 0.0, 0.0, 0.0, 1.747690707034276E9, 0.0, 2025-05-19 23:38:27.034
154.0, 22288.69018419864, 18700.98932993285, 48397.539364998265, 33636.827306369225, 42579.29087630402, 609.8449957185979, 6763.414354731364, 3694.721006717802, 0.0, 0.0, 8654.260176928065, -24697.1800562358, 15689.002357602401, 4629.4709598387435, -10843.837063769945, -31968.26958278055, 0.0551875, -0.004625, 1.0313750000000002, 192.0, 0.0, 0.0, 0.0, 0.0, 0.0, 0.0, 0.0, 0.0, 0.0, 1.747690707041283E9, 0.0, 2025-05-19 23:38:27.041
156.0, 22285.985623119548, 18703.068042167193, 48393.91838239651, 33645.09745181769, 42587.78453919703, 635.325984397648, 6760.374517485442, 3682.2934368006513, 0.0, 0.0, 8669.437011413218, -24682.092628728467, 15708.560134000796, 4658.438820652821, -10819.965400691677, -31943.59325690189, 0.0551875, -0.004625, 1.0313750000000002, 192.0, 0.0, 0.0, 0.0, 0.0, 0.0, 0.0, 0.0, 0.0, 0.0, 1.74769070704939E9, 0.0, 2025-05-19 23:38:27.049
158.0, 22278.006050349006, 18692.674480995476, 48382.98837935786, 33618.94591080498, 42578.73208269264, 614.2482893762934, 6742.448418432286, 3688.239000825763, 0.0, 0.0, 8646.481769857619, -24705.807829595546, 15687.638901190629, 4627.5934133044975, -10851.369601651384, -31971.1976613042, 0.054593749999999996, -0.0063125, 1.0316875, 192.0, 0.5, 88.0, 127.5, 96.0, 16.0, 32.0, 0.0, 0.0, 0.0, 1.74769070705739E9, 0.0, 2025-05-19 23:38:27.057
160.0, 22284.063373096393, 18694.864951952095, 48387.704597437936, 33634.1898005235, 42593.17130961076, 617.8916237225085, 6774.880799636937, 3687.188468836364, 0.0, 0.0, 8655.891854273303, -24696.576559135505, 15687.77301165736, 4636.265890153157, -10832.750598520113, -31964.492137967605, 0.054593749999999996, -0.0063125, 1.0316875, 192.0, 0.0, 0.0, 0.0, 0.0, 0.0, 0.0, 0.0, 0.0, 0.0, 1.747690707066363E9, 0.0, 2025-05-19 23:38:27.066
162.0, 22270.294698511923, 18682.63854773504, 48372.2148385304, 33616.777791592816, 42577.70390244769, 622.809007502676, 6730.043200259591, 3673.0398145961544, 0.0, 0.0, 8646.213548924154, -24704.93611156179, 15693.651520449106, 4635.416523863855, -10845.222871926175, -31962.9945710891, 0.054593749999999996, -0.0063125, 1.0316875, 192.0, 0.0, 0.0, 0.0, 0.0, 0.0, 0.0, 0.0, 0.0, 0.0, 1.74769070707341E9, 0.0, 2025-05-19 23:38:27.073
164.0, 22276.910814870695, 18684.538446013743, 48377.28868452176, 33612.68742235749, 42581.88367866084, 603.6088590155672, 6757.692308150806, 3686.0038263802326, 0.0, 0.0, 8637.161092419756, -24716.737832634193, 15670.651575404594, 4609.019113662138, -10859.326822677473, -31988.09558011241, 0.054593749999999996, -0.0063125, 1.0316875, 192.0, 0.0, 0.0, 0.0, 0.0, 0.0, 0.0, 0.0, 0.0, 0.0, 1.747690707081365E9, 0.0, 2025-05-19 23:38:27.081
166.0, 22284.532759729955, 18693.613254262596, 48381.84844039064, 33634.54742843478, 42592.970143910665, 642.679708323444, 6763.190837286811, 3681.600532722537, 0.0, 0.0, 8650.974470493135, -24702.27625397161, 15691.595159959217, 4637.58464307602, -10836.416284610783, -31962.9945710891, 0.054593749999999996, -0.0063125, 1.0316875, 192.0, 0.0, 0.0, 0.0, 0.0, 0.0, 0.0, 0.0, 0.0, 0.0, 1.747690707089459E9, 0.0, 2025-05-19 23:38:27.089
168.0, 22274.16155030269, 18683.44321053543, 48373.8688676201, 33612.68742235749, 42574.239382057116, 623.3678011140587, 6741.28612772061, 3684.595666479548, 0.0, 0.0, 8639.888005243303, -24709.384108708397, 15685.67194767856, 4619.345619600489, -10858.76802906609, -31977.120873584852, 0.057296875, -0.00815625, 1.02984375, 192.0, 0.5, 112.0, 127.5, 88.0, 16.0, 16.0, 0.0, 0.0, 0.0, 1.74769070709749E9, 0.0, 2025-05-19 23:38:27.097
170.0, 22280.576500961364, 18687.645338493032, 48388.37514977159, 33636.536733691304, 42591.31611482098, 622.7419522693101, 6779.4852589947295, 3687.9707798922996, 0.0, 0.0, 8644.961851234657, -24705.070222028524, 15679.949901098002, 4629.090980183003, -10839.411418367794, -31970.28123978153, 0.057296875, -0.00815625, 1.02984375, 192.0, 0.0, 0.0, 0.0, 0.0, 0.0, 0.0, 0.0, 0.0, 0.0, 1.747690707105479E9, 0.0, 2025-05-19 23:38:27.105
172.0, 22269.69120141163, 18676.73768719884, 48380.216763045406, 33623.550370162775, 42582.01778912757, 637.0694204651619, 6729.439703159297, 3674.0903465855536, 0.0, 0.0, 8647.308784402465, -24704.31026271704, 15694.38912801613, 4643.284337912123, -10837.71268578919, -31956.84784136389, 0.057296875, -0.00815625, 1.02984375, 192.0, 0.0, 0.0, 0.0, 0.0, 0.0, 0.0, 0.0, 0.0, 0.0, 1.747690707113511E9, 0.0, 2025-05-19 23:38:27.113
174.0, 22283.83985565184, 18690.08167863866, 48388.86688814961, 33623.818591096235, 42594.62417300036, 617.131664411028, 6773.115011824967, 3689.82597468209, 0.0, 0.0, 8642.860787255859, -24712.111021531942, 15676.597139429707, 4621.446683579288, -10846.876901015867, -31977.76907417406, 0.057296875, -0.00815625, 1.02984375, 192.0, 0.0, 0.0, 0.0, 0.0, 0.0, 0.0, 0.0, 0.0, 0.0, 1.747690707123553E9, 0.0, 2025-05-19 23:38:27.123
176.0, 22278.296623026923, 18686.639509992543, 48380.77555665679, 33633.541599934295, 42599.4521498027, 635.9965367313072, 6758.362860484464, 3666.826029637579, 0.0, 0.0, 8651.08622921541, -24701.89627431587, 15692.19865705951, 4644.290166412612, -10828.369656606872, -31958.65833266477, 0.057296875, -0.00815625, 1.02984375, 192.0, 0.0, 0.0, 0.0, 0.0, 0.0, 0.0, 0.0, 0.0, 0.0, 1.74769070712959E9, 0.0, 2025-05-19 23:38:27.129
178.0, 22268.573614188866, 18675.26247206479, 48376.215800787904, 33612.46390491294, 42582.75539669459, 615.0529521766845, 6733.530072394618, 3673.6880151853584, 0.0, 0.0, 8636.579947063918, -24716.02257681162, 15680.978081342946, 4619.01034343366, -10857.404572654315, -31979.937193386224, 0.0586484375, -0.009078125, 1.0339218749999999, 192.0, 0.5, 112.0, 127.5, 88.0, 16.0, 56.0, 0.0, 0.0, 0.0, 1.747690707137662E9, 0.0, 2025-05-19 23:38:27.137
180.0, 22284.353945774314, 18689.925216427473, 48390.833841661675, 33635.62031216864, 42602.76020798209, 631.3473738846033, 6777.518305482663, 3681.309960044618, 0.0, 0.0, 8651.957947249168, -24701.628053382407, 15684.599063944706, 4632.309631384567, -10834.225813654162, -31968.85072813639, 0.0586484375, -0.009078125, 1.0339218749999999, 192.0, 0.0, 0.0, 0.0, 0.0, 0.0, 0.0, 0.0, 0.0, 0.0, 1.747690707145672E9, 0.0, 2025-05-19 23:38:27.145
182.0, 22270.808788634396, 18676.402411032013, 48373.980626342374, 33615.8837218146, 42587.62807698585, 634.2083971748826, 6718.420293142831, 3658.3994219779283, 0.0, 0.0, 8647.442894869197, -24708.378280207908, 15692.712747181982, 4634.5224540856425, -10842.965345736187, -31964.492137967605, 0.0586484375, -0.009078125, 1.0339218749999999, 192.0, 0.0, 0.0, 0.0, 0.0, 0.0, 0.0, 0.0, 0.0, 0.0, 1.747690707153675E9, 0.0, 2025-05-19 23:38:27.153
184.0, 22287.2596725535, 18690.484010038854, 48391.63850446207, 33627.48427718691, 42595.89822243431, 623.7030772808882, 6770.969244357258, 3687.4566897698273, 0.0, 0.0, 8641.542034332995, -24716.760184378647, 15673.467895205964, 4614.137663142403, -10853.381258652362, -31982.48529225413, 0.0586484375, -0.009078125, 1.0339218749999999, 192.0, 0.0, 0.0, 0.0, 0.0, 0.0, 0.0, 0.0, 0.0, 0.0, 1.74769070716068E9, 0.0, 2025-05-19 23:38:27.160
186.0, 22285.672698697173, 18691.26632109479, 48393.65016146305, 33643.64458842809, 42607.43172257325, 657.7224323418657, 6757.401735472887, 3673.3527390185286, 0.0, 0.0, 8658.775229308038, -24695.391916679375, 15699.038290862834, 4647.933500758827, -10825.598040294415, -31951.773995372536, 0.0586484375, -0.009078125, 1.0339218749999999, 192.0, 0.0, 0.0, 0.0, 0.0, 0.0, 0.0, 0.0, 0.0, 0.0, 1.747690707169717E9, 0.0, 2025-05-19 23:38:27.169
188.0, 22281.850550395317, 18685.07488788067, 48391.3702835286, 33622.61159689565, 42598.513376535586, 638.2987664102038, 6747.186988256811, 3679.141840832453, 0.0, 0.0, 8652.740258305104, -24699.45993417024, 15695.752584427904, 4633.136645929414, -10842.853587013911, -31964.648600178793, 0.05632421875, -0.0055390625, 1.0349609375, 192.0, 0.5, 88.0, 127.5, 120.0, 16.0, 48.0, 0.0, 0.0, 0.0, 1.747690707177746E9, 0.0, 2025-05-19 23:38:27.177
190.0, 22290.925358644174, 18692.205094361914, 48398.50049000984, 33638.99542558139, 42617.06532443349, 638.3211181546591, 6782.078061351545, 3682.8745821564894, 0.0, 0.0, 8654.841322283903, -24702.20919873824, 15684.800229644803, 4636.735276786719, -10828.995505451621, -31965.98970484611, 0.05632421875, -0.0055390625, 1.0349609375, 192.0, 0.0, 0.0, 0.0, 0.0, 0.0, 0.0, 0.0, 0.0, 0.0, 1.747690707184775E9, 0.0, 2025-05-19 23:38:27.184
192.0, 22281.850550395317, 18682.616195990588, 48391.5714492287, 33631.172315022035, 42607.163501639785, 644.289033924226, 6747.47756093473, 3675.9678931197996, 0.0, 0.0, 8658.23878744111, -24699.59404463697, 15701.452279264007, 4651.643890338408, -10828.23554614014, -31951.595181416895, 0.05632421875, -0.0055390625, 1.0349609375, 192.0, 0.0, 0.0, 0.0, 0.0, 0.0, 0.0, 0.0, 0.0, 0.0, 1.747690707192824E9, 0.0, 2025-05-19 23:38:27.192
194.0, 22290.567730732888, 18691.735707728352, 48395.795928930755, 33628.89243708759, 42611.991478442134, 620.4173708459581, 6768.622311189451, 3680.9076286444224, 0.0, 0.0, 8650.348621648387, -24703.639710383384, 15683.906159866592, 4627.325192371034, -10842.406552124805, -31974.058684594478, 0.05632421875, -0.0055390625, 1.0349609375, 192.0, 0.0, 0.0, 0.0, 0.0, 0.0, 0.0, 0.0, 0.0, 0.0, 1.74769070720186E9, 0.0, 2025-05-19 23:38:27.201
196.0, 22289.293681298936, 18690.618120505587, 48397.271144064805, 33639.822440126234, 42617.26649013359, 649.8322665491422, 6760.4639244632635, 3669.642349438948, 0.0, 0.0, 8662.083287487423, -24693.626128867403, 15701.206410075, 4650.794524049106, -10824.18988039373, -31954.94794308519, 0.05632421875, -0.0055390625, 1.0349609375, 192.0, 0.0, 0.0, 0.0, 0.0, 0.0, 0.0, 0.0, 0.0, 0.0, 1.747690707208897E9, 0.0, 2025-05-19 23:38:27.208
198.0, 22282.74462017353, 18681.36449830109, 48382.96602761341, 33612.016870023836, 42604.14601613832, 629.358068628081, 6736.301688707076, 3671.542247717649, 0.0, 0.0, 8642.346697133386, -24713.876809343914, 15683.302662766298, 4623.793616747095, -10852.263671429595, -31979.42310326375, 0.057162109375000006, 0.0012304687500000002, 1.03048046875, 192.0, 0.5, 104.0, 0.0, 32.0, 16.0, 8.0, 0.0, 0.0, 0.0, 1.747690707216847E9, 0.0, 2025-05-19 23:38:27.216
200.0, 22293.07112611188, 18689.65699549401, 48392.510222495825, 33634.167448779044, 42619.546368068026, 636.0859437091284, 6772.869142635959, 3677.5772187205816, 0.0, 0.0, 8649.275737914531, -24708.04300404108, 15679.793438886814, 4631.572023817543, -10834.181110165253, -31972.494062482605, 0.057162109375000006, 0.0012304687500000002, 1.03048046875, 192.0, 0.0, 0.0, 0.0, 0.0, 0.0, 0.0, 0.0, 0.0, 0.0, 1.747690707225917E9, 0.0, 2025-05-19 23:38:27.225
202.0, 22286.633823708755, 18683.957300657905, 48388.01752186031, 33626.72431787543, 42610.09158016343, 648.1558857149942, 6733.060685761057, 3666.5131052152046, 0.0, 0.0, 8658.462304885663, -24701.918626060324, 15702.994549631423, 4644.312518157068, -10834.695200287724, -31957.80896637547, 0.057162109375000006, 0.0012304687500000002, 1.03048046875, 192.0, 0.0, 0.0, 0.0, 0.0, 0.0, 0.0, 0.0, 0.0, 0.0, 1.747690707233963E9, 0.0, 2025-05-19 23:38:27.233
204.0, 22294.211065079104, 18691.758059472806, 48390.18564107247, 33622.16456200655, 42617.60176630042, 626.8323215046313, 6754.697174393795, 3682.963989134311, 0.0, 0.0, 8648.113447202855, -24710.568751164526, 15680.911026109581, 4617.870404466439, -10850.967270251187, -31981.971202131655, 0.057162109375000006, 0.0012304687500000002, 1.03048046875, 192.0, 0.0, 0.0, 0.0, 0.0, 0.0, 0.0, 0.0, 0.0, 0.0, 1.747690707240896E9, 0.0, 2025-05-19 23:38:27.240
206.0, 22285.940919630637, 18686.41599254799, 48385.022388103294, 33633.251027256374, 42627.034202460556, 655.0625747516841, 6753.557235426573, 3670.4917157282493, 0.0, 0.0, 8651.80148503798, -24703.170323749822, 15691.125773325655, 4644.223111179246, -10830.694238030224, -31957.741911142104, 0.057162109375000006, 0.0012304687500000002, 1.03048046875, 192.0, 0.0, 0.0, 0.0, 0.0, 0.0, 0.0, 0.0, 0.0, 0.0, 1.747690707248995E9, 0.0, 2025-05-19 23:38:27.248
208.0, 22287.70670744261, 18687.466524537387, 48386.564658470714, 33620.17525675002, 42614.20430114321, 647.194760703416, 6750.807970858571, 3685.467384513305, 0.0, 0.0, 8641.810255266459, -24713.541533177082, 15683.369717999663, 4626.6546400373745, -10852.062505729498, -31970.437701992716, 0.060581054687500004, -3.847656249999999E-4, 1.029240234375, 192.0, 1.0, 0.0, 127.5, 120.0, 16.0, 16.0, 0.0, 0.0, 0.0, 1.74769070725799E9, 0.0, 2025-05-19 23:38:27.257
210.0, 22303.867018683795, 18702.330434600168, 48397.829937676186, 33643.75634715037, 42628.30825189451, 658.03535676424, 6788.604770732495, 3689.535402004171, 0.0, 0.0, 8657.501179874085, -24696.3306899465, 15693.025671604357, 4637.316422142556, -10832.057694441997, -31961.76522514406, 0.060581054687500004, -3.847656249999999E-4, 1.029240234375, 192.0, 0.0, 0.0, 0.0, 0.0, 0.0, 0.0, 0.0, 0.0, 0.0, 1.74769070726507E9, 0.0, 2025-05-19 23:38:27.265
212.0, 22292.288815055945, 18689.880512938562, 48388.598667216145, 33631.10525978867, 42621.73683902465, 663.8021068337091, 6745.041220789101, 3678.7171576878022, 0.0, 0.0, 8659.311671174964, -24693.313204445032, 15709.387148545642, 4648.067611225559, -10834.292868887529, -31951.908105839266, 0.060581054687500004, -3.847656249999999E-4, 1.029240234375, 192.0, 0.0, 0.0, 0.0, 0.0, 0.0, 0.0, 0.0, 0.0, 0.0, 1.747690707273102E9, 0.0, 2025-05-19 23:38:27.273
214.0, 22289.40544002121, 18686.661861736997, 48383.10013808014, 33620.75640210586, 42616.66299303329, 634.0072314747848, 6759.301633751587, 3684.640369968459, 0.0, 0.0, 8637.85399649787, -24711.485172687197, 15676.932415596535, 4616.842224221495, -10854.722363319679, -31981.702981198192, 0.060581054687500004, -3.847656249999999E-4, 1.029240234375, 192.0, 0.0, 0.0, 0.0, 0.0, 0.0, 0.0, 0.0, 0.0, 0.0, 1.747690707281109E9, 0.0, 2025-05-19 23:38:27.281
216.0, 22290.567730732888, 18686.259530336803, 48390.38680677257, 33635.62031216864, 42631.48219960716, 655.196685218416, 6754.8312848605265, 3666.624863937481, 0.0, 0.0, 8655.444819384196, -24698.40940218084, 15695.931398383547, 4642.189102433813, -10832.48237758665, -31960.33471349892, 0.060581054687500004, -3.847656249999999E-4, 1.029240234375, 192.0, 0.0, 0.0, 0.0, 0.0, 0.0, 0.0, 0.0, 0.0, 0.0, 1.74769070729013E9, 0.0, 2025-05-19 23:38:27.290
218.0, 22286.767934175485, 18679.017565133283, 48383.144841569054, 33614.90024505857, 42617.177083155766, 634.3648593860697, 6733.485368905708, 3671.7434134177465, 0.0, 0.0, 8644.0901332009, -24713.876809343914, 15687.281273279343, 4621.267869623646, -10856.9128342763, -31980.205414319687, 0.06129052734375, -0.0061923828125, 1.0306201171875, 192.0, 0.5, 120.0, 127.5, 80.0, 16.0, 32.0, 0.0, 0.0, 0.0, 1.747690707297188E9, 0.0, 2025-05-19 23:38:27.297
220.0, 22299.441373281643, 18692.808591462206, 48390.342103283656, 33636.31321624675, 42640.57935960047, 642.970281001363, 6777.853581649492, 3675.207933808319, 0.0, 0.0, 8646.749990791082, -24708.020652296622, 15680.888674365126, 4633.4048668628775, -10836.371581121872, -31971.37647525984, 0.06129052734375, -0.0061923828125, 1.0306201171875, 192.0, 0.0, 0.0, 0.0, 0.0, 0.0, 0.0, 0.0, 0.0, 0.0, 1.747690707305203E9, 0.0, 2025-05-19 23:38:27.305
222.0, 22294.74750694603, 18684.627852991565, 48389.67155095, 33631.4852394444, 42632.420972874286, 656.001348018807, 6743.610709143962, 3676.7055006868245, 0.0, 0.0, 8652.159112949266, -24702.477419671708, 15699.105346096201, 4651.196855449302, -10831.476549086161, -31954.52325994054, 0.06129052734375, -0.0061923828125, 1.0306201171875, 192.0, 0.0, 0.0, 0.0, 0.0, 0.0, 0.0, 0.0, 0.0, 0.0, 1.747690707313214E9, 0.0, 2025-05-19 23:38:27.313
224.0, 22301.341271560344, 18691.22161760588, 48398.47813826539, 33633.049861556276, 42638.34418515494, 643.5961298461116, 6776.087793837523, 3695.659779984925, 0.0, 0.0, 8646.861749513359, -24710.345233719974, 15679.81579063127, 4630.186215661313, -10840.618412568381, -31973.99162936111, 0.06129052734375, -0.0061923828125, 1.0306201171875, 192.0, 0.0, 0.0, 0.0, 0.0, 0.0, 0.0, 0.0, 0.0, 0.0, 1.747690707321271E9, 0.0, 2025-05-19 23:38:27.321
226.0, 22298.010861636503, 18690.12638212757, 48388.799832916244, 33638.3919284811, 42644.37915615788, 663.936217300441, 6760.888607607914, 3672.302207029129, 0.0, 0.0, 8660.876293286836, -24693.044983511565, 15701.362872286187, 4655.980128762738, -10820.94887744771, -31948.667102893247, 0.06129052734375, -0.0061923828125, 1.0306201171875, 192.0, 0.0, 0.0, 0.0, 0.0, 0.0, 0.0, 0.0, 0.0, 0.0, 1.747690707329303E9, 0.0, 2025-05-19 23:38:27.329
228.0, 22293.540512745443, 18682.929120412962, 48383.81539390271, 33614.8331898252, 42631.95158624072, 644.6019583466003, 6738.805084086071, 3676.2808175421737, 0.0, 0.0, 8637.474016842129, -24717.676605901313, 15681.24630227641, 4623.324230113534, -10857.404572654315, -31977.9478881297, 0.06129052734375, -0.0061923828125, 1.0306201171875, 192.0, 0.0, 0.0, 0.0, 0.0, 0.0, 0.0, 0.0, 0.0, 0.0, 1.74769070733739E9, 0.0, 2025-05-19 23:38:27.337
230.0, 22305.476344284576, 18695.736669985854, 48399.05928362123, 33642.906980861066, 42647.642510848345, 661.0751940101617, 6784.313235797076, 3692.441128783361, 0.0, 0.0, 8652.315575160454, -24704.3326144615, 15685.470781978463, 4636.712925042263, -10833.37644736486, -31964.156861800777, 0.06, -0.008, 1.028, 192.0, 0.5, 112.0, 127.5, 96.0, 16.0, 16.0, 0.0, 0.0, 0.0, 1.747690707346423E9, 0.0, 2025-05-19 23:38:27.346
232.0, 22300.40249829322, 18693.4120885625, 48397.539364998265, 33637.721376147434, 42639.461772377705, 667.3783859465583, 6749.712735380261, 3680.5723524775926, 0.0, 0.0, 8659.535188619517, -24692.016803266622, 15710.616494490683, 4653.946120017305, -10828.302601373507, -31948.264771493054, 0.06, -0.008, 1.028, 192.0, 0.0, 0.0, 0.0, 0.0, 0.0, 0.0, 0.0, 0.0, 0.0, 1.747690707354416E9, 0.0, 2025-05-19 23:38:27.354
234.0, 22312.405385065722, 18700.207018876914, 48398.36637954311, 33632.60282666717, 42648.93891202676, 647.4182781479691, 6772.645625191406, 3690.4518235268383, 0.0, 0.0, 8652.695554816193, -24700.443410926273, 15691.282235536843, 4627.794579004595, -10842.317145146984, -31971.912917126767, 0.06, -0.008, 1.028, 192.0, 0.0, 0.0, 0.0, 0.0, 0.0, 0.0, 0.0, 0.0, 0.0, 1.747690707361498E9, 0.0, 2025-05-19 23:38:27.361
236.0, 22305.677509984675, 18696.809553719708, 48397.29349580926, 33644.62806518413, 42647.35193817043, 667.2666272242817, 6767.750593155693, 3673.240980296252, 0.0, 0.0, 8660.228092697633, -24691.301547444054, 15706.2579043219, 4654.884893284428, -10822.155871648298, -31949.292951737996, 0.06, -0.008, 1.028, 192.0, 0.0, 0.0, 0.0, 0.0, 0.0, 0.0, 0.0, 0.0, 0.0, 1.747690707370488E9, 0.0, 2025-05-19 23:38:27.370
238.0, 22294.45693426811, 18683.242044835337, 48395.10302485264, 33626.32198647523, 42638.47829562167, 645.4066211469915, 6753.534883682119, 3679.8123931661125, 0.0, 0.0, 8645.319479145943, -24711.082841287, 15691.52810472585, 4633.762494774162, -10844.641726570337, -31969.811853147967, 0.06, -0.008, 1.028, 192.0, 0.0, 0.0, 0.0, 0.0, 0.0, 0.0, 0.0, 0.0, 0.0, 1.747690707377516E9, 0.0, 2025-05-19 23:38:27.377
240.0, 22302.816486694395, 18695.468449052387, 48402.501452267345, 33645.27626577333, 42656.873781308386, 654.4367259069355, 6785.050843364102, 3684.1039281015314, 0.0, 0.0, 8657.165903707255, -24698.811733581035, 15694.053851849301, 4646.637099580419, -10823.161700148787, -31957.18311753072, 0.058, -0.002, 1.03, 192.0, 0.5, 104.0, 127.5, 120.0, 16.0, 24.0, 0.0, 0.0, 0.0, 1.747690707384533E9, 0.0, 2025-05-19 23:38:27.384
242.0, 22298.077916869872, 18689.679347238463, 48396.712350453425, 33639.42010872604, 42646.83784804796, 674.0615575386951, 6748.1928167573, 3678.404233265428, 0.0, 0.0, 8658.551711863483, -24697.470628913718, 15710.102404368212, 4659.131724730936, -10823.161700148787, -31943.481498179615, 0.058, -0.002, 1.03, 192.0, 0.0, 0.0, 0.0, 0.0, 0.0, 0.0, 0.0, 0.0, 0.0, 1.747690707393589E9, 0.0, 2025-05-19 23:38:27.393
244.0, 22319.60264678033, 18710.354710859625, 48408.15644361454, 33647.444384985494, 42660.40535693233, 666.2160952348823, 6769.628139689939, 3698.341989319562, 0.0, 0.0, 8653.18729319421, -24700.35400394845, 15692.712747181982, 4637.606994820475, -10835.701028788213, -31960.781748388024, 0.058, -0.002, 1.03, 192.0, 0.0, 0.0, 0.0, 0.0, 0.0, 0.0, 0.0, 0.0, 0.0, 1.747690707401608E9, 0.0, 2025-05-19 23:38:27.401
246.0, 22315.065242655903, 18711.293484126745, 48404.043722634764, 33657.659132201574, 42667.26734248011, 691.1159385580944, 6747.410505701364, 3679.8794483994784, 0.0, 0.0, 8674.600264382394, -24675.78943679207, 15720.361855073197, 4669.547637647109, -10810.935295931733, -31930.69630035118, 0.058, -0.002, 1.03, 192.0, 0.0, 0.0, 0.0, 0.0, 0.0, 0.0, 0.0, 0.0, 0.0, 1.74769070740865E9, 0.0, 2025-05-19 23:38:27.408
248.0, 22295.663928468697, 18689.679347238463, 48389.55979222772, 33623.751535862866, 42645.63085384737, 660.5387521432343, 6770.075174579046, 3676.6607971979142, 0.0, 0.0, 8649.812179781458, -24702.499771416162, 15698.300683295809, 4639.953927988283, -10841.266613157584, -31961.832280377424, 0.058, -0.002, 1.03, 192.0, 0.0, 0.0, 0.0, 0.0, 0.0, 0.0, 0.0, 0.0, 0.0, 1.747690707417688E9, 0.0, 2025-05-19 23:38:27.417
250.0, 22300.626015737776, 18698.70945199841, 48388.598667216145, 33634.659187157056, 42660.2712464656, 665.6573016234996, 6793.34334055702, 3681.734643189269, 0.0, 0.0, 8648.783999536516, -24704.69024237278, 15685.113154067178, 4639.976279732738, -10829.911926974288, -31964.670951923246, 0.064, -0.01, 1.034, 192.0, 1.0, 0.0, 127.5, 88.0, 16.0, 40.0, 0.0, 0.0, 0.0, 1.747690707425712E9, 0.0, 2025-05-19 23:38:27.425
252.0, 22290.768896432986, 18685.70073672542, 48380.708501423425, 33620.62229163913, 42649.40829866032, 668.1383452580387, 6753.825456360038, 3666.5354569596598, 0.0, 0.0, 8639.99976396558, -24713.161553521342, 15692.288064037331, 4643.3960966344, -10836.796264266522, -31961.69816991069, 0.064, -0.01, 1.034, 192.0, 0.0, 0.0, 0.0, 0.0, 0.0, 0.0, 0.0, 0.0, 0.0, 1.747690707432676E9, 0.0, 2025-05-19 23:38:27.432
254.0, 22301.94476866064, 18691.579245517165, 48386.654065448536, 33620.91286431705, 42657.90196155333, 653.2744351952596, 6781.005177617691, 3683.589837979059, 0.0, 0.0, 8633.830682495915, -24718.0342338126, 15673.087915550223, 4619.591488789498, -10849.33559290595, -31982.507643998582, 0.064, -0.01, 1.034, 192.0, 0.0, 0.0, 0.0, 0.0, 0.0, 0.0, 0.0, 0.0, 0.0, 1.747690707440763E9, 0.0, 2025-05-19 23:38:27.440
0.0, 22304.023480894983, 18697.681271753463, 48390.5209172393, 33639.17423953703, 42670.374234959396, 679.2024587634157, 6773.405584502886, 3673.151573318431, 0.0, 0.0, 8651.935595504714, -24701.248073726663, 15695.707880938993, 4647.6652798253635, -10826.894441472823, -31956.892544852803, 0.064, -0.01, 1.034, 192.0, 0.0, 0.0, 0.0, 0.0, 0.0, 0.0, 0.0, 0.0, 0.0, 1.747690707449773E9, 0.0, 2025-05-19 23:38:27.449
2.0, 22301.162457604703, 18692.69683273993, 48392.219649817904, 33625.27145448583, 42653.31985394, 661.5892841326338, 6760.1733517853445, 3682.762823434213, 0.0, 0.0, 8646.548825090984, -24712.915684332336, 15689.181171558044, 4630.700305783786, -10846.452217871216, -31970.549460714992, 0.064, -0.01, 1.034, 192.0, 0.0, 0.0, 0.0, 0.0, 0.0, 0.0, 0.0, 0.0, 0.0, 1.74769070745884E9, 0.0, 2025-05-19 23:38:27.458
4.0, 22318.57446653539, 18707.203114891425, 48402.43439703398, 33650.93125712052, 42673.19055476076, 680.3423977306363, 6794.550334757607, 3692.463480527816, 0.0, 0.0, 8659.401078152785, -24692.7767625781, 15694.567941971773, 4648.022907736648, -10819.652476269302, -31953.964466329155, 0.058, -0.002, 1.034, 192.0, 0.5, 104.0, 127.5, 120.0, 16.0, 40.0, 0.0, 0.0, 0.0, 1.747690707465843E9, 0.0, 2025-05-19 23:38:27.465
6.0, 22306.929207674173, 18690.439306549946, 48388.37514977159, 33633.85452435667, 42658.14783074234, 679.9400663304408, 6747.052877790079, 3673.911532629911, 0.0, 0.0, 8656.830627540425, -24695.011937023635, 15707.554305500307, 4653.25321593919, -10829.822519996467, -31948.17536451523, 0.058, -0.002, 1.034, 192.0, 0.0, 0.0, 0.0, 0.0, 0.0, 0.0, 0.0, 0.0, 0.0, 1.747690707472858E9, 0.0, 2025-05-19 23:38:27.472
8.0, 22309.544361775443, 18696.943664186438, 48396.01944637531, 33637.5425621918, 42665.85918257942, 660.2928829542259, 6778.635892705428, 3689.0660153706094, 0.0, 0.0, 8646.079438457422, -24706.813658096034, 15685.62724418965, 4627.883985982417, -10846.295755660029, -31970.66121943727, 0.058, -0.002, 1.034, 192.0, 0.0, 0.0, 0.0, 0.0, 0.0, 0.0, 0.0, 0.0, 0.0, 1.747690707481886E9, 0.0, 2025-05-19 23:38:27.481
10.0, 22322.016635181506, 18705.169106145993, 48401.942658655964, 33657.457966501475, 42670.55304891504, 698.1567380615161, 6766.677709421839, 3680.371186777495, 0.0, 0.0, 8662.396211909796, -24683.187864206775, 15712.047006135823, 4657.991785763716, -10822.893479215321, -31943.23562899061, 0.058, -0.002, 1.034, 192.0, 0.0, 0.0, 0.0, 0.0, 0.0, 0.0, 0.0, 0.0, 0.0, 1.747690707488938E9, 0.0, 2025-05-19 23:38:27.488
12.0, 22308.180905363668, 18692.719184484387, 48390.3197515392, 33630.255893499365, 42660.651226121336, 702.5376799747563, 6761.805029130582, 3688.9766083927884, 0.0, 0.0, 8652.293223415998, -24697.35887019144, 15703.508639753896, 4639.05985821007, -10845.334630648451, -31958.70303615368, 0.058, -0.002, 1.034, 192.0, 0.0, 0.0, 0.0, 0.0, 0.0, 0.0, 0.0, 0.0, 0.0, 1.747690707496932E9, 0.0, 2025-05-19 23:38:27.496
14.0, 22315.08759440036, 18703.202152633923, 48396.73470219788, 33645.365672751155, 42677.012703062624, 700.9954096073401, 6795.734977213738, 3681.7793466781795, 0.0, 0.0, 8655.467171128652, -24698.767030092127, 15693.495058237919, 4640.065686710559, -10832.86235724239, -31961.362893743863, 0.054, 0.004, 1.028, 192.0, 0.5, 88.0, 0.0, 16.0, 16.0, 16.0, 0.0, 0.0, 0.0, 1.747690707504926E9, 0.0, 2025-05-19 23:38:27.504
16.0, 22307.935036174662, 18700.408184577012, 48388.39750151605, 33635.57560867973, 42670.12836577039, 722.3189738177031, 6755.457133705275, 3675.6996721863356, 0.0, 0.0, 8656.942386262703, -24698.94584404777, 15707.15197410011, 4649.073439726048, -10835.969249721677, -31951.550477927984, 0.054, 0.004, 1.028, 192.0, 0.0, 0.0, 0.0, 0.0, 0.0, 0.0, 0.0, 0.0, 0.0, 1.747690707514038E9, 0.0, 2025-05-19 23:38:27.514
18.0, 22319.535591546966, 18707.828963736174, 48400.17687084399, 33640.20241978198, 42672.76587161611, 706.9186218879964, 6787.375424787453, 3696.9114776744223, 0.0, 0.0, 8653.366107149854, -24704.354966205952, 15690.589331458728, 4630.543843572598, -10845.178168437264, -31968.113120569364, 0.054, 0.004, 1.028, 192.0, 0.0, 0.0, 0.0, 0.0, 0.0, 0.0, 0.0, 0.0, 0.0, 1.747690707522041E9, 0.0, 2025-05-19 23:38:27.522
20.0, 22320.384957836268, 18704.967940445895, 48396.93586789798, 33651.95943736547, 42680.45487170874, 736.3782210800912, 6775.394889759409, 3676.169058819897, 0.0, 0.0, 8666.017194511556, -24687.79232356457, 15710.705901468506, 4657.656509596885, -10822.893479215321, -31945.426099947228, 0.054, 0.004, 1.028, 192.0, 0.0, 0.0, 0.0, 0.0, 0.0, 0.0, 0.0, 0.0, 0.0, 1.747690707531016E9, 0.0, 2025-05-19 23:38:27.531
22.0, 22317.14395489025, 18697.301292097723, 48391.3702835286, 33630.255893499365, 42663.244028478155, 715.546395247745, 6750.495046436196, 3682.606361223026, 0.0, 0.0, 8649.1416274478, -24702.522123160616, 15697.697186195515, 4635.505930841677, -10848.128598705363, -31964.38037924533, 0.054, 0.004, 1.028, 192.0, 0.0, 0.0, 0.0, 0.0, 0.0, 0.0, 0.0, 0.0, 0.0, 1.747690707540065E9, 0.0, 2025-05-19 23:38:27.540
24.0, 22323.782422993474, 18708.14188815855, 48405.80951044673, 33652.89821063259, 42686.95922934523, 726.0740668861946, 6793.589209746028, 3693.5363642616708, 0.0, 0.0, 8660.742182820104, -24694.721364345714, 15695.886694894636, 4643.686669312318, -10828.637877540335, -31957.026655319532, 0.056, -0.002, 1.028, 192.0, 0.5, 96.0, 127.5, 120.0, 16.0, 16.0, 0.0, 0.0, 0.0, 1.747690707547089E9, 0.0, 2025-05-19 23:38:27.547
26.0, 22311.08663214286, 18695.714318241397, 48390.45386200594, 33638.66014941456, 42669.88249658138, 734.8806542015856, 6743.767171355149, 3669.2623697832073, 0.0, 0.0, 8663.916130532758, -24690.765105577124, 15716.249134093421, 4656.3601084184775, -10828.794339751523, -31947.013073803555, 0.056, -0.002, 1.028, 192.0, 0.0, 0.0, 0.0, 0.0, 0.0, 0.0, 0.0, 0.0, 0.0, 1.747690707553195E9, 0.0, 2025-05-19 23:38:27.553
28.0, 22321.18962063666, 18700.408184577012, 48393.58310622968, 33639.12953604812, 42676.18568851778, 716.1051888591277, 6785.5872852310285, 3693.5587160061264, 0.0, 0.0, 8644.112484945355, -24703.46089642774, 15686.72247966796, 4626.565233059554, -10850.117903961886, -31973.678704938735, 0.056, -0.002, 1.028, 192.0, 0.0, 0.0, 0.0, 0.0, 0.0, 0.0, 0.0, 0.0, 0.0, 1.747690707561231E9, 0.0, 2025-05-19 23:38:27.561
30.0, 22317.479231057077, 18700.430536321466, 48390.94560038395, 33649.053710586275, 42683.82998512149, 744.8271804841972, 6794.550334757607, 3673.017462851699, 0.0, 0.0, 8655.645985084295, -24691.703878844248, 15702.68162520905, 4657.790620063618, -10821.66413327028, -31947.12483252583, 0.056, -0.002, 1.028, 192.0, 0.0, 0.0, 0.0, 0.0, 0.0, 0.0, 0.0, 0.0, 0.0, 1.747690707570285E9, 0.0, 2025-05-19 23:38:27.570
32.0, 22308.5161815305, 18691.84746645063, 48387.30226603774, 33627.37251846463, 42666.41797619081, 719.4355987829684, 6767.258854777677, 3683.276913556685, 0.0, 0.0, 8641.51968258854, -24709.585274408495, 15689.605854702695, 4634.880081996927, -10849.022668483576, -31967.688437424713, 0.056, -0.002, 1.028, 192.0, 0.0, 0.0, 0.0, 0.0, 0.0, 0.0, 0.0, 0.0, 0.0, 1.74769070757627E9, 0.0, 2025-05-19 23:38:27.576
34.0, 22331.89610623075, 18713.551010316733, 48390.342103283656, 33639.93419884851, 42691.2284125362, 720.9778691503847, 6793.075119623557, 3681.9358088893664, 0.0, 0.0, 8652.695554816193, -24700.17518999281, 15688.980005857946, 4640.780942533129, -10834.62814505436, -31962.32401875544, 0.052000000000000005, 0.0, 1.026, 192.0, 0.5, 80.0, 0.0, 0.0, 16.0, 8.0, 0.0, 0.0, 0.0, 1.747690707585306E9, 0.0, 2025-05-19 23:38:27.585
36.0, 22319.289722357957, 18698.396527576035, 48383.03308284677, 33630.50176268837, 42674.77752861709, 730.9467471774516, 6752.730220881727, 3669.329425016573, 0.0, 0.0, 8651.80148503798, -24706.143105762378, 15700.424099019063, 4641.58560533352, -10846.116941704386, -31962.480480966628, 0.052000000000000005, 0.0, 1.026, 192.0, 0.0, 0.0, 0.0, 0.0, 0.0, 0.0, 0.0, 0.0, 0.0, 1.747690707593397E9, 0.0, 2025-05-19 23:38:27.593
38.0, 22324.65414102723, 18703.80564973422, 48388.12928058259, 33627.730146375914, 42675.40337746184, 708.2373748108596, 6781.228695062244, 3684.8415356685564, 0.0, 0.0, 8640.156226176767, -24713.921512832825, 15679.748735397905, 4622.4301603353215, -10855.012935997598, -31981.501815498093, 0.052000000000000005, 0.0, 1.026, 192.0, 0.0, 0.0, 0.0, 0.0, 0.0, 0.0, 0.0, 0.0, 0.0, 1.747690707602371E9, 0.0, 2025-05-19 23:38:27.602
40.0, 22322.061338670414, 18713.84158299465, 48390.36445502812, 33647.35497800767, 42684.411130477325, 745.0730496732057, 6774.031433347635, 3678.091308843054, 0.0, 0.0, 8652.159112949266, -24696.75537309115, 15698.792421673827, 4650.101619970992, -10830.671886285769, -31955.50673669657, 0.052000000000000005, 0.0, 1.026, 192.0, 0.0, 0.0, 0.0, 0.0, 0.0, 0.0, 0.0, 0.0, 0.0, 1.747690707609394E9, 0.0, 2025-05-19 23:38:27.609
42.0, 22317.926265946182, 18707.158411402514, 48388.26339104932, 33628.35599522066, 42669.167240758805, 728.5998140096443, 6752.059668548068, 3679.9018001439335, 0.0, 0.0, 8644.783037279014, -24704.869056328425, 15694.970273371968, 4633.96366047426, -10851.280194673562, -31968.64956243629, 0.052000000000000005, 0.0, 1.026, 192.0, 0.0, 0.0, 0.0, 0.0, 0.0, 0.0, 0.0, 0.0, 0.0, 1.747690707618414E9, 0.0, 2025-05-19 23:38:27.618
44.0, 22336.65702779973, 18734.2710774268, 48405.40717904654, 33658.910829891065, 42689.61908693542, 749.9233782200073, 6810.44242506533, 3694.2292683397854, 0.0, 0.0, 8654.036659483512, -24691.74858233316, 15696.221971061466, 4645.854788524483, -10828.86139498489, -31958.7924431315, 0.058, 0.002, 1.03, 192.0, 0.5, 104.0, 0.0, 8.0, 16.0, 24.0, 0.0, 0.0, 0.0, 1.747690707627507E9, 0.0, 2025-05-19 23:38:27.627
46.0, 22329.884449229772, 18731.208888436424, 48408.044684892266, 33661.28011480333, 42674.95634257273, 773.5044686203562, 6774.254950792188, 3695.1009863735426, 0.0, 0.0, 8665.27958694453, -24678.35988740443, 15723.513451041395, 4671.648701625908, -10817.931391946244, -31932.283274207508, 0.058, 0.002, 1.03, 192.0, 0.0, 0.0, 0.0, 0.0, 0.0, 0.0, 0.0, 0.0, 0.0, 1.747690707633473E9, 0.0, 2025-05-19 23:38:27.633
48.0, 22338.691036545162, 18743.189423464468, 48409.94458317097, 33661.637742714614, 42675.58219141748, 759.8922562470742, 6795.377349302453, 3706.0086376677323, 0.0, 0.0, 8656.718868818149, -24682.8749397844, 15704.58152348775, 4651.241558938213, -10831.968287464177, -31948.644751148793, 0.058, 0.002, 1.03, 192.0, 0.0, 0.0, 0.0, 0.0, 0.0, 0.0, 0.0, 0.0, 0.0, 1.747690707641525E9, 0.0, 2025-05-19 23:38:27.641
50.0, 22338.08753944487, 18746.74335083286, 48416.694809996465, 33678.826234200744, 42686.91452585632, 791.3858641846018, 6810.8894599544365, 3708.109701646531, 0.0, 0.0, 8672.074517258945, -24666.26759365411, 15725.68157025356, 4681.394062208422, -10804.743862717613, -31922.672024091724, 0.058, 0.002, 1.03, 192.0, 0.0, 0.0, 0.0, 0.0, 0.0, 0.0, 0.0, 0.0, 0.0, 1.747690707649669E9, 0.0, 2025-05-19 23:38:27.649
52.0, 22342.4237778692, 18749.492615400864, 48407.91057442553, 33657.1450420791, 42671.4694704377, 776.5666576107333, 6783.933256141336, 3711.2612976147293, 0.0, 0.0, 8662.865598543358, -24673.040172224068, 15721.099462640223, 4662.015099765671, -10827.229717639651, -31938.56411439945, 0.058, 0.002, 1.03, 192.0, 0.0, 0.0, 0.0, 0.0, 0.0, 0.0, 0.0, 0.0, 0.0, 1.747690707656556E9, 0.0, 2025-05-19 23:38:27.656
54.0, 22355.99128675357, 18768.15632202105, 48418.035914663786, 33679.407379556586, 42687.8756508679, 788.0778060052164, 6823.629954293961, 3726.684001288891, 0.0, 0.0, 8667.894741045802, -24663.384218619376, 15718.529012027862, 4667.82655332405, -10812.678731999247, -31933.065585263445, 0.06, 0.0, 1.028, 192.0, 0.5, 112.0, 0.0, 0.0, 16.0, 16.0, 0.0, 0.0, 0.0, 1.747690707664629E9, 0.0, 2025-05-19 23:38:27.664
56.0, 22348.503452361045, 18760.892005073074, 48407.03885639177, 33668.27621081784, 42682.31006649853, 794.090425263694, 6785.542581742118, 3712.8706232155114, 0.0, 0.0, 8671.895703303302, -24659.24914589514, 15736.656276781116, 4684.970341321271, -10808.029569152543, -31916.614701344337, 0.06, 0.0, 1.028, 192.0, 0.0, 0.0, 0.0, 0.0, 0.0, 0.0, 0.0, 0.0, 0.0, 1.74769070767367E9, 0.0, 2025-05-19 23:38:27.673
58.0, 22348.70461806114, 18762.99306905187, 48405.18366160199, 33660.22958281393, 42673.05644429403, 770.2634656743367, 6798.238372592732, 3714.0999691605534, 0.0, 0.0, 8653.276700172031, -24673.375448390896, 15709.63301773465, 4649.989861248715, -10831.8565287419, -31948.644751148793, 0.06, 0.0, 1.028, 192.0, 0.0, 0.0, 0.0, 0.0, 0.0, 0.0, 0.0, 0.0, 0.0, 1.747690707681678E9, 0.0, 2025-05-19 23:38:27.681
60.0, 22351.923269262705, 18764.557691163744, 48408.379961059094, 33679.16151036758, 42682.801804876544, 801.5559079117666, 6796.763157458682, 3702.834689955079, 0.0, 0.0, 8664.251406699588, -24662.244279652154, 15726.888564454148, 4674.330910960545, -10813.528098288549, -31927.36589042734, 0.06, 0.0, 1.028, 192.0, 0.0, 0.0, 0.0, 0.0, 0.0, 0.0, 0.0, 0.0, 0.0, 1.74769070768974E9, 0.0, 2025-05-19 23:38:27.689
62.0, 22351.81151054043, 18761.76372310683, 48412.224461105405, 33661.570687481246, 42676.25274375114, 778.2430384448813, 6776.870104893459, 3707.4167975684168, 0.0, 0.0, 8664.251406699588, -24667.69810529925, 15728.229669121465, 4660.741050331718, -10830.247203141118, -31937.982969043613, 0.06, 0.0, 1.028, 192.0, 0.0, 0.0, 0.0, 0.0, 0.0, 0.0, 0.0, 0.0, 0.0, 1.74769070769873E9, 0.0, 2025-05-19 23:38:27.698
64.0, 22362.51799613452, 18771.017345311328, 48415.71133324043, 33678.31214407827, 42687.696836912255, 784.0768437477165, 6807.179070374856, 3707.7744254797017, 0.0, 0.0, 8668.878217801835, -24660.74671277365, 15723.714616741494, 4664.317329444567, -10816.18795587873, -31936.17247774273, 0.058, -0.008, 1.026, 192.0, 0.5, 104.0, 127.5, 96.0, 16.0, 8.0, 0.0, 0.0, 0.0, 1.747690707706779E9, 0.0, 2025-05-19 23:38:27.706
66.0, 22353.733760563584, 18763.507159174344, 48406.03302789129, 33668.25385907339, 42685.55106944455, 801.0865212782052, 6770.589264701518, 3694.2292683397854, 0.0, 0.0, 8670.28637770252, -24660.657305795827, 15739.293782626843, 4671.581646392542, -10821.306505358996, -31929.064623005943, 0.058, -0.008, 1.026, 192.0, 0.0, 0.0, 0.0, 0.0, 0.0, 0.0, 0.0, 0.0, 0.0, 1.747690707712765E9, 0.0, 2025-05-19 23:38:27.712
68.0, 22361.825092056406, 18774.437162212987, 48415.75603672934, 33670.869013174655, 42694.24589803766, 776.2313814439037, 6796.427881291853, 3714.0999691605534, 0.0, 0.0, 8663.379688665831, -24663.428922108284, 15719.803061461815, 4648.358183903478, -10834.695200287724, -31948.197716259685, 0.058, -0.008, 1.026, 192.0, 0.0, 0.0, 0.0, 0.0, 0.0, 0.0, 0.0, 0.0, 0.0, 1.747690707720828E9, 0.0, 2025-05-19 23:38:27.720
70.0, 22361.802740311952, 18774.14658953507, 48418.39354257507, 33684.25770810339, 42702.13606383039, 800.7065416224649, 6791.175221344855, 3697.984361408277, 0.0, 0.0, 8681.797526097003, -24651.35898010242, 15740.791349505347, 4677.907190073394, -10810.75648197609, -31922.381451413807, 0.058, -0.008, 1.026, 192.0, 0.0, 0.0, 0.0, 0.0, 0.0, 0.0, 0.0, 0.0, 0.0, 1.747690707728851E9, 0.0, 2025-05-19 23:38:27.728
72.0, 22351.945621007162, 18763.305993474245, 48408.71523722592, 33657.97205662394, 42688.814424135024, 778.220686700426, 6771.170410057356, 3701.1359573764753, 0.0, 0.0, 8667.403002667786, -24668.50276809964, 15729.459015066508, 4655.689556084819, -10837.869148000378, -31942.386262701308, 0.058, -0.008, 1.026, 192.0, 0.0, 0.0, 0.0, 0.0, 0.0, 0.0, 0.0, 0.0, 0.0, 1.747690707736911E9, 0.0, 2025-05-19 23:38:27.736
74.0, 22367.390676425777, 18776.80644712525, 48417.63358326359, 33680.033228401335, 42705.198252820766, 782.4675181469344, 6811.336494843543, 3705.628658011992, 0.0, 0.0, 8673.661491115272, -24661.193747662754, 15726.508584798406, 4661.702175343296, -10822.178223392752, -31937.357120198863, 0.052000000000000005, -0.004, 1.03, 192.0, 0.5, 80.0, 127.5, 112.0, 16.0, 24.0, 0.0, 0.0, 0.0, 1.747690707744927E9, 0.0, 2025-05-19 23:38:27.744
76.0, 22352.48206287409, 18760.33321146169, 48403.44022553447, 33663.76115843787, 42687.83094737899, 782.2887041912919, 6765.9848053437245, 3681.466422255805, 0.0, 0.0, 8669.28054920203, -24657.952744716735, 15741.707771028015, 4674.8450010830165, -10821.66413327028, -31925.063660748445, 0.052000000000000005, -0.004, 1.03, 192.0, 0.0, 0.0, 0.0, 0.0, 0.0, 0.0, 0.0, 0.0, 0.0, 1.747690707754936E9, 0.0, 2025-05-19 23:38:27.754
78.0, 22364.23908045758, 18768.96098482144, 48409.54225177077, 33662.978847381935, 42695.676409682805, 760.9874917253843, 6795.019721391168, 3704.466367300316, 0.0, 0.0, 8656.562406606961, -24675.476512369696, 15713.365759058686, 4646.2571199246795, -10840.86428175739, -31953.360969228863, 0.052000000000000005, -0.004, 1.03, 192.0, 0.0, 0.0, 0.0, 0.0, 0.0, 0.0, 0.0, 0.0, 0.0, 1.747690707762973E9, 0.0, 2025-05-19 23:38:27.762
80.0, 22363.009734512536, 18767.865749343127, 48406.59182150267, 33674.020609142855, 42702.76191267514, 784.7920995702863, 6796.96432315878, 3695.5033177737378, 0.0, 0.0, 8670.264025958066, -24662.288983141065, 15731.82829997877, 4671.805163837095, -10820.23362162514, -31928.997567772578, 0.052000000000000005, -0.004, 1.03, 192.0, 0.0, 0.0, 0.0, 0.0, 0.0, 0.0, 0.0, 0.0, 0.0, 1.747690707770998E9, 0.0, 2025-05-19 23:38:27.770
82.0, 22347.56467909392, 18754.36529569212, 48397.114681853614, 33646.751480907384, 42688.43444447928, 757.545323079267, 6778.926465383347, 3693.335198561573, 0.0, 0.0, 8655.131894961822, -24680.25978568313, 15719.356026572708, 4651.465076382766, -10841.601889324415, -31946.297817980987, 0.052000000000000005, -0.004, 1.03, 192.0, 0.0, 0.0, 0.0, 0.0, 0.0, 0.0, 0.0, 0.0, 0.0, 1.747690707780025E9, 0.0, 2025-05-19 23:38:27.780
84.0, 22352.48206287409, 18758.589775394175, 48399.640428977065, 33660.69896944749, 42707.38872377738, 760.1604771805379, 6818.332590858054, 3708.8920127024667, 0.0, 0.0, 8653.90254901678, -24679.65628858284, 15705.29677931032, 4650.526303115643, -10831.565956063982, -31949.874097093834, 0.058, 0.0, 1.03, 192.0, 0.5, 104.0, 0.0, 0.0, 16.0, 24.0, 0.0, 0.0, 0.0, 1.747690707787032E9, 0.0, 2025-05-19 23:38:27.787
86.0, 22340.009789468026, 18741.490690885865, 48387.682245693475, 33647.06440532976, 42695.78816840508, 773.7503378093646, 6781.698081695805, 3692.083500872076, 0.0, 0.0, 8648.269909414043, -24687.83702705348, 15715.623285248672, 4658.192951463813, -10835.119883432375, -31941.045158033987, 0.058, 0.0, 1.03, 192.0, 0.0, 0.0, 0.0, 0.0, 0.0, 0.0, 0.0, 0.0, 0.0, 1.747690707794061E9, 0.0, 2025-05-19 23:38:27.794
88.0, 22351.40917914023, 18752.420693924512, 48398.07580686519, 33647.75730940787, 42698.09039808397, 744.4919043173677, 6809.995390176224, 3709.562565036126, 0.0, 0.0, 8645.252423912576, -24691.726230588705, 15696.825468161758, 4636.332945386523, -10845.222871926175, -31960.401768732285, 0.058, 0.0, 1.03, 192.0, 0.0, 0.0, 0.0, 0.0, 0.0, 0.0, 0.0, 0.0, 0.0, 1.747690707801073E9, 0.0, 2025-05-19 23:38:27.801
90.0, 22357.354743165346, 18756.578118393198, 48398.522841754304, 33664.431710771525, 42710.11563660093, 778.0642244892389, 6809.056616909101, 3702.0970823880534, 0.0, 0.0, 8654.751915306082, -24679.343364160464, 15712.91872416958, 4662.484486399232, -10822.669961770769, -31935.926608553724, 0.058, 0.0, 1.03, 192.0, 0.0, 0.0, 0.0, 0.0, 0.0, 0.0, 0.0, 0.0, 0.0, 1.747690707809142E9, 0.0, 2025-05-19 23:38:27.809
92.0, 22352.146786707257, 18748.732656089385, 48393.33723704067, 33641.1411930491, 42697.46454923923, 757.3888608680799, 6782.882724151937, 3700.174832364897, 0.0, 0.0, 8649.968641992646, -24688.328765431495, 15710.035349134845, 4646.771210047151, -10842.138331191341, -31950.164669771755, 0.058, 0.0, 1.03, 192.0, 0.0, 0.0, 0.0, 0.0, 0.0, 0.0, 0.0, 0.0, 0.0, 1.74769070781712E9, 0.0, 2025-05-19 23:38:27.817
94.0, 22357.98059201009, 18758.14274050507, 48401.92030691151, 33659.80489966928, 42714.16130234734, 760.2722359028144, 6819.964268203291, 3707.6179632685144, 0.0, 0.0, 8656.025964740034, -24680.483303127683, 15705.408538032598, 4648.179369947836, -10829.24137464063, -31950.27642849403, 0.058, -0.002, 1.029, 192.0, 0.5, 104.0, 127.5, 112.0, 16.0, 16.0, 0.0, 0.0, 0.0, 1.747690707824141E9, 0.0, 2025-05-19 23:38:27.824
96.0, 22345.351856392845, 18745.33519093218, 48393.94073414096, 33648.226696041434, 42701.21964230772, 767.9835877398954, 6781.67572995135, 3687.3672827920063, 0.0, 0.0, 8658.99874675259, -24681.399724650353, 15721.993532418435, 4659.869332297961, -10827.989676951132, -31940.687530122705, 0.058, -0.002, 1.029, 192.0, 0.0, 0.0, 0.0, 0.0, 0.0, 0.0, 0.0, 0.0, 0.0, 1.747690707833152E9, 0.0, 2025-05-19 23:38:27.833
98.0, 22355.074865230905, 18754.030019525293, 48398.09815860965, 33646.50561171837, 42707.25461331065, 747.1517619075491, 6809.905983198403, 3703.1923178663637, 0.0, 0.0, 8644.984202979113, -24693.02263176711, 15695.976101872457, 4632.53314882912, -10847.614508582892, -31966.101463568386, 0.058, -0.002, 1.029, 192.0, 0.0, 0.0, 0.0, 0.0, 0.0, 0.0, 0.0, 0.0, 0.0, 1.747690707841176E9, 0.0, 2025-05-19 23:38:27.841
100.0, 22353.487891374578, 18755.37112419261, 48394.119548096605, 33658.88847814661, 42711.27792731261, 772.8786197756076, 6802.842831950526, 3690.9212101604, 0.0, 0.0, 8656.182426951222, -24679.544529860563, 15713.522221269874, 4660.294015442612, -10823.988714693633, -31939.92757081122, 0.058, -0.002, 1.029, 192.0, 0.0, 0.0, 0.0, 0.0, 0.0, 0.0, 0.0, 0.0, 0.0, 1.747690707850214E9, 0.0, 2025-05-19 23:38:27.850
102.0, 22351.252716929044, 18746.050446754747, 48384.66476019201, 33631.08290804421, 42695.09526432696, 747.3752793521022, 6776.445421748808, 3680.5276489886824, 0.0, 0.0, 8637.116388930845, -24696.06246901303, 15699.48532575194, 4634.5224540856425, -10853.940052263744, -31962.90516411128, 0.058, -0.002, 1.029, 192.0, 0.0, 0.0, 0.0, 0.0, 0.0, 0.0, 0.0, 0.0, 0.0, 1.747690707859236E9, 0.0, 2025-05-19 23:38:27.859
104.0, 22361.065132744927, 18756.3769526931, 48393.29253355176, 33650.32776002023, 42715.34594480347, 755.0195759558172, 6816.030361179157, 3696.5538497631374, 0.0, 0.0, 8642.816083766947, -24691.614471866425, 15694.210314060489, 4635.975317475238, -10840.014915468088, -31962.592239688904, 0.058, -0.004, 1.0285, 192.0, 0.5, 104.0, 127.5, 104.0, 16.0, 16.0, 0.0, 0.0, 0.0, 1.747690707866222E9, 0.0, 2025-05-19 23:38:27.866
106.0, 22345.441263370667, 18744.28465894278, 48384.64240844756, 33643.242257027894, 42700.996124863166, 772.7221575644205, 6776.803049660093, 3691.3458933050506, 0.0, 0.0, 8645.05125821248, -24690.31807068802, 15711.39880554662, 4652.7167740722625, -10836.595098566426, -31945.359044713863, 0.058, -0.004, 1.0285, 192.0, 0.0, 0.0, 0.0, 0.0, 0.0, 0.0, 0.0, 0.0, 0.0, 1.747690707875298E9, 0.0, 2025-05-19 23:38:27.875
108.0, 22353.353780907844, 18754.76762709232, 48393.80662367423, 33643.35401575018, 42708.4839592557, 750.2363026423816, 6800.920581927369, 3703.1029108885423, 0.0, 0.0, 8636.624650552827, -24696.30833820204, 15691.595159959217, 4630.342677872501, -10850.073200472976, -31965.453262979183, 0.058, -0.004, 1.0285, 192.0, 0.0, 0.0, 0.0, 0.0, 0.0, 0.0, 0.0, 0.0, 0.0, 1.747690707881312E9, 0.0, 2025-05-19 23:38:27.881
110.0, 22353.51024311903, 18755.125255003604, 48394.36541728561, 33661.68244620353, 42723.2361105962, 771.5375151082892, 6803.692198239827, 3696.7997189521457, 0.0, 0.0, 8649.990993737101, -24681.69029732827, 15710.303570068309, 4657.656509596885, -10825.888612972334, -31943.302684223974, 0.058, -0.004, 1.0285, 192.0, 0.0, 0.0, 0.0, 0.0, 0.0, 0.0, 0.0, 0.0, 0.0, 1.747690707889398E9, 0.0, 2025-05-19 23:38:27.889
112.0, 22349.464577372622, 18750.85607181264, 48384.57535321419, 33637.49785870288, 42708.34984878896, 753.3208433772139, 6775.2607792926765, 3688.239000825763, 0.0, 0.0, 8638.613955809351, -24687.725268331204, 15705.073261865768, 4641.3844396334225, -10847.212177182697, -31954.389149473805, 0.058, -0.004, 1.0285, 192.0, 0.0, 0.0, 0.0, 0.0, 0.0, 0.0, 0.0, 0.0, 0.0, 1.747690707897389E9, 0.0, 2025-05-19 23:38:27.897
114.0, 22359.209937955136, 18760.310859717236, 48390.58797247267, 33650.55127746478, 42723.6831454853, 753.76787826632, 6804.698026740316, 3685.042701368654, 0.0, 0.0, 8642.257290155565, -24685.84772179696, 15697.473668750963, 4637.025849464637, -10841.065447457488, -31962.592239688904, 0.058, -0.001, 1.02925, 192.0, 0.5, 104.0, 0.0, 8.0, 16.0, 24.0, 0.0, 0.0, 0.0, 1.747690707904343E9, 0.0, 2025-05-19 23:38:27.904
116.0, 22355.231327442092, 18751.057237512738, 48391.3702835286, 33646.86323962966, 42718.07285762702, 771.8951430195741, 6776.266607793165, 3684.282742057174, 0.0, 0.0, 8644.067781456444, -24690.251015454654, 15713.075186380767, 4649.654585081886, -10840.730171290657, -31950.254076749574, 0.058, -0.001, 1.02925, 192.0, 0.0, 0.0, 0.0, 0.0, 0.0, 0.0, 0.0, 0.0, 0.0, 1.747690707912415E9, 0.0, 2025-05-19 23:38:27.912
118.0, 22367.2789177035, 18766.748162120362, 48405.63069649109, 33654.41812925555, 42721.49267452868, 753.8572852441413, 6808.095491897523, 3708.1544051354417, 0.0, 0.0, 8648.828703025425, -24687.389992164375, 15704.693282210028, 4640.892701255405, -10841.780703280057, -31957.00430357508, 0.058, -0.001, 1.02925, 192.0, 0.0, 0.0, 0.0, 0.0, 0.0, 0.0, 0.0, 0.0, 0.0, 1.747690707921455E9, 0.0, 2025-05-19 23:38:27.921
120.0, 22368.08358050389, 18765.47411268641, 48399.372208043605, 33666.06338811677, 42730.65688975536, 781.4169861575349, 6802.172279616867, 3689.0660153706094, 0.0, 0.0, 8659.781057808526, -24671.564957090017, 15722.753491729914, 4666.753669590195, -10819.09368265792, -31932.909123052257, 0.058, -0.001, 1.02925, 192.0, 0.0, 0.0, 0.0, 0.0, 0.0, 0.0, 0.0, 0.0, 0.0, 1.747690707929457E9, 0.0, 2025-05-19 23:38:27.929
122.0, 22346.312981404422, 18746.296315943757, 48381.98255085738, 33632.356957478165, 42707.72399994421, 752.449125343457, 6775.90897988188, 3687.7696141922015, 0.0, 0.0, 8635.060028440956, -24695.570730635016, 15702.279293808853, 4638.210491920769, -10851.257842929106, -31959.105367553875, 0.058, -0.001, 1.02925, 192.0, 0.0, 0.0, 0.0, 0.0, 0.0, 0.0, 0.0, 0.0, 0.0, 1.747690707937497E9, 0.0, 2025-05-19 23:38:27.937
124.0, 22364.887281046784, 18760.5790806507, 48395.035969619275, 33653.97109436645, 42724.24193909668, 768.4753261179121, 6818.265535624688, 3698.006713152732, 0.0, 0.0, 8640.156226176767, -24689.960442776734, 15695.216142560977, 4642.569082089553, -10835.075179943464, -31956.914896597256, 0.058, 0.0015, 1.028625, 192.0, 0.5, 104.0, 0.0, 16.0, 16.0, 16.0, 0.0, 0.0, 0.0, 1.747690707947512E9, 0.0, 2025-05-19 23:38:27.947
126.0, 22355.030161741994, 18748.397379922557, 48383.68128343598, 33644.91863786204, 42715.48005527021, 768.8106022847418, 6773.2044188027885, 3679.9241518883887, 0.0, 0.0, 8644.023077967535, -24686.495922386162, 15714.617456748183, 4654.68372758433, -10835.343400876929, -31943.526201668526, 0.058, 0.0015, 1.028625, 192.0, 0.0, 0.0, 0.0, 0.0, 0.0, 0.0, 0.0, 0.0, 0.0, 1.747690707955517E9, 0.0, 2025-05-19 23:38:27.955
128.0, 22361.020429256016, 18755.43817942598, 48390.94560038395, 33640.00125408188, 42715.74827620367, 739.127485648094, 6797.567820259073, 3686.7637856917127, 0.0, 0.0, 8633.562461562451, -24697.76120159164, 15689.963482613979, 4623.883023724917, -10856.890482531844, -31971.108254326376, 0.058, 0.0015, 1.028625, 192.0, 0.0, 0.0, 0.0, 0.0, 0.0, 0.0, 0.0, 0.0, 0.0, 1.747690707961583E9, 0.0, 2025-05-19 23:38:27.961
130.0, 22375.03497302949, 18766.122313275613, 48393.38194052958, 33659.67078920255, 42731.30509034456, 768.9894162403842, 6797.143137114423, 3675.543209975149, 0.0, 0.0, 8654.61780483935, -24680.08097172749, 15715.802099204315, 4650.146323459902, -10831.253031641607, -31948.711806382158, 0.058, 0.0015, 1.028625, 192.0, 0.0, 0.0, 0.0, 0.0, 0.0, 0.0, 0.0, 0.0, 0.0, 1.747690707968598E9, 0.0, 2025-05-19 23:38:27.968
132.0, 22351.163309951226, 18750.878423557097, 48379.88148687858, 33630.814687110746, 42716.150607603864, 748.2917008747698, 6773.427936247342, 3673.665663440903, 0.0, 0.0, 8638.882176742814, -24693.8272945675, 15706.079090366256, 4631.080285439526, -10855.504674375616, -31964.961524601167, 0.058, 0.0015, 1.028625, 192.0, 0.0, 0.0, 0.0, 0.0, 0.0, 0.0, 0.0, 0.0, 0.0, 1.747690707976619E9, 0.0, 2025-05-19 23:38:27.976
134.0, 22363.792045568473, 18759.059162027737, 48392.085539351174, 33650.037187342314, 42735.8871979579, 755.1983899114597, 6815.985657690247, 3687.6131519810147, 0.0, 0.0, 8635.618822052338, -24696.151875990854, 15691.639863448128, 4631.214395906258, -10843.8594155144, -31967.8448996359, 0.057, -2.5E-4, 1.0273124999999999, 192.0, 0.5, 96.0, 127.5, 120.0, 16.0, 8.0, 0.0, 0.0, 0.0, 1.747690707985593E9, 0.0, 2025-05-19 23:38:27.985
136.0, 22354.04668498596, 18751.213699723925, 48387.65989394902, 33645.72330066244, 42724.7336774747, 769.5482098517668, 6780.96047412878, 3686.0708816135984, 0.0, 0.0, 8642.860787255859, -24689.289890443077, 15713.388110803142, 4653.454381639288, -10833.66702004278, -31945.64961739178, 0.057, -2.5E-4, 1.0273124999999999, 192.0, 0.0, 0.0, 0.0, 0.0, 0.0, 0.0, 0.0, 0.0, 0.0, 1.747690707993628E9, 0.0, 2025-05-19 23:38:27.993
138.0, 22366.541310136476, 18757.136912004582, 48394.36541728561, 33644.49395471739, 42733.47320955672, 748.157590408038, 6813.258744866699, 3711.954201692844, 0.0, 0.0, 8635.641173796794, -24698.69997485876, 15691.975139614957, 4632.063762195559, -10845.424037626271, -31963.821585633945, 0.057, -2.5E-4, 1.0273124999999999, 192.0, 0.0, 0.0, 0.0, 0.0, 0.0, 0.0, 0.0, 0.0, 0.0, 1.747690708002703E9, 0.0, 2025-05-19 23:38:28.002
140.0, 22364.104969990847, 18755.706400359442, 48388.95629512743, 33655.33455077822, 42741.251616627174, 773.7279860649093, 6810.710645998794, 3697.403216052439, 0.0, 0.0, 8649.789828037005, -24686.60768110844, 15708.515430511885, 4659.9363875313275, -10820.926525703255, -31938.09472776589, 0.057, -2.5E-4, 1.0273124999999999, 192.0, 0.0, 0.0, 0.0, 0.0, 0.0, 0.0, 0.0, 0.0, 0.0, 1.747690708010675E9, 0.0, 2025-05-19 23:38:28.010
142.0, 22360.70750483364, 18747.86093805563, 48382.586047957666, 33634.882704601616, 42722.6326134959, 754.7513550223536, 6783.933256141336, 3700.241887598263, 0.0, 0.0, 8633.89773772928, -24707.573617407517, 15694.187962316033, 4634.768323274651, -10852.308374918506, -31960.42412047674, 0.057, -2.5E-4, 1.0273124999999999, 192.0, 0.0, 0.0, 0.0, 0.0, 0.0, 0.0, 0.0, 0.0, 0.0, 1.747690708017726E9, 0.0, 2025-05-19 23:38:28.017
144.0, 22373.04566777297, 18761.651964384553, 48394.85715566363, 33655.66982694505, 42749.76763126464, 761.3674713811245, 6823.182919404855, 3703.4828905442823, 0.0, 0.0, 8642.257290155565, -24691.16743697732, 15695.596122216717, 4644.960718746272, -10832.9070607313, -31951.997512817088, 0.05450000000000001, -0.002125, 1.02965625, 192.0, 0.5, 80.0, 127.5, 112.0, 16.0, 32.0, 0.0, 0.0, 0.0, 1.747690708026712E9, 0.0, 2025-05-19 23:38:28.026
146.0, 22353.443187885667, 18748.33032468919, 48383.48011773588, 33646.393852996094, 42737.42946832532, 770.7105005634428, 6782.0110061181795, 3693.692826472858, 0.0, 0.0, 8640.670316299238, -24698.297643458565, 15707.084918866745, 4656.583625863031, -10834.09170318743, -31940.396957444784, 0.05450000000000001, -0.002125, 1.02965625, 192.0, 0.0, 0.0, 0.0, 0.0, 0.0, 0.0, 0.0, 0.0, 0.0, 1.747690708034733E9, 0.0, 2025-05-19 23:38:28.034
148.0, 22362.18271996769, 18755.773455592807, 48389.783309672275, 33645.96916985144, 42743.46443932825, 753.834933499686, 6808.0731401530675, 3705.271030100707, 0.0, 0.0, 8631.014362694546, -24702.45506792725, 15686.118982567667, 4634.276584896635, -10846.653383571314, -31960.155899543275, 0.05450000000000001, -0.002125, 1.02965625, 192.0, 0.0, 0.0, 0.0, 0.0, 0.0, 0.0, 0.0, 0.0, 0.0, 1.747690708042804E9, 0.0, 2025-05-19 23:38:28.042
150.0, 22365.088446746882, 18757.65100212705, 48386.654065448536, 33660.587210725214, 42752.89687548839, 780.3888059125908, 6810.107148898501, 3686.9202479029, 0.0, 0.0, 8646.370011135341, -24688.373468920407, 15704.402709532109, 4658.774096819651, -10824.368694349372, -31939.234666733108, 0.05450000000000001, -0.002125, 1.02965625, 192.0, 0.0, 0.0, 0.0, 0.0, 0.0, 0.0, 0.0, 0.0, 0.0, 1.747690708049824E9, 0.0, 2025-05-19 23:38:28.049
152.0, 22354.38196115279, 18742.362408919624, 48373.779460642276, 33631.306425488765, 42735.4848665577, 754.5725410667111, 6778.680596194339, 3694.698654973347, 0.0, 0.0, 8628.600374293372, -24701.516294660127, 15692.310415781787, 4636.779980275629, -10850.453180128716, -31957.518393697548, 0.05450000000000001, -0.002125, 1.02965625, 192.0, 0.0, 0.0, 0.0, 0.0, 0.0, 0.0, 0.0, 0.0, 0.0, 1.747690708056839E9, 0.0, 2025-05-19 23:38:28.056
154.0, 22372.732743350596, 18764.71415337493, 48389.76095792782, 33651.311236776266, 42749.432355097815, 762.574465581711, 6812.543489044129, 3699.3254660755956, 0.0, 0.0, 8628.980353949113, -24701.717460360225, 15682.766220899372, 4633.851901751984, -10840.014915468088, -31964.98387634562, 0.05425000000000001, -0.0040625, 1.031828125, 192.0, 0.5, 88.0, 127.5, 104.0, 16.0, 40.0, 0.0, 0.0, 0.0, 1.747690708064887E9, 0.0, 2025-05-19 23:38:28.064
156.0, 22368.10593224835, 18758.880348072096, 48385.53647822577, 33646.14798380709, 42743.10681141696, 776.3431401661802, 6769.29286352311, 3678.6501024544364, 0.0, 0.0, 8647.353487891376, -24689.55811137654, 15715.288009081843, 4653.119105472459, -10832.325915375463, -31945.04612029149, 0.05425000000000001, -0.0040625, 1.031828125, 192.0, 0.0, 0.0, 0.0, 0.0, 0.0, 0.0, 0.0, 0.0, 0.0, 1.747690708072914E9, 0.0, 2025-05-19 23:38:28.072
158.0, 22365.155501980247, 18756.265193970823, 48381.133184568076, 33631.50759118886, 42741.89981721638, 746.4365060849793, 6798.81951794857, 3679.5218204881935, 0.0, 0.0, 8626.007571936558, -24712.647463398873, 15681.358060998686, 4615.72463699873, -10858.812732555001, -31982.060609109478, 0.05425000000000001, -0.0040625, 1.031828125, 192.0, 0.0, 0.0, 0.0, 0.0, 0.0, 0.0, 0.0, 0.0, 0.0, 1.747690708080941E9, 0.0, 2025-05-19 23:38:28.080
160.0, 22373.939737551183, 18767.57517666521, 48384.01655960281, 33652.339417021205, 42754.17092492234, 775.2702564323255, 6779.440555505819, 3670.9163988729, 0.0, 0.0, 8644.358354134363, -24690.586291621483, 15705.944979899525, 4645.2065879352795, -10832.594136308926, -31954.724425640637, 0.05425000000000001, -0.0040625, 1.031828125, 192.0, 0.0, 0.0, 0.0, 0.0, 0.0, 0.0, 0.0, 0.0, 0.0, 1.747690708089908E9, 0.0, 2025-05-19 23:38:28.089
162.0, 22363.970859524117, 18750.23022296789, 48380.57439095669, 33632.915751089546, 42744.045584684085, 752.5385323212782, 6792.404567289897, 3681.6452362114474, 0.0, 0.0, 8631.483749328107, -24706.97012030722, 15696.758412928393, 4626.073494681536, -10858.05277324352, -31969.208356047675, 0.05425000000000001, -0.0040625, 1.031828125, 192.0, 0.0, 0.0, 0.0, 0.0, 0.0, 0.0, 0.0, 0.0, 0.0, 1.747690708097965E9, 0.0, 2025-05-19 23:38:28.097
164.0, 22373.76092359554, 18756.62282188211, 48388.77748117179, 33651.087719331714, 42758.171887179844, 759.9146079915295, 6830.536643330651, 3688.2837043146737, 0.0, 0.0, 8640.33504013241, -24701.069259771022, 15691.751622170405, 4634.120122685447, -10838.696162545224, -31963.151033300288, 0.053125000000000006, -0.00203125, 1.0329140625000002, 192.0, 0.5, 80.0, 0.0, 0.0, 16.0, 40.0, 0.0, 0.0, 0.0, 1.747690708105979E9, 0.0, 2025-05-19 23:38:28.105
166.0, 22361.400408911755, 18746.206908965934, 48379.27798977828, 33643.59988493918, 42752.06986094354, 775.8514017881635, 6787.733052698738, 3676.437279753361, 0.0, 0.0, 8643.508987845062, -24696.598910879962, 15710.750604957415, 4650.414544393367, -10836.706857288702, -31946.431928447717, 0.053125000000000006, -0.00203125, 1.0329140625000002, 192.0, 0.0, 0.0, 0.0, 0.0, 0.0, 0.0, 0.0, 0.0, 0.0, 1.747690708114009E9, 0.0, 2025-05-19 23:38:28.114
168.0, 22368.3294496929, 18754.924089303506, 48384.08361483617, 33636.51438194685, 42754.61795981145, 752.1362009210826, 6810.174204131867, 3689.7812711931792, 0.0, 0.0, 8630.835548738904, -24709.40646045285, 15685.739002911927, 4622.474863824233, -10855.415267397793, -31973.544594472005, 0.053125000000000006, -0.00203125, 1.0329140625000002, 192.0, 0.0, 0.0, 0.0, 0.0, 0.0, 0.0, 0.0, 0.0, 0.0, 1.747690708123045E9, 0.0, 2025-05-19 23:38:28.123
170.0, 22369.648202615765, 18755.527586403798, 48385.11179508112, 33652.89821063259, 42767.78313729562, 780.4111576570461, 6805.3685790739755, 3679.141840832453, 0.0, 0.0, 8643.017249467046, -24695.861303312937, 15702.547514742319, 4647.01707923616, -10832.124749675364, -31951.8410506059, 0.053125000000000006, -0.00203125, 1.0329140625000002, 192.0, 0.0, 0.0, 0.0, 0.0, 0.0, 0.0, 0.0, 0.0, 0.0, 1.74769070813006E9, 0.0, 2025-05-19 23:38:28.130
172.0, 22358.874661788304, 18742.831795553186, 48374.76293739831, 33629.71945163244, 42751.22049465424, 759.2664074023256, 6772.757383913682, 3677.085480342565, 0.0, 0.0, 8631.953135961669, -24711.775745365114, 15692.466877992974, 4626.207605148269, -10858.991546510642, -31966.9955333466, 0.053125000000000006, -0.00203125, 1.0329140625000002, 192.0, 0.0, 0.0, 0.0, 0.0, 0.0, 0.0, 0.0, 0.0, 0.0, 1.747690708137081E9, 0.0, 2025-05-19 23:38:28.137
174.0, 22376.554891652453, 18761.786074851283, 48386.13997532606, 33651.66886468755, 42774.48866063222, 759.9816632248954, 6799.91475342688, 3673.017462851699, 0.0, 0.0, 8639.351563376375, -24701.22572198221, 15689.404689002597, 4627.906337726872, -10847.458046371705, -31968.671914180748, 0.0535625, -0.003015625, 1.0334570312500002, 192.0, 0.5, 88.0, 127.5, 112.0, 16.0, 40.0, 0.0, 0.0, 0.0, 1.747690708145116E9, 0.0, 2025-05-19 23:38:28.145
176.0, 22369.491740404577, 18753.024191024804, 48383.502469480336, 33651.512402476365, 42767.73843380671, 783.9427332809846, 6759.838075618515, 3680.304131544129, 0.0, 0.0, 8643.106656444867, -24694.386088178886, 15711.421157291075, 4649.520474615154, -10841.311316646495, -31945.314341224952, 0.0535625, -0.003015625, 1.0334570312500002, 192.0, 0.0, 0.0, 0.0, 0.0, 0.0, 0.0, 0.0, 0.0, 0.0, 1.747690708156177E9, 0.0, 2025-05-19 23:38:28.156
178.0, 22375.772580596516, 18756.533414904286, 48392.73373994038, 33644.89628611759, 42764.34096864951, 762.1050789481496, 6834.604660821517, 3702.231192854785, 0.0, 0.0, 8643.777208778525, -24700.89044581538, 15694.500886738408, 4634.209529663269, -10847.659212071803, -31960.602934432383, 0.0535625, -0.003015625, 1.0334570312500002, 192.0, 0.0, 0.0, 0.0, 0.0, 0.0, 0.0, 0.0, 0.0, 0.0, 1.747690708162188E9, 0.0, 2025-05-19 23:38:28.162
180.0, 22368.03887701498, 18759.14856900556, 48400.065112121716, 33669.840832929716, 42777.23792520022, 785.6191141151327, 6832.660059053906, 3700.174832364897, 0.0, 0.0, 8654.215473439155, -24688.93226253179, 15709.275389823366, 4665.099640500503, -10819.920697202766, -31933.914951552746, 0.0535625, -0.003015625, 1.0334570312500002, 192.0, 0.0, 0.0, 0.0, 0.0, 0.0, 0.0, 0.0, 0.0, 0.0, 1.747690708169188E9, 0.0, 2025-05-19 23:38:28.169
182.0, 22362.51799613452, 18748.084455500182, 48386.430548003984, 33642.75051864988, 42761.7928697816, 765.3907853830798, 6793.656264979394, 3693.2904950726625, 0.0, 0.0, 8643.508987845062, -24698.767030092127, 15702.659273464595, 4649.743992059707, -10840.841930012934, -31945.314341224952, 0.0535625, -0.003015625, 1.0334570312500002, 192.0, 0.0, 0.0, 0.0, 0.0, 0.0, 0.0, 0.0, 0.0, 0.0, 1.747690708177167E9, 0.0, 2025-05-19 23:38:28.177
184.0, 22378.14186550878, 18762.81425509623, 48393.493699251856, 33660.453100258484, 42778.46727114526, 769.7270238074093, 6830.715457286294, 3691.2788380716847, 0.0, 0.0, 8644.179540178722, -24692.7767625781, 15694.210314060489, 4647.106486213981, -10834.00229620961, -31950.32113198294, 0.055781250000000004, -0.0015078125, 1.0317285156250002, 192.0, 0.5, 104.0, 0.0, 0.0, 16.0, 24.0, 0.0, 0.0, 0.0, 1.747690708185234E9, 0.0, 2025-05-19 23:38:28.185
186.0, 22362.13801647878, 18744.843452554163, 48378.89801012254, 33643.71164366146, 42769.66068382987, 777.9971692558729, 6786.660168964883, 3674.0679948410984, 0.0, 0.0, 8641.027944210524, -24696.956538791244, 15707.710767711493, 4654.370803161955, -10838.00325846711, -31943.36973945734, 0.055781250000000004, -0.0015078125, 1.0317285156250002, 192.0, 0.0, 0.0, 0.0, 0.0, 0.0, 0.0, 0.0, 0.0, 0.0, 1.747690708193253E9, 0.0, 2025-05-19 23:38:28.193
188.0, 22372.106894505847, 18755.28171721479, 48381.37905375708, 33637.43080346952, 42774.667474587855, 755.0419277002726, 6806.083834896545, 3687.4119862809166, 0.0, 0.0, 8625.113502158345, -24710.144068019876, 15682.587406943729, 4623.883023724917, -10859.460933144204, -31970.52710897054, 0.055781250000000004, -0.0015078125, 1.0317285156250002, 192.0, 0.0, 0.0, 0.0, 0.0, 0.0, 0.0, 0.0, 0.0, 0.0, 1.747690708202314E9, 0.0, 2025-05-19 23:38:28.202
190.0, 22360.86396704483, 18750.52079564581, 48380.95437061243, 33652.38412051012, 42783.45171015879, 773.124488964616, 6798.908924926392, 3674.20210530783, 0.0, 0.0, 8638.65865929826, -24700.152838248356, 15696.020805361368, 4647.732335058729, -10838.584403822948, -31949.963504071657, 0.055781250000000004, -0.0015078125, 1.0317285156250002, 192.0, 0.0, 0.0, 0.0, 0.0, 0.0, 0.0, 0.0, 0.0, 0.0, 1.747690708211388E9, 0.0, 2025-05-19 23:38:28.211
192.0, 22362.450940901155, 18751.124292746103, 48386.87758289309, 33638.436631970006, 42772.9463902648, 760.1157736916273, 6786.906038153892, 3683.9027624014334, 0.0, 0.0, 8636.736409275105, -24708.825315097012, 15695.819639661271, 4635.327116886034, -10857.493979632138, -31960.178251287733, 0.055781250000000004, -0.0015078125, 1.0317285156250002, 192.0, 0.0, 0.0, 0.0, 0.0, 0.0, 0.0, 0.0, 0.0, 0.0, 1.747690708217446E9, 0.0, 2025-05-19 23:38:28.217
194.0, 22372.82215032842, 18757.986278293884, 48392.800795173745, 33653.00996935487, 42787.743245094214, 764.0496807157613, 6817.907907713403, 3684.685073457369, 0.0, 0.0, 8646.302955901976, -24697.35887019144, 15695.707880938993, 4643.105523956481, -10839.031438712054, -31955.976123330132, 0.059890625, -0.00175390625, 1.0278642578125001, 192.0, 1.0, 0.0, 127.5, 120.0, 16.0, 0.0, 0.0, 0.0, 0.0, 1.747690708224389E9, 0.0, 2025-05-19 23:38:28.224
196.0, 22363.881452546295, 18748.397379922557, 48383.368359013606, 33642.68346341651, 42776.56737286656, 783.2945326917807, 6786.39194803142, 3676.571390220093, 0.0, 0.0, 8648.024040225035, -24699.482285914695, 15709.431852034551, 4652.962643261271, -10839.76904627908, -31945.0908237804, 0.059890625, -0.00175390625, 1.0278642578125001, 192.0, 0.0, 0.0, 0.0, 0.0, 0.0, 0.0, 0.0, 0.0, 0.0, 1.747690708233435E9, 0.0, 2025-05-19 23:38:28.233
198.0, 22377.225443986114, 18758.545071905264, 48390.342103283656, 33641.297655260285, 42782.31177119157, 755.2430934003703, 6813.035227422146, 3695.8162421961124, 0.0, 0.0, 8638.166920920245, -24711.194600009276, 15685.001395344902, 4627.146378415391, -10856.62226159838, -31970.1471293148, 0.059890625, -0.00175390625, 1.0278642578125001, 192.0, 0.0, 0.0, 0.0, 0.0, 0.0, 0.0, 0.0, 0.0, 0.0, 1.747690708240429E9, 0.0, 2025-05-19 23:38:28.240
200.0, 22376.823112585917, 18761.80842659574, 48388.95629512743, 33660.40839676957, 42790.045474773106, 794.0680735192387, 6808.25195410871, 3683.1875065788636, 0.0, 0.0, 8652.203816438177, -24689.535759632083, 15708.761299700893, 4655.77896306264, -10830.761293263591, -31943.481498179615, 0.059890625, -0.00175390625, 1.0278642578125001, 192.0, 0.0, 0.0, 0.0, 0.0, 0.0, 0.0, 0.0, 0.0, 0.0, 1.747690708248447E9, 0.0, 2025-05-19 23:38:28.248
202.0, 22384.847388845374, 18768.268080743324, 48389.44803350545, 33646.23739078491, 42784.949277037296, 784.4121199145461, 6786.146078842411, 3702.521765532704, 0.0, 0.0, 8642.1902349222, -24698.029422525102, 15706.369663044175, 4641.496198355699, -10853.202444696719, -31952.22103026164, 0.059890625, -0.00175390625, 1.0278642578125001, 192.0, 0.0, 0.0, 0.0, 0.0, 0.0, 0.0, 0.0, 0.0, 0.0, 1.747690708257492E9, 0.0, 2025-05-19 23:38:28.257
204.0, 22398.124325051824, 18783.1319908061, 48402.00971388933, 33665.772815438846, 42796.818053343064, 792.6599136185544, 6825.820425250581, 3700.241887598263, 0.0, 0.0, 8655.198950195188, -24686.048887497054, 15706.861401422191, 4648.894625770406, -10833.264688642585, -31946.677797636727, 0.0609453125, -0.0018769531250000001, 1.02893212890625, 192.0, 0.5, 120.0, 127.5, 120.0, 16.0, 24.0, 0.0, 0.0, 0.0, 1.747690708265508E9, 0.0, 2025-05-19 23:38:28.265
206.0, 22390.748249381573, 18772.224339511915, 48392.8231469182, 33659.38021652463, 42795.2534312312, 811.8153586167525, 6783.10624159649, 3692.307018316629, 0.0, 0.0, 8662.172694465244, -24681.08680022798, 15728.296724354832, 4668.16182949088, -10829.062560684986, -31925.868323548835, 0.0609453125, -0.0018769531250000001, 1.02893212890625, 192.0, 0.0, 0.0, 0.0, 0.0, 0.0, 0.0, 0.0, 0.0, 0.0, 1.747690708273551E9, 0.0, 2025-05-19 23:38:28.273
208.0, 22378.52184516452, 18761.897833573563, 48382.69780667994, 33634.74859413488, 42783.831689814535, 766.7318900503982, 6792.605732989995, 3684.953294390833, 0.0, 0.0, 8642.726676789127, -24703.080916772, 15694.500886738408, 4629.672125538841, -10858.209235454708, -31963.62041993385, 0.0609453125, -0.0018769531250000001, 1.02893212890625, 192.0, 0.0, 0.0, 0.0, 0.0, 0.0, 0.0, 0.0, 0.0, 0.0, 1.747690708282554E9, 0.0, 2025-05-19 23:38:28.282
210.0, 22375.996098041072, 18759.461493427934, 48379.993245600854, 33651.75827166537, 42795.61105914248, 785.4850036484008, 6803.826308706559, 3671.9669308622997, 0.0, 0.0, 8640.446798854686, -24699.83991382598, 15699.328863540753, 4646.637099580419, -10841.892462002334, -31950.388187216307, 0.0609453125, -0.0018769531250000001, 1.02893212890625, 192.0, 0.0, 0.0, 0.0, 0.0, 0.0, 0.0, 0.0, 0.0, 0.0, 1.747690708290587E9, 0.0, 2025-05-19 23:38:28.290
212.0, 22372.82215032842, 18752.13012124659, 48378.58508570017, 33632.11108828915, 42780.054245001586, 771.8504395306635, 6779.82053516156, 3681.9358088893664, 0.0, 0.0, 8631.684915028205, -24709.093536030476, 15696.311378039287, 4631.594375561997, -10861.696107589736, -31962.592239688904, 0.0609453125, -0.0018769531250000001, 1.02893212890625, 192.0, 0.0, 0.0, 0.0, 0.0, 0.0, 0.0, 0.0, 0.0, 0.0, 1.74769070829661E9, 0.0, 2025-05-19 23:38:28.296
214.0, 22385.09325803438, 18768.223377254413, 48387.79400441575, 33651.11007107617, 42798.18150975484, 775.5831808546998, 6825.440445594842, 3690.0047886377324, 0.0, 0.0, 8642.681973300216, -24700.331652203997, 15693.942093127025, 4636.042372708604, -10846.966307993687, -31959.79827163199, 0.0609453125, -0.0018769531250000001, 1.02893212890625, 192.0, 0.0, 0.0, 0.0, 0.0, 0.0, 0.0, 0.0, 0.0, 0.0, 1.747690708304641E9, 0.0, 2025-05-19 23:38:28.304
216.0, 22375.23613872959, 18755.259365470334, 48380.484983978866, 33645.81270764026, 42789.82195732855, 789.5306693948114, 6791.599904489506, 3677.1301838314753, 0.0, 0.0, 8645.207720423665, -24697.425925424806, 15710.191811346032, 4650.056916482082, -10846.72043880468, -31945.202582502676, 0.064, -0.002, 1.03, 192.0, 1.0, 0.0, 127.5, 120.0, 16.0, 24.0, 0.0, 0.0, 0.0, 1.747690708312666E9, 0.0, 2025-05-19 23:38:28.312
218.0, 22377.068981774926, 18752.733618346887, 48384.35183576964, 33638.8389633702, 42790.4478061733, 764.899047005063, 6806.821442463571, 3693.737529961769, 0.0, 0.0, 8630.768493505537, -24708.199466252267, 15685.96252035648, 4625.291183625601, -10863.327784934972, -31968.448396736196, 0.064, -0.002, 1.03, 192.0, 0.0, 0.0, 0.0, 0.0, 0.0, 0.0, 0.0, 0.0, 0.0, 1.747690708320688E9, 0.0, 2025-05-19 23:38:28.320
220.0, 22379.86294983184, 18761.04846728426, 48385.178850314485, 33652.16060306557, 42798.98617255523, 792.1011200071716, 6815.53862280114, 3680.01355886621, 0.0, 0.0, 8644.023077967535, -24696.777724835603, 15702.525162997863, 4651.889759527417, -10837.824444511467, -31945.783727858514, 0.064, -0.002, 1.03, 192.0, 0.0, 0.0, 0.0, 0.0, 0.0, 0.0, 0.0, 0.0, 0.0, 1.747690708328697E9, 0.0, 2025-05-19 23:38:28.328
222.0, 22372.66568811723, 18757.695705615963, 48379.81443164521, 33633.16162027855, 42784.41283517037, 782.512221635845, 6780.446384006308, 3686.8084891806234, 0.0, 0.0, 8632.757798762059, -24710.0323092976, 15695.14908732761, 4635.5729860750425, -10858.298642432528, -31959.060664064964, 0.064, -0.002, 1.03, 192.0, 0.0, 0.0, 0.0, 0.0, 0.0, 0.0, 0.0, 0.0, 0.0, 1.747690708336752E9, 0.0, 2025-05-19 23:38:28.336
224.0, 22389.317737736434, 18771.687897644984, 48392.46551900692, 33657.41326301256, 42802.02600980116, 786.669646104532, 6820.500710070219, 3691.368245049506, 0.0, 0.0, 8640.51385408805, -24697.13535274689, 15691.86338089268, 4639.283375654623, -10845.37933413736, -31957.205469275174, 0.064, -0.002, 1.03, 192.0, 0.0, 0.0, 0.0, 0.0, 0.0, 0.0, 0.0, 0.0, 0.0, 1.747690708344765E9, 0.0, 2025-05-19 23:38:28.344
226.0, 22374.09619976237, 18750.207871223436, 48375.83582113217, 33645.43272798452, 42785.26220145967, 792.1011200071716, 6792.91865741237, 3677.800736165135, 0.0, 0.0, 8640.893833743792, -24694.721364345714, 15710.907067168602, 4657.656509596885, -10840.037267212543, -31939.65934987776, 0.058, -0.002, 1.03, 192.0, 0.5, 104.0, 127.5, 120.0, 16.0, 24.0, 0.0, 0.0, 0.0, 1.74769070835381E9, 0.0, 2025-05-19 23:38:28.353
228.0, 22375.817284085428, 18758.94740330546, 48383.144841569054, 33637.5425621918, 42789.53138465064, 772.5656953532333, 6820.031323436657, 3692.3517218055395, 0.0, 0.0, 8622.878327712813, -24713.519181432628, 15681.022784831857, 4625.291183625601, -10865.048869258031, -31970.795329904002, 0.058, -0.002, 1.03, 192.0, 0.0, 0.0, 0.0, 0.0, 0.0, 0.0, 0.0, 0.0, 0.0, 1.747690708362844E9, 0.0, 2025-05-19 23:38:28.362
230.0, 22380.354688209856, 18763.48480742989, 48386.02821660379, 33656.250972300884, 42804.462349946785, 801.1312247671158, 6812.565840788584, 3672.2575035402187, 0.0, 0.0, 8640.603261065873, -24697.336518446988, 15702.01107287539, 4653.990823506216, -10838.00325846711, -31945.60491390287, 0.058, -0.002, 1.03, 192.0, 0.0, 0.0, 0.0, 0.0, 0.0, 0.0, 0.0, 0.0, 0.0, 1.74769070837086E9, 0.0, 2025-05-19 23:38:28.370
232.0, 22375.2808422185, 18755.57228989271, 48377.15457405503, 33633.1392685341, 42786.849175316, 784.8144513147416, 6786.928389898347, 3687.63550372547, 0.0, 0.0, 8631.908432472757, -24709.808791853047, 15697.004282117401, 4634.187177918813, -10864.266558202096, -31961.809928632967, 0.058, -0.002, 1.03, 192.0, 0.0, 0.0, 0.0, 0.0, 0.0, 0.0, 0.0, 0.0, 0.0, 1.747690708377885E9, 0.0, 2025-05-19 23:38:28.377
234.0, 22384.176836511713, 18768.022211554315, 48385.15649857003, 33652.2947135323, 42802.204823756794, 787.5190123938337, 6833.621184065483, 3692.508184016727, 0.0, 0.0, 8639.843301754392, -24695.235454468188, 15694.925569883058, 4637.495236098199, -10851.503712118116, -31960.781748388024, 0.058, -0.002, 1.03, 192.0, 0.0, 0.0, 0.0, 0.0, 0.0, 0.0, 0.0, 0.0, 0.0, 1.747690708383923E9, 0.0, 2025-05-19 23:38:28.383
236.0, 22374.967917796126, 18758.4780166719, 48377.08751882166, 33646.01387334036, 42795.7004661203, 802.1147015231493, 6795.578515002551, 3681.5781809780815, 0.0, 0.0, 8638.055162197967, -24697.783553336092, 15709.72242471247, 4648.961681003771, -10851.05667722901, -31947.482460437117, 0.06, -0.004, 1.028, 192.0, 0.5, 112.0, 127.5, 112.0, 16.0, 16.0, 0.0, 0.0, 0.0, 1.747690708392955E9, 0.0, 2025-05-19 23:38:28.392
238.0, 22382.388696955288, 18765.004726052848, 48381.15553631253, 33636.38027148012, 42800.394332455915, 776.8125267997417, 6813.974000689269, 3691.1894310938637, 0.0, 0.0, 8629.695609771683, -24705.56196040654, 15687.884770379636, 4623.123064413437, -10866.077049502976, -31971.220013048653, 0.06, -0.004, 1.028, 192.0, 0.0, 0.0, 0.0, 0.0, 0.0, 0.0, 0.0, 0.0, 0.0, 1.747690708400987E9, 0.0, 2025-05-19 23:38:28.400
240.0, 22380.891130076783, 18764.133008019093, 48378.36156825561, 33650.50657397587, 42807.256318003696, 797.3761316986241, 6815.896250712425, 3678.2701227986963, 0.0, 0.0, 8637.42931335322, -24701.538646404584, 15697.71953793997, 4647.709983314274, -10841.959517235699, -31953.003341317577, 0.06, -0.004, 1.028, 192.0, 0.0, 0.0, 0.0, 0.0, 0.0, 0.0, 0.0, 0.0, 0.0, 1.747690708407998E9, 0.0, 2025-05-19 23:38:28.407
242.0, 22373.515054406533, 18756.84633932666, 48374.33825425366, 33630.16648652154, 42791.587745140525, 780.1652884680377, 6785.900209653403, 3680.72881468878, 0.0, 0.0, 8625.202909136166, -24717.251922756663, 15689.91877912507, 4635.081247697026, -10861.71845933419, -31963.463957722663, 0.06, -0.004, 1.028, 192.0, 0.0, 0.0, 0.0, 0.0, 0.0, 0.0, 0.0, 0.0, 0.0, 1.747690708416069E9, 0.0, 2025-05-19 23:38:28.416
244.0, 22390.2341592591, 18774.459513957445, 48390.990303872866, 33654.731053677926, 42820.35444025451, 785.7979280707751, 6823.138215915945, 3688.082538614576, 0.0, 0.0, 8636.624650552827, -24705.718422617727, 15688.644729691117, 4639.439837865811, -10847.636860327348, -31961.56405944396, 0.06, -0.004, 1.028, 192.0, 0.0, 0.0, 0.0, 0.0, 0.0, 0.0, 0.0, 0.0, 0.0, 1.747690708425037E9, 0.0, 2025-05-19 23:38:28.425
246.0, 22373.62681312881, 18754.90173755905, 48373.66770192, 33640.82826862673, 42802.94243132382, 791.4529194179678, 6781.318102040065, 3666.736622659758, 0.0, 0.0, 8643.37487737833, -24699.236416725686, 15711.287046824344, 4652.87323628345, -10847.323935904973, -31947.527163926028, 0.058, -0.006, 1.026, 192.0, 0.5, 104.0, 127.5, 104.0, 16.0, 8.0, 0.0, 0.0, 0.0, 1.747690708432072E9, 0.0, 2025-05-19 23:38:28.432
248.0, 22385.76381036804, 18766.4799411869, 48379.45680373393, 33641.40941398256, 42804.730570880245, 770.7105005634428, 6818.645515280427, 3697.693788730358, 0.0, 0.0, 8626.387551592297, -24710.971082564723, 15685.448430234008, 4621.938421957305, -10869.318052448994, -31974.23749855012, 0.058, -0.006, 1.026, 192.0, 0.0, 0.0, 0.0, 0.0, 0.0, 0.0, 0.0, 0.0, 0.0, 1.747690708442112E9, 0.0, 2025-05-19 23:38:28.442
250.0, 22391.66467090424, 18769.318612732724, 48381.82608864619, 33660.65426595858, 42820.01916408767, 799.7454166108867, 6822.177090904366, 3687.948428147844, 0.0, 0.0, 8646.258252413065, -24691.525064888607, 15707.330788055753, 4655.175465962347, -10839.120845689875, -31943.41444294625, 0.058, -0.006, 1.026, 192.0, 0.0, 0.0, 0.0, 0.0, 0.0, 0.0, 0.0, 0.0, 0.0, 1.747690708450087E9, 0.0, 2025-05-19 23:38:28.450
252.0, 22377.80658934195, 18752.733618346887, 48371.3654722411, 33629.205361509965, 42799.09793127751, 781.349930924169, 6791.48814576723, 3686.20499208033, 0.0, 0.0, 8628.578022548918, -24712.08866978749, 15694.500886738408, 4630.454436594777, -10867.641671614847, -31963.866289122856, 0.058, -0.006, 1.026, 192.0, 0.0, 0.0, 0.0, 0.0, 0.0, 0.0, 0.0, 0.0, 0.0, 1.747690708460161E9, 0.0, 2025-05-19 23:38:28.460
254.0, 22384.28859523399, 18763.19423475197, 48382.161364813015, 33647.176164052034, 42812.01723957268, 789.1283379946159, 6827.832082251559, 3691.9940938942545, 0.0, 0.0, 8632.109598172856, -24712.401594209863, 15682.654462177094, 4630.342677872501, -10854.700011575223, -31966.83907113541, 0.058, -0.006, 1.026, 192.0, 0.0, 0.0, 0.0, 0.0, 0.0, 0.0, 0.0, 0.0, 0.0, 1.747690708466162E9, 0.0, 2025-05-19 23:38:28.466
0.0, 22381.3828684548, 18756.198138737458, 48374.58412344267, 33641.029434326825, 42808.016277315175, 801.1088730226604, 6791.286980067132, 3679.700634443836, 0.0, 0.0, 8636.468188341642, -24708.244169741174, 15703.665101965084, 4650.4815996267325, -10847.882729516356, -31946.834259847914, 0.06, -0.008, 1.028, 192.0, 0.5, 112.0, 127.5, 96.0, 16.0, 16.0, 0.0, 0.0, 0.0, 1.747690708473207E9, 0.0, 2025-05-19 23:38:28.473
2.0, 22391.888188348796, 18763.23893824088, 48380.082652578676, 33633.65335865657, 42810.83259711655, 777.1478029665712, 6812.185861132844, 3697.4926230302603, 0.0, 0.0, 8626.56636554794, -24713.809754110545, 15684.196732544511, 4622.206642890768, -10866.76995358109, -31972.896393882802, 0.06, -0.008, 1.028, 192.0, 0.0, 0.0, 0.0, 0.0, 0.0, 0.0, 0.0, 0.0, 0.0, 1.747690708481227E9, 0.0, 2025-05-19 23:38:28.481
4.0, 22388.3342609804, 18767.888101087585, 48379.59091420066, 33652.71939667695, 42818.72276290927, 806.316829480747, 6816.544451301629, 3682.8075269231235, 0.0, 0.0, 8641.094999443889, -24700.488114415184, 15702.212238575488, 4647.419410636355, -10841.154854435308, -31951.058739549964, 0.06, -0.008, 1.028, 192.0, 0.0, 0.0, 0.0, 0.0, 0.0, 0.0, 0.0, 0.0, 0.0, 1.747690708488257E9, 0.0, 2025-05-19 23:38:28.488
6.0, 22378.074810275415, 18758.030981782795, 48370.02436757379, 33633.02750981182, 42805.37877146945, 798.7172363659425, 6785.833154420037, 3684.0368728681656, 0.0, 0.0, 8626.074627169923, -24709.205294752755, 15695.394956516619, 4630.476788339232, -10864.735944835656, -31963.37455074484, 0.06, -0.008, 1.028, 192.0, 0.0, 0.0, 0.0, 0.0, 0.0, 0.0, 0.0, 0.0, 0.0, 1.747690708497284E9, 0.0, 2025-05-19 23:38:28.497
8.0, 22388.42366795822, 18768.268080743324, 48380.59674270114, 33648.919600119545, 42822.29904202212, 786.6919978489874, 6819.0478466806235, 3687.859021170023, 0.0, 0.0, 8628.220394637632, -24701.806867338048, 15686.521313967862, 4635.5729860750425, -10850.699049317724, -31961.429948977227, 0.06, -0.008, 1.028, 192.0, 0.0, 0.0, 0.0, 0.0, 0.0, 0.0, 0.0, 0.0, 0.0, 1.74769070850539E9, 0.0, 2025-05-19 23:38:28.505
10.0, 22388.825999358418, 18767.217548753924, 48384.17302181399, 33645.008044839866, 42814.11830355148, 808.641410904099, 6794.885610924436, 3679.6782826993804, 0.0, 0.0, 8634.769455763037, -24706.61249239594, 15701.854610664202, 4650.1910269488135, -10847.614508582892, -31949.00237906008, 0.06, -0.008, 1.024, 192.0, 0.5, 112.0, 127.5, 96.0, 16.0, 0.0, 0.0, 0.0, 0.0, 1.747690708513393E9, 0.0, 2025-05-19 23:38:28.513
12.0, 22396.939682595694, 18772.939595334483, 48385.42471950349, 33633.72041388994, 42818.76746639818, 779.4053291565573, 6799.288904582132, 3688.3284078035845, 0.0, 0.0, 8638.077513942422, -24710.74756512017, 15691.34929077021, 4627.369895859944, -10860.62322385588, -31970.12477757034, 0.06, -0.008, 1.024, 192.0, 0.0, 0.0, 0.0, 0.0, 0.0, 0.0, 0.0, 0.0, 0.0, 1.747690708521393E9, 0.0, 2025-05-19 23:38:28.521
14.0, 22400.58301694191, 18776.04648781377, 48386.27408579279, 33652.16060306557, 42826.90350137991, 803.8357858462078, 6791.130517855945, 3667.362471504506, 0.0, 0.0, 8645.542996590495, -24702.723288860714, 15705.587351988239, 4646.7265065582405, -10843.680601558757, -31955.171460529742, 0.06, -0.008, 1.024, 192.0, 0.0, 0.0, 0.0, 0.0, 0.0, 0.0, 0.0, 0.0, 0.0, 1.747690708529442E9, 0.0, 2025-05-19 23:38:28.529
16.0, 22383.86391208934, 18761.13787426208, 48379.7697281563, 33628.42305045403, 42809.826768616054, 792.2799339628142, 6795.019721391168, 3681.8464019115454, 0.0, 0.0, 8632.690743528694, -24715.62024541143, 15699.06064260729, 4629.828587750028, -10867.127581492376, -31966.682608924224, 0.06, -0.008, 1.024, 192.0, 0.0, 0.0, 0.0, 0.0, 0.0, 0.0, 0.0, 0.0, 0.0, 1.747690708538458E9, 0.0, 2025-05-19 23:38:28.538
18.0, 22393.296348249478, 18770.838531355683, 48388.799832916244, 33645.54448670679, 42830.032745603654, 790.15651823956, 6848.999184250735, 3687.9931316367547, 0.0, 0.0, 8635.864691241348, -24713.765050621638, 15688.465915735474, 4637.6293465649305, -10844.060581214499, -31962.94986760019, 0.06, -0.008, 1.024, 192.0, 0.0, 0.0, 0.0, 0.0, 0.0, 0.0, 0.0, 0.0, 0.0, 1.747690708545496E9, 0.0, 2025-05-19 23:38:28.545
20.0, 22385.026202801015, 18758.23214748289, 48379.70267292293, 33641.83409712721, 42814.8559111185, 810.6307161606212, 6800.63000924945, 3675.409099508417, 0.0, 0.0, 8635.641173796794, -24706.925416818314, 15704.82739267676, 4654.795486306606, -10841.445427113227, -31945.157879013765, 0.058, -0.008, 1.028, 192.0, 0.5, 104.0, 127.5, 96.0, 16.0, 16.0, 0.0, 0.0, 0.0, 1.747690708552496E9, 0.0, 2025-05-19 23:38:28.552
22.0, 22392.62579591582, 18765.47411268641, 48385.603533459136, 33637.27434125833, 42817.06873381958, 788.2789717053142, 6816.700913512816, 3693.1563846059307, 0.0, 0.0, 8626.23108938111, -24711.79809710957, 15685.515485467373, 4626.207605148269, -10861.651404100825, -31970.974143859643, 0.058, -0.008, 1.028, 192.0, 0.0, 0.0, 0.0, 0.0, 0.0, 0.0, 0.0, 0.0, 0.0, 1.747690708560526E9, 0.0, 2025-05-19 23:38:28.560
24.0, 22393.56456918294, 18769.34096447718, 48386.67641719299, 33657.81559441276, 42829.71982118128, 814.251698762381, 6812.565840788584, 3675.766727419702, 0.0, 0.0, 8643.129008189322, -24695.45897191274, 15708.224857833966, 4651.867407782961, -10840.104322445908, -31949.963504071657, 0.058, -0.008, 1.028, 192.0, 0.0, 0.0, 0.0, 0.0, 0.0, 0.0, 0.0, 0.0, 0.0, 1.747690708569582E9, 0.0, 2025-05-19 23:38:28.569
26.0, 22381.159351010247, 18757.561595149233, 48371.58898968565, 33628.55716092076, 42812.82190237306, 794.8503845751744, 6780.088756095023, 3678.6277507099812, 0.0, 0.0, 8630.410865594253, -24710.83697209799, 15701.228761819455, 4631.281451139624, -10868.647500115336, -31965.743835657104, 0.058, -0.008, 1.028, 192.0, 0.0, 0.0, 0.0, 0.0, 0.0, 0.0, 0.0, 0.0, 0.0, 1.747690708577606E9, 0.0, 2025-05-19 23:38:28.577
28.0, 22393.788086627494, 18766.211720253435, 48383.30130378024, 33645.70094891798, 42827.32818452456, 794.380997941613, 6823.629954293961, 3685.7132537023135, 0.0, 0.0, 8632.869557484337, -24708.713556374736, 15690.187000058533, 4633.427218607333, -10854.543549364036, -31966.41438799076, 0.058, -0.008, 1.028, 192.0, 0.0, 0.0, 0.0, 0.0, 0.0, 0.0, 0.0, 0.0, 0.0, 1.747690708584673E9, 0.0, 2025-05-19 23:38:28.584
30.0, 22382.969842311126, 18757.51689166032, 48371.276065263286, 33635.53090519082, 42818.05221057561, 809.8037016157749, 6784.849677664003, 3670.7822884061684, 0.0, 0.0, 8633.584813306907, -24712.69216688778, 15702.592218231228, 4643.954890245783, -10857.091648231943, -31956.93724834171, 0.062, -0.006, 1.03, 192.0, 0.5, 120.0, 127.5, 104.0, 16.0, 24.0, 0.0, 0.0, 0.0, 1.747690708592694E9, 0.0, 2025-05-19 23:38:28.592
32.0, 22390.457676703656, 18762.00959229584, 48375.07586182068, 33628.37834696512, 42824.53421646765, 784.1662507255377, 6804.094529640023, 3681.0640908556097, 0.0, 0.0, 8621.380760834309, -24722.214010025742, 15679.905197609092, 4616.931631199316, -10875.19656124074, -31981.166539331265, 0.062, -0.006, 1.03, 192.0, 0.0, 0.0, 0.0, 0.0, 0.0, 0.0, 0.0, 0.0, 0.0, 1.747690708601711E9, 0.0, 2025-05-19 23:38:28.601
34.0, 22390.368269725834, 18764.892967330572, 48379.61326594511, 33650.01483559785, 42829.71982118128, 811.7706551278419, 6814.756311745205, 3675.431451252872, 0.0, 0.0, 8638.144569175789, -24706.836009840492, 15697.898351895614, 4646.793561791606, -10846.51927310458, -31954.389149473805, 0.062, -0.006, 1.03, 192.0, 0.0, 0.0, 0.0, 0.0, 0.0, 0.0, 0.0, 0.0, 0.0, 1.747690708609725E9, 0.0, 2025-05-19 23:38:28.609
36.0, 22379.39356319828, 18754.409999181033, 48372.52776295278, 33628.82538185422, 42813.91713785138, 803.9698963129397, 6788.604770732495, 3682.5169542452045, 0.0, 0.0, 8622.94538294618, -24721.163478036342, 15689.874075636159, 4628.48748308271, -10871.597930383436, -31967.867251380358, 0.062, -0.006, 1.03, 192.0, 0.0, 0.0, 0.0, 0.0, 0.0, 0.0, 0.0, 0.0, 0.0, 1.747690708617763E9, 0.0, 2025-05-19 23:38:28.617
38.0, 22389.027165058516, 18764.557691163744, 48381.37905375708, 33645.142155306596, 42831.776181671165, 796.2808962203142, 6828.68144854086, 3688.4178147814055, 0.0, 0.0, 8629.628554538316, -24710.099364530965, 15686.700127923505, 4634.969488974749, -10852.017802240587, -31963.687475167215, 0.062, -0.006, 1.03, 192.0, 0.0, 0.0, 0.0, 0.0, 0.0, 0.0, 0.0, 0.0, 0.0, 1.747690708627863E9, 0.0, 2025-05-19 23:38:28.627
40.0, 22381.740496366085, 18756.84633932666, 48372.39365248605, 33639.17423953703, 42826.18824555734, 814.5199196958447, 6783.843849163515, 3674.0232913521877, 0.0, 0.0, 8625.828757980915, -24712.379242465406, 15699.038290862834, 4645.072477468548, -10855.124694719874, -31954.32209424044, 0.064, -0.008, 1.03, 192.0, 1.0, 0.0, 127.5, 96.0, 16.0, 24.0, 0.0, 0.0, 0.0, 1.747690708634865E9, 0.0, 2025-05-19 23:38:28.634
42.0, 22396.91733085124, 18769.899758088563, 48373.354777497625, 33629.31712023224, 42828.1104955805, 790.1341664951046, 6800.294733082621, 3690.0271403821876, 0.0, 0.0, 8622.386589334797, -24719.084765802, 15682.609758688184, 4616.506948054665, -10875.509485663115, -31980.205414319687, 0.064, -0.008, 1.03, 192.0, 0.0, 0.0, 0.0, 0.0, 0.0, 0.0, 0.0, 0.0, 0.0, 1.747690708640886E9, 0.0, 2025-05-19 23:38:28.640
44.0, 22389.273034247522, 18771.44202845598, 48377.2216292884, 33652.71939667695, 42838.95109164132, 827.1039518241826, 6817.215003635288, 3684.9979978797437, 0.0, 0.0, 8633.718923773638, -24706.008995295644, 15699.48532575194, 4642.859654767472, -10852.889520274344, -31955.886716352314, 0.064, -0.008, 1.03, 192.0, 0.0, 0.0, 0.0, 0.0, 0.0, 0.0, 0.0, 0.0, 0.0, 1.747690708648855E9, 0.0, 2025-05-19 23:38:28.648
46.0, 22386.747287124075, 18765.027077797306, 48375.165268798504, 33636.64849241358, 42826.858797891, 814.8104923737636, 6788.694177710317, 3689.513050259716, 0.0, 0.0, 8629.740313260592, -24713.630940154904, 15699.015939118379, 4634.768323274651, -10869.228645471174, -31960.379416987827, 0.064, -0.008, 1.03, 192.0, 0.0, 0.0, 0.0, 0.0, 0.0, 0.0, 0.0, 0.0, 0.0, 1.74769070865589E9, 0.0, 2025-05-19 23:38:28.655
