%OpenBCI Raw EXG Data
%Number of channels = 16
%Sample Rate = 125 Hz
%Board = OpenBCI_GUI$BoardCytonSerialDaisy
Sample Index, EXG Channel 0, EXG Channel 1, EXG Channel 2, EXG Channel 3, EXG Channel 4, EXG Channel 5, EXG Channel 6, EXG Channel 7, EXG Channel 8, EXG Channel 9, EXG Channel 10, EXG Channel 11, EXG Channel 12, EXG Channel 13, EXG Channel 14, EXG Channel 15, Accel Channel 0, Accel Channel 1, Accel Channel 2, Not Used, Digital Channel 0 (D11), Digital Channel 1 (D12), Digital Channel 2 (D13), Digital Channel 3 (D17), Not Used, Digital Channel 4 (D18), Analog Channel 0, Analog Channel 1, Analog Channel 2, Timestamp, Marker Channel, Timestamp (Formatted)
0.0, 21761.613698198045, 17049.821263530404, 47924.01765871259, 29550.83901296127, 34224.05233669905, -13.9251367956563, 9146.71381076739, 548.712974633333, 0.0, 0.0, 0.0, 0.0, 0.0, 0.0, 0.0, 0.0, 0.0, 0.0, 0.0, 192.0, 0.0, 0.0, 0.0, 0.0, 0.0, 0.0, 0.0, 0.0, 0.0, 1.747687657641213E9, 0.0, 2025-05-19 22:47:37.641
140.0, 21761.613698198045, 17052.45876937613, 47924.73291453516, 29561.031408432893, 34244.548886364566, 1.2964011784078096, 9165.489276109849, 519.3651341635149, 0.0, 0.0, 17992.103754532785, -9916.284372363612, 6831.184843919855, -2274.289998327494, -27083.45229428438, -33027.496400773096, 0.031, 0.001, 0.514, 192.0, 0.5, 120.0, 0.0, 8.0, 16.0, 16.0, 0.0, 0.0, 0.0, 1.747687657641641E9, 0.0, 2025-05-19 22:47:37.641
0.0, 10689.341806094862, 8329.779902670372, 23608.15836288433, 14727.899697768653, 17163.21166315218, -252.8652850228888, 4366.994424700073, 47.51980871198282, 0.0, 0.0, 8991.436242036372, -4961.237902788866, 3419.5039772396062, -1127.9584321926156, -13541.20088114749, -16498.31432084016, 0.056, 0.004, 1.034, 192.0, 0.5, 96.0, 0.0, 16.0, 16.0, 40.0, 0.0, 0.0, 0.0, 1.747687657721027E9, 0.0, 2025-05-19 22:47:37.721
2.0, 21387.557254738484, 16671.138008968595, 47216.51789146876, 29451.194936179512, 34305.70325919429, -529.0434395126629, 8758.128733411877, 106.08137918488733, 0.0, 0.0, 17510.200144076367, -10858.969194766189, 6756.462962205764, -2217.1142360108183, -26937.070719846575, -33609.915806045035, 0.056, 0.004, 1.034, 192.0, 0.0, 0.0, 0.0, 0.0, 0.0, 0.0, 0.0, 0.0, 0.0, 1.747687657727047E9, 0.0, 2025-05-19 22:47:37.727
4.0, 21386.931405893734, 16668.031116489306, 47223.0446008497, 29465.34359041972, 34326.691547237824, -486.5080698142135, 8778.938207499768, 94.54787904594887, 0.0, 0.0, 17515.11752785653, -10852.241319685141, 6762.006194830679, -2197.5788113568797, -26916.03772831413, -33594.806026793245, 0.056, 0.004, 1.034, 192.0, 0.0, 0.0, 0.0, 0.0, 0.0, 0.0, 0.0, 0.0, 0.0, 1.74768765773407E9, 0.0, 2025-05-19 22:47:37.734
6.0, 21384.003327370086, 16666.131218210605, 47221.12235082655, 29462.54962236281, 34302.35049752599, -505.19412817885024, 8739.040343647044, 111.44579785416101, 0.0, 0.0, 17513.307036555652, -10851.05667722901, 6777.406546760386, -2192.952000254631, -26922.98912083973, -33578.086921940674, 0.056, 0.004, 1.034, 192.0, 0.0, 0.0, 0.0, 0.0, 0.0, 0.0, 0.0, 0.0, 0.0, 1.747687657743209E9, 0.0, 2025-05-19 22:47:37.743
8.0, 21391.33469955143, 16673.6861078365, 47220.22828104834, 29468.294020687823, 34304.71978243825, -515.4088753949255, 8784.704957569236, 111.33403913188448, 0.0, 0.0, 17512.815298177637, -10843.345325391929, 6758.832247118026, -2213.4261981756927, -26930.275789532163, -33608.64175661108, 0.06, 0.0, 1.028, 192.0, 0.5, 112.0, 0.0, 0.0, 16.0, 16.0, 0.0, 0.0, 0.0, 1.747687657750145E9, 0.0, 2025-05-19 22:47:37.750
10.0, 21391.781734440534, 16669.685145579, 47220.831778148626, 29471.378561422654, 34313.99575638721, -486.1727936473839, 8775.764259787114, 113.34569613286212, 0.0, 0.0, 17512.390615032986, -10841.646592813326, 6783.441517763319, -2179.3621396258045, -26909.734536377735, -33562.999494433345, 0.06, 0.0, 1.028, 192.0, 0.0, 0.0, 0.0, 0.0, 0.0, 0.0, 0.0, 0.0, 0.0, 1.747687657758165E9, 0.0, 2025-05-19 22:47:37.758
12.0, 21390.641795473315, 16673.082610736205, 47227.961984629874, 29469.590421866233, 34304.183340571326, -524.4836836437802, 8761.056811935523, 119.42537062470564, 0.0, 0.0, 17511.116565599033, -10849.424999883771, 6760.933311096825, -2207.43593066167, -26926.699510419312, -33596.25889018284, 0.06, 0.0, 1.028, 192.0, 0.0, 0.0, 0.0, 0.0, 0.0, 0.0, 0.0, 0.0, 0.0, 1.747687657767182E9, 0.0, 2025-05-19 22:47:37.767
14.0, 21396.9002839208, 16679.02817476132, 47240.747182458304, 29488.343535464235, 34329.910198439386, -479.06493891059625, 8788.527105871095, 113.88213799978948, 0.0, 0.0, 17526.136937873, -10833.085874686942, 6777.071270593557, -2179.473898348081, -26898.17868449434, -33572.789558504766, 0.06, 0.0, 1.028, 192.0, 0.0, 0.0, 0.0, 0.0, 0.0, 0.0, 0.0, 0.0, 0.0, 1.747687657775194E9, 0.0, 2025-05-19 22:47:37.775
16.0, 21388.205455327687, 16662.465532119935, 47223.17871131643, 29462.571974107264, 34313.86164592048, -509.2174421808055, 8732.670096477283, 107.40013210775044, 0.0, 0.0, 17521.37601630402, -10838.316182889484, 6788.269494565666, -2183.2960466499385, -26912.28263524564, -33567.91687821351, 0.06, 0.0, 1.028, 192.0, 0.0, 0.0, 0.0, 0.0, 0.0, 0.0, 0.0, 0.0, 0.0, 1.747687657782184E9, 0.0, 2025-05-19 22:47:37.782
18.0, 21402.689385734724, 16677.552959627268, 47241.373031303054, 29477.391180681134, 34318.242587833716, -517.1076079735288, 8788.951789015746, 119.98416423608832, 0.0, 0.0, 17524.84053669459, -10841.020743968576, 6763.079078564535, -2207.8159103174103, -26920.977463838753, -33607.07713449921, 0.064, 0.004, 1.026, 192.0, 1.0, 0.0, 0.0, 16.0, 16.0, 8.0, 0.0, 0.0, 0.0, 1.747687657790271E9, 0.0, 2025-05-19 22:47:37.790
20.0, 21393.86044667488, 16666.332383910703, 47234.98043238884, 29474.865433557683, 34335.38637583094, -486.105738414018, 8756.1170764109, 114.61974556681461, 0.0, 0.0, 17524.125280872024, -10845.356982392907, 6785.743747442216, -2165.8840377192546, -26891.495512902202, -33557.25509610833, 0.064, 0.004, 1.026, 192.0, 0.0, 0.0, 0.0, 0.0, 0.0, 0.0, 0.0, 0.0, 0.0, 1.747687657798274E9, 0.0, 2025-05-19 22:47:37.798
22.0, 21400.163638611277, 16670.758029312852, 47229.5489584862, 29466.572936364766, 34304.540968482615, -528.4622941568249, 8745.388239072352, 112.0045914655437, 0.0, 0.0, 17522.94063841589, -10850.296717917528, 6765.3366047545205, -2201.333904425371, -26924.307873762595, -33595.27541342681, 0.064, 0.004, 1.026, 192.0, 0.0, 0.0, 0.0, 0.0, 0.0, 0.0, 0.0, 0.0, 0.0, 1.747687657806287E9, 0.0, 2025-05-19 22:47:37.806
24.0, 21397.03439438753, 16668.142875211583, 47226.77734217374, 29477.07825625876, 34332.79357347412, -498.1756804198838, 8784.034405235578, 102.81802449441248, 0.0, 0.0, 17526.18164136191, -10841.37837187986, 6772.913846124869, -2186.9393809961534, -26911.09799278951, -33582.177291176, 0.064, 0.004, 1.026, 192.0, 0.0, 0.0, 0.0, 0.0, 0.0, 0.0, 0.0, 0.0, 0.0, 1.747687657815324E9, 0.0, 2025-05-19 22:47:37.815
26.0, 21399.269568833064, 16668.522854867322, 47227.20202531839, 29466.081197986747, 34320.947148912805, -497.01338970820785, 8724.06467486199, 99.64407678175888, 0.0, 0.0, 17513.75407144476, -10853.582424352458, 6776.445421748808, -2193.7566630550223, -26926.721862163766, -33578.13162542959, 0.064, 0.004, 1.026, 192.0, 0.0, 0.0, 0.0, 0.0, 0.0, 0.0, 0.0, 0.0, 0.0, 1.747687657822306E9, 0.0, 2025-05-19 22:47:37.822
28.0, 21409.774888727057, 16680.25752070636, 47235.4498190224, 29472.652610856607, 34325.12692512595, -515.7217998172998, 8770.556303329027, 102.8850797277784, 0.0, 0.0, 17532.976571676325, -10835.52221483257, 6767.840000133515, -2207.4582824061254, -26924.531391207147, -33603.679669342004, 0.062, 0.0, 1.028, 192.0, 0.5, 120.0, 0.0, 0.0, 16.0, 16.0, 0.0, 0.0, 0.0, 1.74768765783038E9, 0.0, 2025-05-19 22:47:37.830
30.0, 21394.307481563985, 16664.566596098735, 47218.01545834726, 29464.516575874877, 34332.771221729665, -487.31273261460456, 8757.078201422477, 103.98031520608845, 0.0, 0.0, 17517.486812768795, -10848.28506091655, 6779.9546456282915, -2182.737253038556, -26911.880303845443, -33569.280334625284, 0.062, 0.0, 1.028, 192.0, 0.0, 0.0, 0.0, 0.0, 0.0, 0.0, 0.0, 0.0, 0.0, 1.747687657838404E9, 0.0, 2025-05-19 22:47:37.838
32.0, 21402.644682245813, 16672.546168869278, 47230.10775209758, 29467.39995090961, 34310.21831157426, -514.6936195723557, 8770.109268439921, 129.64011784078096, 0.0, 0.0, 17512.94940864437, -10848.933261505756, 6761.089773308012, -2204.932535282676, -26929.359368009493, -33594.09077097068, 0.062, 0.0, 1.028, 192.0, 0.0, 0.0, 0.0, 0.0, 0.0, 0.0, 0.0, 0.0, 0.0, 1.747687657846438E9, 0.0, 2025-05-19 22:47:37.846
34.0, 21394.463943775172, 16666.69001182199, 47220.7423711708, 29465.947087520017, 34320.477762279246, -491.783081505666, 8784.414384891317, 118.24072816857436, 0.0, 0.0, 17520.884277926, -10848.48622661665, 6767.035337333124, -2186.8723257627876, -26911.83560035653, -33582.24434640937, 0.062, 0.0, 1.028, 192.0, 0.0, 0.0, 0.0, 0.0, 0.0, 0.0, 0.0, 0.0, 0.0, 1.747687657854474E9, 0.0, 2025-05-19 22:47:37.854
36.0, 21395.8497519314, 16668.008764744853, 47225.235071806324, 29466.3047154313, 34309.570110985056, -496.2534303967274, 8755.670041521793, 135.07159174342058, 0.0, 0.0, 17509.66370220944, -10855.370563908884, 6771.7962589021045, -2188.2357821745613, -26922.229161528252, -33571.046122437256, 0.062, 0.0, 1.028, 192.0, 0.0, 0.0, 0.0, 0.0, 0.0, 0.0, 0.0, 0.0, 0.0, 1.747687657862479E9, 0.0, 2025-05-19 22:47:37.862
38.0, 21404.29871133551, 16675.764820070843, 47232.05235386519, 29473.97136377947, 34324.47872453675, -513.8442532830541, 8801.98285603319, 135.69744058816917, 0.0, 0.0, 17523.879411683014, -10844.977002737165, 6759.905130851881, -2196.7517968120333, -26914.51780969117, -33593.80019829276, 0.062, 0.004, 1.026, 192.0, 0.5, 120.0, 0.0, 16.0, 16.0, 8.0, 0.0, 0.0, 0.0, 1.747687657871522E9, 0.0, 2025-05-19 22:47:37.871
40.0, 21391.357051295883, 16663.7842850428, 47221.748199671296, 29470.3056776888, 34325.19398035932, -480.20487787781695, 8766.667099793804, 125.21447243863017, 0.0, 0.0, 17520.861926181547, -10847.100418460419, 6781.474564251253, -2168.9015232207207, -26899.229216483738, -33555.33284608518, 0.062, 0.004, 1.026, 192.0, 0.0, 0.0, 0.0, 0.0, 0.0, 0.0, 0.0, 0.0, 0.0, 1.747687657877569E9, 0.0, 2025-05-19 22:47:37.877
42.0, 21396.967339154166, 16675.563654370744, 47218.70836242537, 29461.990828751426, 34300.6964684363, -514.5371573611686, 8763.962538714712, 126.91320501723351, 0.0, 0.0, 17510.490716754284, -10852.57659585197, 6759.167523284856, -2208.15118648424, -26935.61785645698, -33595.07424772671, 0.062, 0.004, 1.026, 192.0, 0.0, 0.0, 0.0, 0.0, 0.0, 0.0, 0.0, 0.0, 0.0, 1.747687657886573E9, 0.0, 2025-05-19 22:47:37.886
44.0, 21396.47560077615, 16671.3838781576, 47223.08930433862, 29470.752712577905, 34326.199808859805, -479.3108080996046, 8784.235570935676, 123.31457415992907, 0.0, 0.0, 17521.55483025966, -10849.201482439219, 6765.157790798878, -2190.4933083645474, -26914.13783003543, -33584.12189294361, 0.062, 0.004, 1.026, 192.0, 0.0, 0.0, 0.0, 0.0, 0.0, 0.0, 0.0, 0.0, 0.0, 1.7476876578946E9, 0.0, 2025-05-19 22:47:37.894
46.0, 21399.42603104425, 16671.741506068887, 47228.47607475234, 29467.22113695397, 34316.23093083274, -486.7986424921325, 8745.857625705914, 126.37676315030613, 0.0, 0.0, 17512.167097588434, -10855.951709264722, 6773.047956591601, -2184.0113024725083, -26912.796725368113, -33570.35321835914, 0.062, 0.004, 1.026, 192.0, 0.0, 0.0, 0.0, 0.0, 0.0, 0.0, 0.0, 0.0, 0.0, 1.747687657902649E9, 0.0, 2025-05-19 22:47:37.902
48.0, 21403.29288283502, 16677.664718349544, 47227.17967357393, 29472.96553527898, 34319.15900935639, -500.81318626561006, 8779.78757378907, 119.55948109143748, 0.0, 0.0, 17526.04753089518, -10840.819578268478, 6761.067421563557, -2201.7138840811117, -26917.04355681462, -33597.59999485016, 0.062, -0.002, 1.028, 192.0, 0.5, 120.0, 127.5, 120.0, 16.0, 16.0, 0.0, 0.0, 0.0, 1.747687657910665E9, 0.0, 2025-05-19 22:47:37.910
50.0, 21393.65928097478, 16668.25463393386, 47218.48484498082, 29467.757578820896, 34327.876189693954, -479.2214011217834, 8756.720573511193, 108.00362920804373, 0.0, 0.0, 17515.31869355663, -10848.441523127738, 6777.1383258269225, -2176.277598890972, -26905.28653923113, -33562.77597698879, 0.062, -0.002, 1.028, 192.0, 0.0, 0.0, 0.0, 0.0, 0.0, 0.0, 0.0, 0.0, 0.0, 1.747687657918708E9, 0.0, 2025-05-19 22:47:37.918
52.0, 21404.365766568873, 16676.48007589341, 47228.63253696353, 29465.812977053283, 34315.716840710265, -523.0084685097299, 8756.094724666444, 111.24463215406325, 0.0, 0.0, 17513.865830167037, -10850.676697573268, 6759.413392473864, -2209.0452562624523, -26931.23691454374, -33601.42214315202, 0.062, -0.002, 1.028, 192.0, 0.0, 0.0, 0.0, 0.0, 0.0, 0.0, 0.0, 0.0, 0.0, 1.747687657926736E9, 0.0, 2025-05-19 22:47:37.926
54.0, 21395.559179253483, 16668.09817172267, 47220.07181883715, 29463.890727030128, 34326.91506468238, -496.65576179692295, 8770.176323673288, 100.962829704622, 0.0, 0.0, 17524.773481461227, -10843.23356666965, 6768.085869322524, -2188.347540896838, -26909.689832888824, -33586.66999181151, 0.062, -0.002, 1.028, 192.0, 0.0, 0.0, 0.0, 0.0, 0.0, 0.0, 0.0, 0.0, 0.0, 1.747687657933756E9, 0.0, 2025-05-19 22:47:37.933
56.0, 21392.228769329642, 16664.030154231805, 47213.38864724501, 29451.284343157335, 34309.97244238525, -496.70046528583356, 8730.30081156502, 106.08137918488733, 0.0, 0.0, 17505.32746378511, -10865.942939036244, 6762.810857631071, -2198.2940671794495, -26929.404071498404, -33585.88768075558, 0.062, -0.002, 1.028, 192.0, 0.0, 0.0, 0.0, 0.0, 0.0, 0.0, 0.0, 0.0, 0.0, 1.747687657942782E9, 0.0, 2025-05-19 22:47:37.942
58.0, 21412.792374228524, 16677.73177358291, 47230.24186256431, 29467.332895676245, 34319.427230289846, -514.7606748057217, 8782.961521501724, 110.17174842020852, 0.0, 0.0, 17519.52082151423, -10851.794284796035, 6753.445476704297, -2212.7779975864887, -26929.359368009493, -33613.492085157886, 0.058, -0.004, 1.03, 192.0, 0.5, 104.0, 127.5, 112.0, 16.0, 24.0, 0.0, 0.0, 0.0, 1.747687657950848E9, 0.0, 2025-05-19 22:47:37.950
60.0, 21401.7506124676, 16673.999032258875, 47219.378914759036, 29464.762445063883, 34334.49230605272, -480.42839532237, 8744.360058827408, 103.57798380589293, 0.0, 0.0, 17522.247734337776, -10852.57659585197, 6780.111107839479, -2176.9705029690867, -26905.174780508853, -33567.91687821351, 0.058, -0.004, 1.03, 192.0, 0.0, 0.0, 0.0, 0.0, 0.0, 0.0, 0.0, 0.0, 0.0, 1.747687657958881E9, 0.0, 2025-05-19 22:47:37.958
62.0, 21401.19181885622, 16674.62488110362, 47218.82012114765, 29458.056921727293, 34297.00843060117, -511.6761340708893, 8747.668117006793, 112.9657164771219, 0.0, 0.0, 17511.496545254773, -10857.091648231943, 6754.496008693696, -2219.1258930117956, -26942.457490260305, -33609.982861278404, 0.058, -0.004, 1.03, 192.0, 0.0, 0.0, 0.0, 0.0, 0.0, 0.0, 0.0, 0.0, 0.0, 1.747687657965849E9, 0.0, 2025-05-19 22:47:37.965
64.0, 21401.66120548978, 16675.988337515395, 47227.8502259076, 29474.306639946302, 34332.30183509611, -476.78506097615497, 8783.520315113106, 110.81994900941241, 0.0, 0.0, 17519.923152914424, -10845.446389370727, 6763.861389620471, -2191.5214886094914, -26913.735498635233, -33587.27348891181, 0.058, -0.004, 1.03, 192.0, 0.0, 0.0, 0.0, 0.0, 0.0, 0.0, 0.0, 0.0, 0.0, 1.747687657974843E9, 0.0, 2025-05-19 22:47:37.974
66.0, 21386.797295427, 16659.403343129557, 47209.96883034335, 29450.703197801497, 34299.98121261373, -503.60715432252346, 8729.786721442548, 104.4497018396499, 0.0, 0.0, 17508.74728068677, -10859.05860174401, 6768.421145489353, -2193.510793866014, -26925.939551107833, -33579.562137074725, 0.058, -0.004, 1.03, 192.0, 0.0, 0.0, 0.0, 0.0, 0.0, 0.0, 0.0, 0.0, 0.0, 1.747687657982851E9, 0.0, 2025-05-19 22:47:37.982
68.0, 21401.281225834042, 16674.133142725605, 47222.75402817178, 29460.87324152866, 34303.80336091559, -511.54202360415746, 8770.288082395564, 102.95213496114432, 0.0, 0.0, 17512.94940864437, -10854.700011575223, 6747.544616168096, -2222.5904134023685, -26944.7597199392, -33619.16942824953, 0.062, -0.006, 1.028, 192.0, 0.5, 120.0, 127.5, 104.0, 16.0, 16.0, 0.0, 0.0, 0.0, 1.74768765798993E9, 0.0, 2025-05-19 22:47:37.989
70.0, 21396.27443507605, 16664.8348170322, 47222.41875200495, 29460.22504093946, 34336.77218398717, -482.3506453455264, 8745.097666394433, 100.38168434878402, 0.0, 0.0, 17517.710330213347, -10854.789418553046, 6774.813744403571, -2186.090014706852, -26913.623739912957, -33576.52229982881, 0.062, -0.006, 1.028, 192.0, 0.0, 0.0, 0.0, 0.0, 0.0, 0.0, 0.0, 0.0, 0.0, 1.747687657998943E9, 0.0, 2025-05-19 22:47:37.998
72.0, 21404.365766568873, 16673.842570047687, 47216.31672576866, 29452.4019303801, 34311.805285430586, -519.7674655637104, 8743.242471604643, 100.69460877115831, 0.0, 0.0, 17511.876524910513, -10857.382220909862, 6752.707869137272, -2220.2658319790166, -26942.32337979357, -33611.74864909037, 0.062, -0.006, 1.028, 192.0, 0.0, 0.0, 0.0, 0.0, 0.0, 0.0, 0.0, 0.0, 0.0, 1.747687658006953E9, 0.0, 2025-05-19 22:47:38.006
74.0, 21409.886647449333, 16676.837703804697, 47219.513025225766, 29456.626410082154, 34331.56422752908, -493.750035017733, 8760.16274215731, 88.9375911876668, 0.0, 0.0, 17519.677283725418, -10852.263671429595, 6759.301633751587, -2206.273639949994, -26926.923027863864, -33604.394925164575, 0.062, -0.006, 1.028, 192.0, 0.0, 0.0, 0.0, 0.0, 0.0, 0.0, 0.0, 0.0, 0.0, 1.747687658014012E9, 0.0, 2025-05-19 22:47:38.014
76.0, 21387.713716949667, 16651.312011636735, 47210.21469953236, 29443.260066897878, 34313.52636975364, -517.5546428626351, 8717.560317225494, 95.86663196881199, 0.0, 0.0, 17506.623864963516, -10871.553226894526, 6759.748668640694, -2203.5243753819914, -26935.416690756883, -33592.45909362544, 0.062, -0.006, 1.028, 192.0, 0.0, 0.0, 0.0, 0.0, 0.0, 0.0, 0.0, 0.0, 0.0, 1.747687658022031E9, 0.0, 2025-05-19 22:47:38.022
78.0, 21405.28218809154, 16665.795942043776, 47224.050429350194, 29456.55935484879, 34325.41749780387, -507.8763375134871, 8773.752602786137, 101.34280936036222, 0.0, 0.0, 17509.574295231618, -10866.904064047822, 6737.843959074493, -2224.5797186588907, -26943.5080222497, -33627.104297531165, 0.062, -0.004, 1.03, 192.0, 0.5, 120.0, 127.5, 112.0, 16.0, 24.0, 0.0, 0.0, 0.0, 1.747687658030098E9, 0.0, 2025-05-19 22:47:38.030
80.0, 21399.0013478996, 16656.20704367245, 47223.40222876099, 29457.654590327096, 34338.783840988144, -506.4234741238921, 8744.293003594043, 103.64503903925885, 0.0, 0.0, 17516.771556946227, -10866.837008814457, 6767.169447799855, -2182.2902181494496, -26911.500324189703, -33577.1257969291, 0.062, -0.004, 1.03, 192.0, 0.0, 0.0, 0.0, 0.0, 0.0, 0.0, 0.0, 0.0, 0.0, 1.747687658039165E9, 0.0, 2025-05-19 22:47:38.039
82.0, 21409.551371282505, 16667.002936244364, 47225.033906106226, 29453.6536280696, 34318.734326211736, -552.0210328127185, 8749.947994941234, 111.13287343178672, 0.0, 0.0, 17515.36339704554, -10870.078011760475, 6750.830322603027, -2210.2746022074944, -26932.86859188898, -33608.0829629997, 0.062, -0.004, 1.03, 192.0, 0.0, 0.0, 0.0, 0.0, 0.0, 0.0, 0.0, 0.0, 0.0, 1.747687658046121E9, 0.0, 2025-05-19 22:47:38.046
84.0, 21411.697138750213, 16665.170093199027, 47224.02807760573, 29460.962648506484, 34326.22216060426, -525.2436429552606, 8772.724422541192, 99.57702154839296, 0.0, 0.0, 17517.732681957805, -10865.182979724763, 6755.345374982999, -2194.382511899771, -26918.943455093322, -33597.532939616794, 0.062, -0.004, 1.03, 192.0, 0.0, 0.0, 0.0, 0.0, 0.0, 0.0, 0.0, 0.0, 0.0, 1.74768765805415E9, 0.0, 2025-05-19 22:47:38.054
86.0, 21410.937179438733, 16667.44997113347, 47216.02615309074, 29453.228944924947, 34307.31258479507, -526.5176923892132, 8708.418453743274, 101.18634714917508, 0.0, 0.0, 17514.201106333865, -10872.447296672737, 6767.325910011043, -2192.929648510176, -26927.213600541785, -33583.56309933223, 0.062, -0.004, 1.03, 192.0, 0.0, 0.0, 0.0, 0.0, 0.0, 0.0, 0.0, 0.0, 0.0, 1.747687658063191E9, 0.0, 2025-05-19 22:47:38.063
88.0, 21427.186897657743, 16685.286663208804, 47240.85894118058, 29475.245413213423, 34319.494285523215, -529.5128261462244, 8791.49988788365, 121.99582123706595, 0.0, 0.0, 17523.454728538363, -10854.610604597403, 6754.540712182607, -2208.9111457957206, -26930.678120932356, -33610.27343395632, 0.058, -0.006, 1.032, 192.0, 0.5, 104.0, 127.5, 104.0, 16.0, 32.0, 0.0, 0.0, 0.0, 1.747687658070283E9, 0.0, 2025-05-19 22:47:38.070
90.0, 21421.107223165898, 16681.30805269576, 47234.06401086617, 29472.183224223045, 34338.38150958795, -499.2262124092832, 8761.034460191067, 111.82577750990123, 0.0, 0.0, 17530.249658852776, -10848.843854527933, 6786.257837564688, -2170.2426278880394, -26899.050402528097, -33564.56411654522, 0.058, -0.006, 1.032, 192.0, 0.0, 0.0, 0.0, 0.0, 0.0, 0.0, 0.0, 0.0, 0.0, 1.747687658078249E9, 0.0, 2025-05-19 22:47:38.078
92.0, 21430.785528515047, 16688.68412836601, 47235.98626088932, 29466.997619509417, 34329.30670133909, -537.9841372947857, 8752.317279853498, 122.71107705963577, 0.0, 0.0, 17527.07571114012, -10852.509540618605, 6768.175276300344, -2203.189099215162, -26926.878324374953, -33599.4775413844, 0.058, -0.006, 1.032, 192.0, 0.0, 0.0, 0.0, 0.0, 0.0, 0.0, 0.0, 0.0, 0.0, 1.747687658086308E9, 0.0, 2025-05-19 22:47:38.086
94.0, 21433.221868660676, 16691.411041189556, 47235.11454285557, 29471.847948056216, 34344.97527420226, -511.5867270930681, 8787.320111670508, 113.36804787731742, 0.0, 0.0, 17535.770539733236, -10844.351153892418, 6777.473601993752, -2183.5642675834024, -26904.83950434202, -33585.708866799934, 0.058, -0.006, 1.032, 192.0, 0.0, 0.0, 0.0, 0.0, 0.0, 0.0, 0.0, 0.0, 0.0, 1.747687658095347E9, 0.0, 2025-05-19 22:47:38.095
96.0, 21424.705854023203, 16677.17297997153, 47219.55772871467, 29451.753729790897, 34317.70614596679, -528.8646255570204, 8742.191939615243, 112.16105367673084, 0.0, 0.0, 17523.857059938557, -10861.047907000531, 6779.529962483641, -2185.374758884282, -26918.8540481155, -33578.62336380761, 0.058, -0.006, 1.032, 192.0, 0.0, 0.0, 0.0, 0.0, 0.0, 0.0, 0.0, 0.0, 0.0, 1.747687658102351E9, 0.0, 2025-05-19 22:47:38.102
98.0, 21436.462871606695, 16688.929997555017, 47230.15245558649, 29460.314447917277, 34336.191038631325, -532.6644221144226, 8773.886713252869, 105.67904778469179, 0.0, 0.0, 17521.398368048474, -10865.451200658226, 6749.131590024423, -2214.8790615652874, -26934.72378667877, -33619.52705616082, 0.062, 0.0, 1.03, 192.0, 0.5, 120.0, 0.0, 0.0, 16.0, 24.0, 0.0, 0.0, 0.0, 1.747687658110387E9, 0.0, 2025-05-19 22:47:38.110
100.0, 21423.543563311527, 16679.63167186161, 47218.61895544755, 29451.798433279808, 34342.31541661208, -510.491491614758, 8742.951898926724, 98.66060002572537, 0.0, 0.0, 17522.828879693614, -10865.853532058421, 6775.439593248319, -2182.6478460607345, -26912.28263524564, -33579.159805674535, 0.062, 0.0, 1.03, 192.0, 0.0, 0.0, 0.0, 0.0, 0.0, 0.0, 0.0, 0.0, 0.0, 1.747687658118462E9, 0.0, 2025-05-19 22:47:38.118
102.0, 21426.069310434978, 16681.82214281823, 47217.92605136944, 29449.026816967347, 34304.71978243825, -554.5467799361683, 8736.961631412702, 103.75679776153538, 0.0, 0.0, 17509.864867909535, -10875.040099029553, 6747.589319657007, -2223.7527041140443, -26945.98906588424, -33621.42695443952, 0.062, 0.0, 1.03, 192.0, 0.0, 0.0, 0.0, 0.0, 0.0, 0.0, 0.0, 0.0, 0.0, 1.747687658126479E9, 0.0, 2025-05-19 22:47:38.126
104.0, 21432.886592493844, 16691.321634211738, 47230.97947013134, 29468.316372432277, 34340.97431194476, -501.6625525549117, 8759.849817734936, 94.81609997941256, 0.0, 0.0, 17521.0854436261, -10857.181055209763, 6760.665090163361, -2200.573945113891, -26921.849181872512, -33600.88570128509, 0.062, 0.0, 1.03, 192.0, 0.0, 0.0, 0.0, 0.0, 0.0, 0.0, 0.0, 0.0, 0.0, 1.747687658134502E9, 0.0, 2025-05-19 22:47:38.134
106.0, 21433.937124483244, 16692.506276667867, 47228.34196428561, 29463.957782263493, 34325.305739081596, -529.6692883574115, 8717.157985825299, 101.43221633818345, 0.0, 0.0, 17525.17581286142, -10860.10913373341, 6780.155811328389, -2190.6497705757347, -26922.18445803934, -33582.75843653184, 0.062, 0.0, 1.03, 192.0, 0.0, 0.0, 0.0, 0.0, 0.0, 0.0, 0.0, 0.0, 0.0, 1.747687658142535E9, 0.0, 2025-05-19 22:47:38.142
108.0, 21441.24614492013, 16701.558733172267, 47234.13106609954, 29472.630259112153, 34326.71389898228, -538.4535239283472, 8754.284233365564, 110.35056237585097, 0.0, 0.0, 17530.651990252973, -10849.62616558387, 6763.392002986909, -2206.117177738807, -26929.42642324286, -33609.334660689194, 0.06, -0.001, 1.028, 192.0, 0.5, 104.0, 127.5, 120.0, 16.0, 8.0, 0.0, 0.0, 0.0, 1.747687658151591E9, 0.0, 2025-05-19 22:47:38.151
110.0, 21435.457043106206, 16695.568465658245, 47237.260310323276, 29473.83725331274, 34341.17547764486, -519.298078930149, 8755.290061866053, 105.92491697370016, 0.0, 0.0, 17528.886202441, -10851.213139440197, 6786.190782331322, -2167.158087153207, -26901.084411273532, -33564.22884037839, 0.06, -0.001, 1.028, 192.0, 0.0, 0.0, 0.0, 0.0, 0.0, 0.0, 0.0, 0.0, 0.0, 1.74768765815761E9, 0.0, 2025-05-19 22:47:38.157
112.0, 21441.53671759805, 16704.084480295718, 47236.05331612269, 29469.188090466036, 34319.494285523215, -544.7343641202884, 8758.039326434056, 118.62070782431458, 0.0, 0.0, 17527.723911729325, -10852.375430151873, 6772.489162980219, -2190.1133287088073, -26920.50807720519, -33590.64860232456, 0.06, -0.001, 1.028, 192.0, 0.0, 0.0, 0.0, 0.0, 0.0, 0.0, 0.0, 0.0, 0.0, 1.747687658166614E9, 0.0, 2025-05-19 22:47:38.166
114.0, 21439.18978443024, 16697.960102314963, 47233.125237599044, 29471.69148584503, 34340.99666368922, -521.3097359311266, 8772.769126030104, 101.9463064606555, 0.0, 0.0, 17528.70738848536, -10852.040153985043, 6771.192761801811, -2179.317436136894, -26907.588768910024, -33584.948907488455, 0.06, -0.001, 1.028, 192.0, 0.0, 0.0, 0.0, 0.0, 0.0, 0.0, 0.0, 0.0, 0.0, 1.747687658174652E9, 0.0, 2025-05-19 22:47:38.174
116.0, 21428.7068162807, 16687.544189398788, 47218.35073451409, 29453.184241436036, 34320.85774193499, -530.876282557998, 8715.660418946794, 101.14164366026446, 0.0, 0.0, 17518.51499301374, -10869.273348960085, 6774.277302536643, -2185.9782559845753, -26922.720899906268, -33580.79148301977, 0.06, -0.001, 1.028, 192.0, 0.0, 0.0, 0.0, 0.0, 0.0, 0.0, 0.0, 0.0, 0.0, 1.747687658182667E9, 0.0, 2025-05-19 22:47:38.182
118.0, 21437.491051851637, 16696.86486683665, 47223.15635957198, 29457.699293816007, 34317.86260817797, -537.9617855503304, 8770.377489373384, 102.12512041629797, 0.0, 0.0, 17517.285647068697, -10865.741773336145, 6749.377459213431, -2212.8897563087653, -26936.7577954242, -33615.637852625594, 0.062, -0.0025, 1.028, 192.0, 1.0, 0.0, 127.5, 112.0, 16.0, 16.0, 0.0, 0.0, 0.0, 1.747687658189715E9, 0.0, 2025-05-19 22:47:38.189
120.0, 21428.86327849189, 16685.82310507573, 47210.1923477879, 29445.562296576776, 34331.094840895516, -517.8005120516434, 8757.63699503386, 93.96673369011089, 0.0, 0.0, 17513.977588889313, -10872.894331561844, 6765.873046621447, -2188.5263548524804, -26921.357443494493, -33583.339581887674, 0.062, -0.0025, 1.028, 192.0, 0.0, 0.0, 0.0, 0.0, 0.0, 0.0, 0.0, 0.0, 0.0, 1.747687658198702E9, 0.0, 2025-05-19 22:47:38.198
122.0, 21430.62906630386, 16684.861980064154, 47202.77156862874, 29431.570104547754, 34315.001584887694, -558.9053701049531, 8745.745866983636, 92.29035285596287, 0.0, 0.0, 17501.952350372358, -10885.523067179092, 6741.911976565359, -2225.8090646039327, -26951.129967108962, -33625.159695763556, 0.062, -0.0025, 1.028, 192.0, 0.0, 0.0, 0.0, 0.0, 0.0, 0.0, 0.0, 0.0, 0.0, 1.74768765820678E9, 0.0, 2025-05-19 22:47:38.206
124.0, 21431.925467482266, 16682.895026552087, 47212.00283908878, 29444.6011715652, 34341.62251253397, -529.1775499793947, 8764.789553259558, 89.13875688776457, 0.0, 0.0, 17507.74145218628, -10881.38799445486, 6743.342488210498, -2210.2522504630388, -26926.52069646367, -33617.113067759645, 0.062, -0.0025, 1.028, 192.0, 0.0, 0.0, 0.0, 0.0, 0.0, 0.0, 0.0, 0.0, 0.0, 1.747687658213865E9, 0.0, 2025-05-19 22:47:38.213
126.0, 21425.06348193449, 16680.39163117309, 47195.797824358684, 29429.670206269053, 34316.052116877094, -540.1969599958611, 8724.355247539908, 92.24564936705225, 0.0, 0.0, 17492.07287932311, -10894.955503339232, 6744.795351600093, -2210.542823140958, -26940.937571637343, -33605.40075366506, 0.062, -0.0025, 1.028, 192.0, 0.0, 0.0, 0.0, 0.0, 0.0, 0.0, 0.0, 0.0, 0.0, 1.747687658222842E9, 0.0, 2025-05-19 22:47:38.222
128.0, 21444.934182755256, 16701.60343666118, 47213.276888522734, 29444.22119190946, 34328.45733504979, -525.9588987778305, 8771.83035276298, 95.95603894663321, 0.0, 0.0, 17509.12726034251, -10879.085764775964, 6734.535900895107, -2227.373686715804, -26943.060987360597, -33633.76511737885, 0.062, -0.00425, 1.0270000000000001, 192.0, 0.5, 120.0, 127.5, 104.0, 16.0, 8.0, 0.0, 0.0, 0.0, 1.747687658230865E9, 0.0, 2025-05-19 22:47:38.230
130.0, 21425.19759240122, 16675.764820070843, 47217.00962984677, 29451.284343157335, 34339.43204157735, -492.1183576724956, 8743.354230326919, 92.51387030051593, 0.0, 0.0, 17509.66370220944, -10874.928340307277, 6764.889569865414, -2191.923820009687, -26922.98912083973, -33589.17338719051, 0.062, -0.00425, 1.0270000000000001, 192.0, 0.0, 0.0, 0.0, 0.0, 0.0, 0.0, 0.0, 0.0, 0.0, 1.747687658237921E9, 0.0, 2025-05-19 22:47:38.237
132.0, 21434.71943553918, 16683.811448074754, 47223.17871131643, 29449.339741389722, 34319.628395989945, -555.3067392476487, 8739.107398880411, 105.41082685122811, 0.0, 0.0, 17511.65300746596, -10879.219875242696, 6751.255005747677, -2216.689552866167, -26936.46722274628, -33618.81180033825, 0.062, -0.00425, 1.0270000000000001, 192.0, 0.0, 0.0, 0.0, 0.0, 0.0, 0.0, 0.0, 0.0, 0.0, 1.747687658245954E9, 0.0, 2025-05-19 22:47:38.245
134.0, 21430.494955837126, 16678.87171255013, 47221.83760664912, 29454.704160058995, 34341.84602997852, -546.9918903102745, 8778.334710399475, 98.86176572582313, 0.0, 0.0, 17521.621885493027, -10868.267520459596, 6758.608729673473, -2198.383474157271, -26917.46823995927, -33602.53973037478, 0.062, -0.00425, 1.0270000000000001, 192.0, 0.0, 0.0, 0.0, 0.0, 0.0, 0.0, 0.0, 0.0, 0.0, 1.747687658255032E9, 0.0, 2025-05-19 22:47:38.255
136.0, 21425.04113019003, 16670.176883957014, 47205.386722730014, 29433.380595848634, 34316.78972444412, -558.6147974270341, 8725.517538251584, 91.64215226675896, 0.0, 0.0, 17503.65108295096, -10893.145012038352, 6756.57472092804, -2207.3241719393936, -26937.00366461321, -33600.41631465153, 0.062, -0.00425, 1.0270000000000001, 192.0, 0.0, 0.0, 0.0, 0.0, 0.0, 0.0, 0.0, 0.0, 0.0, 1.747687658263011E9, 0.0, 2025-05-19 22:47:38.263
138.0, 21445.940011255745, 16692.52862841232, 47233.37110678806, 29458.34749440521, 34332.905332196395, -556.6031404260565, 8758.77693400108, 99.28644887047398, 0.0, 0.0, 17523.79000470519, -10876.023575785586, 6748.997479557691, -2221.562233157424, -26935.61785645698, -33626.612559153145, 0.065, -0.005125, 1.0285000000000002, 192.0, 1.0, 16.0, 127.5, 104.0, 16.0, 24.0, 0.0, 0.0, 0.0, 1.747687658270029E9, 0.0, 2025-05-19 22:47:38.270
140.0, 21436.507575095606, 16683.699689352477, 47226.03973460671, 29455.30765715929, 34341.91308521188, -534.1843407373835, 8743.510692538106, 87.12709988678694, 0.0, 0.0, 17526.561621017652, -10870.994433283144, 6778.859410149981, -2180.85970650431, -26908.885170088433, -33580.85853825314, 0.065, -0.005125, 1.0285000000000002, 192.0, 0.0, 0.0, 0.0, 0.0, 0.0, 0.0, 0.0, 0.0, 0.0, 1.747687658278067E9, 0.0, 2025-05-19 22:47:38.278
142.0, 21443.57072634348, 16690.24875047788, 47228.11844684106, 29453.340703647224, 34333.195904874316, -558.6371491714895, 8742.460160548706, 96.38072209128406, 0.0, 0.0, 17519.721987214325, -10872.693165861747, 6759.3463372404985, -2210.9228027966983, -26936.176650068363, -33613.73795434689, 0.065, -0.005125, 1.0285000000000002, 192.0, 0.0, 0.0, 0.0, 0.0, 0.0, 0.0, 0.0, 0.0, 0.0, 1.747687658287122E9, 0.0, 2025-05-19 22:47:38.287
144.0, 21437.781624529558, 16685.890160309096, 47228.25255730779, 29456.55935484879, 34349.93736147134, -548.6012159110566, 8756.385297344363, 89.02699816548802, 0.0, 0.0, 17529.55675477466, -10864.646537857836, 6765.761287899171, -2193.95782875512, -26912.796725368113, -33602.80795130825, 0.065, -0.005125, 1.0285000000000002, 192.0, 0.0, 0.0, 0.0, 0.0, 0.0, 0.0, 0.0, 0.0, 0.0, 1.747687658294125E9, 0.0, 2025-05-19 22:47:38.294
146.0, 21435.38998787284, 16686.02427077583, 47216.45083623539, 29443.59534306471, 34330.06666065057, -549.651747900456, 8721.53892773854, 99.7111320151248, 0.0, 0.0, 17513.351740044563, -10883.556113667026, 6763.324947753543, -2199.9704480135974, -26929.605237198502, -33596.43770413849, 0.065, -0.005125, 1.0285000000000002, 192.0, 0.0, 0.0, 0.0, 0.0, 0.0, 0.0, 0.0, 0.0, 0.0, 1.747687658302124E9, 0.0, 2025-05-19 22:47:38.302
148.0, 21449.04690373503, 16697.088384281204, 47226.37501077355, 29453.00542748039, 34337.800364232105, -542.4097826969365, 8772.098573696443, 103.35446636133986, 0.0, 0.0, 17519.47611802532, -10873.721346106691, 6747.231691745722, -2221.0481430349523, -26935.349635523515, -33626.36668996414, 0.0645, -0.0055625, 1.03125, 192.0, 1.0, 0.0, 127.5, 104.0, 16.0, 40.0, 0.0, 0.0, 0.0, 1.747687658310165E9, 0.0, 2025-05-19 22:47:38.310
150.0, 21452.936107270256, 16700.619959905143, 47226.978507873835, 29455.777043792852, 34351.144355671924, -499.0697501980961, 8742.281346593065, 88.69172199865842, 0.0, 0.0, 17530.629638508515, -10865.294738447039, 6781.608674717984, -2187.319360651894, -26912.193228267817, -33584.90420399955, 0.0645, -0.0055625, 1.03125, 192.0, 0.0, 0.0, 0.0, 0.0, 0.0, 0.0, 0.0, 0.0, 0.0, 1.747687658318227E9, 0.0, 2025-05-19 22:47:38.318
152.0, 21449.896270024332, 16699.815297104753, 47218.171920558445, 29446.25520065489, 34324.456372792294, -552.199846768361, 8725.383427784853, 83.99785566304394, 0.0, 0.0, 17523.94646691638, -10871.799096083534, 6761.492104708208, -2228.4242187052037, -26949.14066185244, -33625.919655075035, 0.0645, -0.0055625, 1.03125, 192.0, 0.0, 0.0, 0.0, 0.0, 0.0, 0.0, 0.0, 0.0, 0.0, 1.747687658326213E9, 0.0, 2025-05-19 22:47:38.326
154.0, 21458.501691639627, 16709.35949198717, 47225.5479962287, 29462.035532240337, 34349.91500972689, -534.2513959707494, 8763.314338125509, 86.54595453094895, 0.0, 0.0, 17525.868716939534, -10858.164531965796, 6767.795296644605, -2212.5991836308463, -26931.214562799283, -33615.70490785896, 0.0645, -0.0055625, 1.03125, 192.0, 0.0, 0.0, 0.0, 0.0, 0.0, 0.0, 0.0, 0.0, 0.0, 1.747687658334241E9, 0.0, 2025-05-19 22:47:38.334
156.0, 21450.231546191164, 16703.3915762176, 47223.35752527208, 29455.48647111493, 34331.161896128884, -537.5147506612243, 8714.654590446306, 94.52552730149357, 0.0, 0.0, 17524.952295416868, -10862.076087245476, 6784.313235797076, -2202.2279742035835, -26932.063929088585, -33595.38717214909, 0.0645, -0.0055625, 1.03125, 192.0, 0.0, 0.0, 0.0, 0.0, 0.0, 0.0, 0.0, 0.0, 0.0, 1.747687658343295E9, 0.0, 2025-05-19 22:47:38.343
158.0, 21459.842796306944, 16710.07474780974, 47232.05235386519, 29465.030665997347, 34328.233817605236, -542.7897623526767, 8751.065582164, 93.60910577882598, 0.0, 0.0, 17534.004751921268, -10854.722363319679, 6767.750593155693, -2215.370799943304, -26937.830679158054, -33617.89537881558, 0.06225, -0.00378125, 1.033625, 192.0, 0.5, 112.0, 127.5, 120.0, 16.0, 48.0, 0.0, 0.0, 0.0, 1.747687658349331E9, 0.0, 2025-05-19 22:47:38.349
160.0, 21444.509499610605, 16703.50333493988, 47224.83274040613, 29463.756616563394, 34344.63999803543, -509.2174421808055, 8731.530157510062, 88.31174234291821, 0.0, 0.0, 17531.076673397623, -10858.76802906609, 6789.565895744074, -2181.865535004799, -26918.384661481938, -33576.25407889534, 0.06225, -0.00378125, 1.033625, 192.0, 0.0, 0.0, 0.0, 0.0, 0.0, 0.0, 0.0, 0.0, 0.0, 1.747687658358343E9, 0.0, 2025-05-19 22:47:38.358
162.0, 21445.180051944262, 16697.11073602566, 47216.33907751311, 29447.3504361332, 34309.011317373675, -553.2727305022157, 8743.711858238205, 98.12415815879801, 0.0, 0.0, 17521.778347704214, -10868.826314070979, 6763.2802442646325, -2211.6827621081784, -26944.13387109445, -33609.40171592256, 0.06225, -0.00378125, 1.033625, 192.0, 0.0, 0.0, 0.0, 0.0, 0.0, 0.0, 0.0, 0.0, 0.0, 1.747687658366384E9, 0.0, 2025-05-19 22:47:38.366
164.0, 21454.366618915396, 16701.06699479425, 47220.72001942635, 29456.53700310433, 34348.88682948194, -545.0919920315733, 8758.195788645244, 89.07170165439865, 0.0, 0.0, 17517.956199402357, -10872.424944928283, 6757.781715128626, -2199.0987299798408, -26926.811269141588, -33605.73602983189, 0.06225, -0.00378125, 1.033625, 192.0, 0.0, 0.0, 0.0, 0.0, 0.0, 0.0, 0.0, 0.0, 0.0, 1.747687658375426E9, 0.0, 2025-05-19 22:47:38.375
166.0, 21440.843813519932, 16695.188486002506, 47214.93091761243, 29446.702235543995, 34337.733308998744, -536.2407012272718, 8718.320276536975, 92.4244633226947, 0.0, 0.0, 17515.497507512275, -10878.705785120224, 6771.125706568445, -2195.701264822634, -26929.404071498404, -33591.20739593594, 0.06225, -0.00378125, 1.033625, 192.0, 0.0, 0.0, 0.0, 0.0, 0.0, 0.0, 0.0, 0.0, 0.0, 1.74768765838145E9, 0.0, 2025-05-19 22:47:38.381
168.0, 21444.844775777434, 16696.373128458636, 47217.52371996924, 29448.132747189135, 34326.624492004456, -555.1055735475509, 8777.999434232644, 101.38751284927284, 0.0, 0.0, 17519.833745936605, -10873.475476917682, 6750.517398180652, -2216.9130703107203, -26936.064891346086, -33624.95853006346, 0.058124999999999996, -0.001890625, 1.0318125, 192.0, 0.5, 88.0, 0.0, 0.0, 16.0, 24.0, 0.0, 0.0, 0.0, 1.747687658390481E9, 0.0, 2025-05-19 22:47:38.390
170.0, 21437.446348362726, 16685.53253239781, 47207.86776636455, 29440.24258139641, 34349.490326582236, -515.3865236504703, 8731.373695298875, 85.65188475273666, 0.0, 0.0, 17513.12822260001, -10877.498790919637, 6768.599959444995, -2190.4709566200922, -26918.496420204214, -33589.151035446055, 0.058124999999999996, -0.001890625, 1.0318125, 192.0, 0.0, 0.0, 0.0, 0.0, 0.0, 0.0, 0.0, 0.0, 0.0, 1.7476876583985E9, 0.0, 2025-05-19 22:47:38.398
172.0, 21444.62125833288, 16696.797811603286, 47213.50040596729, 29438.856773240183, 34326.78095421564, -570.5506289661681, 8739.44267504724, 102.34863786085104, 0.0, 0.0, 17506.221533563323, -10890.999244570643, 6745.801180100582, -2227.9101285827314, -26949.788862441645, -33626.411393453054, 0.058124999999999996, -0.001890625, 1.0318125, 192.0, 0.0, 0.0, 0.0, 0.0, 0.0, 0.0, 0.0, 0.0, 0.0, 1.74768765840548E9, 0.0, 2025-05-19 22:47:38.405
174.0, 21439.43565361925, 16690.15934350006, 47209.20887103187, 29438.476793584443, 34341.80132648961, -550.5458176786683, 8771.629187062883, 87.26121035351878, 0.0, 0.0, 17518.872620925024, -10875.621244385391, 6753.177255770834, -2211.3921894302594, -26931.61689419948, -33614.05087876927, 0.058124999999999996, -0.001890625, 1.0318125, 192.0, 0.0, 0.0, 0.0, 0.0, 0.0, 0.0, 0.0, 0.0, 0.0, 1.747687658414541E9, 0.0, 2025-05-19 22:47:38.414
176.0, 21434.71943553918, 16683.029137018817, 47200.02230406074, 29424.931636444526, 34329.910198439386, -550.7693351232214, 8708.574915954461, 81.963846917611, 0.0, 0.0, 17503.785193417694, -10896.363663239916, 6756.172389527845, -2216.577794143891, -26946.927839151365, -33609.93815778949, 0.058124999999999996, -0.001890625, 1.0318125, 192.0, 0.0, 0.0, 0.0, 0.0, 0.0, 0.0, 0.0, 0.0, 0.0, 1.747687658422544E9, 0.0, 2025-05-19 22:47:38.422
178.0, 21442.76606354309, 16693.15447725707, 47214.50623446778, 29436.465136583465, 34328.45733504979, -568.3378062650927, 8750.953823441723, 87.10474814233163, 0.0, 0.0, 17513.575257489116, -10888.540552680559, 6739.47563641973, -2232.7828088739884, -26946.167879839886, -33640.2918267598, 0.0580625, -9.453125E-4, 1.0309062500000001, 192.0, 0.5, 104.0, 0.0, 0.0, 16.0, 24.0, 0.0, 0.0, 0.0, 1.747687658430586E9, 0.0, 2025-05-19 22:47:38.430
180.0, 21427.27630463556, 16676.010689259852, 47205.27496400773, 29433.514706315364, 34339.499096810716, -533.6478988704562, 8735.553471512017, 83.93080042967802, 0.0, 0.0, 17509.440184764884, -10890.529857937081, 6760.419220974353, -2198.316418923905, -26923.99494934022, -33600.59512860717, 0.0580625, -9.453125E-4, 1.0309062500000001, 192.0, 0.0, 0.0, 0.0, 0.0, 0.0, 0.0, 0.0, 0.0, 0.0, 1.74768765843763E9, 0.0, 2025-05-19 22:47:38.437
182.0, 21431.679598293256, 16682.559750385255, 47206.996048330795, 29432.285360370322, 34303.6468987044, -565.9908730972854, 8731.731323210159, 90.189288877164, 0.0, 0.0, 17504.880428896002, -10895.111965550419, 6743.186025999311, -2230.3911722172707, -26954.57213575508, -33631.731108633416, 0.0580625, -9.453125E-4, 1.0309062500000001, 192.0, 0.0, 0.0, 0.0, 0.0, 0.0, 0.0, 0.0, 0.0, 0.0, 1.747687658446619E9, 0.0, 2025-05-19 22:47:38.446
184.0, 21445.090644966444, 16696.171962758537, 47227.53730148522, 29456.268782170868, 34345.26584688018, -522.2261574537943, 8757.748753756137, 87.10474814233163, 0.0, 0.0, 17518.738510458294, -10878.01288104211, 6754.33954648251, -2208.464110906614, -26931.61689419948, -33615.28022471431, 0.0580625, -9.453125E-4, 1.0309062500000001, 192.0, 0.0, 0.0, 0.0, 0.0, 0.0, 0.0, 0.0, 0.0, 0.0, 1.747687658454601E9, 0.0, 2025-05-19 22:47:38.454
186.0, 21436.14994718432, 16688.81823883274, 47218.395438003, 29446.121090188157, 34333.84410546352, -545.0025850537521, 8708.172584554266, 84.511945785516, 0.0, 0.0, 17519.69963546987, -10876.24709323014, 6774.925503125847, -2190.917991509198, -26920.128097549452, -33588.90516625705, 0.0580625, -9.453125E-4, 1.0309062500000001, 192.0, 0.0, 0.0, 0.0, 0.0, 0.0, 0.0, 0.0, 0.0, 0.0, 1.747687658461702E9, 0.0, 2025-05-19 22:47:38.461
188.0, 21451.10326422492, 16705.894971596597, 47232.27587130974, 29463.756616563394, 34330.22312286176, -553.2056752688497, 8776.59127433196, 96.96186744712203, 0.0, 0.0, 17527.500394284772, -10864.467723902193, 6759.592206429506, -2211.727465597089, -26933.025054100162, -33619.52705616082, 0.058031250000000006, -0.00347265625, 1.033453125, 192.0, 0.5, 104.0, 127.5, 104.0, 16.0, 48.0, 0.0, 0.0, 0.0, 1.74768765846976E9, 0.0, 2025-05-19 22:47:38.469
190.0, 21434.138290183342, 16687.67829986552, 47221.72584792684, 29455.151194948103, 34348.99858820422, -521.1309219754842, 8729.96553539819, 80.64509399474788, 0.0, 0.0, 17526.51691752874, -10869.139238493353, 6782.994482874213, -2181.083223948863, -26914.27194050216, -33581.037352208776, 0.058031250000000006, -0.00347265625, 1.033453125, 192.0, 0.0, 0.0, 0.0, 0.0, 0.0, 0.0, 0.0, 0.0, 0.0, 1.747687658478771E9, 0.0, 2025-05-19 22:47:38.478
192.0, 21439.949743741723, 16698.585951159712, 47217.546071713696, 29448.669189056065, 34314.55454999859, -556.1114020480397, 8724.57876498446, 89.898716199245, 0.0, 0.0, 17522.51595527124, -10872.53670365056, 6762.76615414216, -2216.331924954882, -26942.52454549367, -33615.928425303515, 0.058031250000000006, -0.00347265625, 1.033453125, 192.0, 0.0, 0.0, 0.0, 0.0, 0.0, 0.0, 0.0, 0.0, 0.0, 1.747687658485863E9, 0.0, 2025-05-19 22:47:38.485
194.0, 21452.37731365887, 16710.41002397657, 47228.74429568581, 29464.74009331943, 34358.54278308663, -504.6576863119229, 8766.711803282715, 88.69172199865842, 0.0, 0.0, 17526.315751828643, -10863.707764590712, 6766.655357677384, -2207.145357983751, -26929.605237198502, -33609.69228860048, 0.058031250000000006, -0.00347265625, 1.033453125, 192.0, 0.0, 0.0, 0.0, 0.0, 0.0, 0.0, 0.0, 0.0, 0.0, 1.747687658493924E9, 0.0, 2025-05-19 22:47:38.493
196.0, 21441.49201410914, 16696.82016334774, 47212.226356533334, 29443.617694809163, 34343.41065209039, -525.7577330777327, 8709.021950843568, 86.3671405753065, 0.0, 0.0, 17524.0358738942, -10866.971119281188, 6781.139288084422, -2196.081244478374, -26924.464335973782, -33590.00040173536, 0.058031250000000006, -0.00347265625, 1.033453125, 192.0, 0.0, 0.0, 0.0, 0.0, 0.0, 0.0, 0.0, 0.0, 0.0, 1.747687658501868E9, 0.0, 2025-05-19 22:47:38.501
198.0, 21436.19465067323, 16694.5402854133, 47207.33132449762, 29438.92382847355, 34329.194942616814, -551.1940182678721, 8752.250224620131, 84.55664927442662, 0.0, 0.0, 17516.078652868113, -10877.610549641913, 6745.622366144939, -2227.9101285827314, -26947.307818807105, -33632.26755050034, 0.056015625, -0.003736328125, 1.0357265625, 192.0, 0.5, 88.0, 127.5, 112.0, 16.0, 56.0, 0.0, 0.0, 0.0, 1.747687658510964E9, 0.0, 2025-05-19 22:47:38.510
200.0, 21424.057653434, 16686.58306438721, 47201.58692617261, 29439.974360462948, 34334.33584384154, -537.2465297277605, 8735.48641627865, 77.64996023773674, 0.0, 0.0, 17506.1321265855, -10887.53472418007, 6757.871122106448, -2204.351389926838, -26938.18830706934, -33601.91388153003, 0.056015625, -0.003736328125, 1.0357265625, 192.0, 0.0, 0.0, 0.0, 0.0, 0.0, 0.0, 0.0, 0.0, 0.0, 1.747687658517931E9, 0.0, 2025-05-19 22:47:38.517
202.0, 21437.491051851637, 16691.321634211738, 47219.53537697022, 29442.5001075864, 34331.98891067373, -566.2367422862939, 8718.186166070243, 80.06394863890989, 0.0, 0.0, 17513.239981322287, -10882.550285166537, 6752.372592970442, -2224.110332025329, -26949.408882785905, -33624.75736436336, 0.056015625, -0.003736328125, 1.0357265625, 192.0, 0.0, 0.0, 0.0, 0.0, 0.0, 0.0, 0.0, 0.0, 0.0, 1.747687658526945E9, 0.0, 2025-05-19 22:47:38.526
204.0, 21435.032359961555, 16687.767706843344, 47218.97658335884, 29452.58074433574, 34340.79549798912, -550.5905211675789, 8762.979061958678, 77.40409104872836, 0.0, 0.0, 17521.75599595976, -10873.922511806788, 6755.993575572202, -2207.882965550776, -26930.879286632455, -33615.503742158864, 0.056015625, -0.003736328125, 1.0357265625, 192.0, 0.0, 0.0, 0.0, 0.0, 0.0, 0.0, 0.0, 0.0, 0.0, 1.747687658533942E9, 0.0, 2025-05-19 22:47:38.533
206.0, 21430.092624436933, 16686.493657409388, 47213.85803387857, 29446.389311121624, 34322.26590183567, -545.1590472649392, 8710.474814233163, 86.3671405753065, 0.0, 0.0, 17516.458632523852, -10880.33746246546, 6769.739898412216, -2193.95782875512, -26930.90163837691, -33591.945003502966, 0.056015625, -0.003736328125, 1.0357265625, 192.0, 0.0, 0.0, 0.0, 0.0, 0.0, 0.0, 0.0, 0.0, 0.0, 1.747687658542007E9, 0.0, 2025-05-19 22:47:38.542
208.0, 21434.630028561358, 16690.69578536699, 47218.84247289211, 29450.390273379122, 34321.05890763508, -557.7877828821878, 8747.891634451345, 90.43515806617238, 0.0, 0.0, 17516.302170312665, -10877.185866497262, 6746.404677200875, -2215.728427854589, -26940.62464721497, -33622.94687306248, 0.056007812500000004, -0.0038681640625000003, 1.03686328125, 192.0, 0.5, 96.0, 127.5, 112.0, 16.0, 56.0, 0.0, 0.0, 0.0, 1.747687658550022E9, 0.0, 2025-05-19 22:47:38.550
210.0, 21430.874935492866, 16687.25361672087, 47218.529548469734, 29454.167718192068, 34338.53797179913, -515.7665033062104, 8743.510692538106, 91.99978017804386, 0.0, 0.0, 17517.24094357979, -10882.304415977529, 6768.465848978263, -2181.6867210491564, -26914.830734113544, -33582.91489874302, 0.056007812500000004, -0.0038681640625000003, 1.03686328125, 192.0, 0.0, 0.0, 0.0, 0.0, 0.0, 0.0, 0.0, 0.0, 0.0, 1.747687658558052E9, 0.0, 2025-05-19 22:47:38.558
212.0, 21434.361807627894, 16690.24875047788, 47212.96396410036, 29444.511764587376, 34312.989927886716, -554.6585386584447, 8734.569994755984, 96.40307383573936, 0.0, 0.0, 17512.971760388824, -10879.085764775964, 6755.390078471909, -2212.8897563087653, -26941.764586182187, -33613.87206481362, 0.056007812500000004, -0.0038681640625000003, 1.03686328125, 192.0, 0.0, 0.0, 0.0, 0.0, 0.0, 0.0, 0.0, 0.0, 0.0, 1.747687658567078E9, 0.0, 2025-05-19 22:47:38.567
214.0, 21437.491051851637, 16693.15447725707, 47210.75114139928, 29454.480642614442, 34337.42038457637, -541.7392303632773, 8761.950881713734, 95.10667265733156, 0.0, 0.0, 17515.98924589029, -10871.888503061355, 6755.524188938641, -2204.8431283048544, -26930.43225174335, -33608.88762580009, 0.056007812500000004, -0.0038681640625000003, 1.03686328125, 192.0, 0.0, 0.0, 0.0, 0.0, 0.0, 0.0, 0.0, 0.0, 0.0, 1.747687658574078E9, 0.0, 2025-05-19 22:47:38.574
216.0, 21429.802051759012, 16681.576273629224, 47203.33036224012, 29442.20953490848, 34329.776087972656, -541.8286373410986, 8717.985000370145, 94.77139649050194, 0.0, 0.0, 17504.433394006897, -10882.572636910993, 6762.408526230875, -2201.4009596587375, -26937.964789624788, -33593.46492212593, 0.056007812500000004, -0.0038681640625000003, 1.03686328125, 192.0, 0.0, 0.0, 0.0, 0.0, 0.0, 0.0, 0.0, 0.0, 0.0, 1.747687658582124E9, 0.0, 2025-05-19 22:47:38.582
218.0, 21439.726226297167, 16694.49558192439, 47214.50623446778, 29451.083177457236, 34325.97629141525, -532.6867738588779, 8758.39695434534, 106.10373092934263, 0.0, 0.0, 17506.26623705223, -10879.666910131802, 6738.223938730233, -2226.1666925152176, -26951.934629909352, -33627.28311148681, 0.05700390625, -0.00693408203125, 1.038431640625, 192.0, 0.5, 104.0, 127.5, 88.0, 16.0, 64.0, 0.0, 0.0, 0.0, 1.747687658590181E9, 0.0, 2025-05-19 22:47:38.590
220.0, 21423.498859822615, 16678.938767783497, 47208.314801253655, 29446.63518031063, 34347.74689051472, -531.9938697807634, 8729.406741786808, 89.898716199245, 0.0, 0.0, 17512.41296677744, -10880.650386887835, 6764.688404165317, -2190.225087431084, -26923.257341773195, -33584.99361097737, 0.05700390625, -0.00693408203125, 1.038431640625, 192.0, 0.0, 0.0, 0.0, 0.0, 0.0, 0.0, 0.0, 0.0, 0.0, 1.747687658598186E9, 0.0, 2025-05-19 22:47:38.598
222.0, 21428.95268546971, 16682.716212596442, 47208.024228575734, 29444.243543653913, 34322.489419280224, -569.8130213991429, 8726.098683607423, 102.81802449441248, 0.0, 0.0, 17498.733699170793, -10892.139183537864, 6739.229767230722, -2221.3610674573265, -26951.107615364508, -33616.7330881039, 0.05700390625, -0.00693408203125, 1.038431640625, 192.0, 0.0, 0.0, 0.0, 0.0, 0.0, 0.0, 0.0, 0.0, 0.0, 1.747687658606189E9, 0.0, 2025-05-19 22:47:38.606
224.0, 21431.81370875999, 16682.939730040995, 47214.3944757455, 29453.765386791874, 34345.46701258028, -534.4972651597578, 8761.235625891164, 93.83262322337904, 0.0, 0.0, 17511.1836208324, -10880.24805548764, 6746.561139412062, -2198.8752125352876, -26928.08531857554, -33600.684535584995, 0.05700390625, -0.00693408203125, 1.038431640625, 192.0, 0.0, 0.0, 0.0, 0.0, 0.0, 0.0, 0.0, 0.0, 0.0, 1.74768765861425E9, 0.0, 2025-05-19 22:47:38.614
226.0, 21425.62227554587, 16674.982509014906, 47200.51404243876, 29435.63812203862, 34319.762506456675, -543.39325945297, 8713.112320078888, 87.08239639787632, 0.0, 0.0, 17501.572370716618, -10891.96036958222, 6755.904168594381, -2199.1657852132066, -26938.747100680725, -33593.59903259266, 0.05700390625, -0.00693408203125, 1.038431640625, 192.0, 0.0, 0.0, 0.0, 0.0, 0.0, 0.0, 0.0, 0.0, 0.0, 1.747687658623261E9, 0.0, 2025-05-19 22:47:38.623
228.0, 21438.541583841037, 16692.618035390144, 47214.01449608976, 29451.59726757971, 34326.78095421564, -558.1007073045621, 8755.804151988525, 95.21843137960809, 0.0, 0.0, 17510.535420243195, -10880.516276421104, 6740.436761431309, -2222.9703930581086, -26949.833565930556, -33627.730146375914, 0.05700390625, -0.00693408203125, 1.038431640625, 192.0, 0.0, 0.0, 0.0, 0.0, 0.0, 0.0, 0.0, 0.0, 0.0, 1.747687658629232E9, 0.0, 2025-05-19 22:47:38.629
230.0, 21429.53383082555, 16682.44799166298, 47213.12042631155, 29451.329046646246, 34335.296968853116, -526.1824162223836, 8733.050076133022, 85.1154428858093, 0.0, 0.0, 17513.999940633767, -10875.308319963016, 6767.996462344702, -2188.8839827637653, -26925.537219707636, -33587.31819240072, 0.06, -0.002, 1.034, 192.0, 0.5, 112.0, 127.5, 120.0, 16.0, 40.0, 0.0, 0.0, 0.0, 1.74768765863827E9, 0.0, 2025-05-19 22:47:38.638
232.0, 21434.361807627894, 16685.912512053554, 47211.39934198849, 29444.10943318718, 34313.99575638721, -556.6031404260565, 8720.331933537953, 91.99978017804386, 0.0, 0.0, 17508.501411497764, -10885.38895671236, 6747.075229534535, -2221.0928465238626, -26951.487595020248, -33619.839980583194, 0.06, -0.002, 1.034, 192.0, 0.0, 0.0, 0.0, 0.0, 0.0, 0.0, 0.0, 0.0, 0.0, 1.747687658646312E9, 0.0, 2025-05-19 22:47:38.646
234.0, 21437.468700107183, 16691.276930722826, 47216.54024321321, 29454.54769784781, 34336.03457642014, -528.5293493901908, 8749.903291452323, 92.33505634487348, 0.0, 0.0, 17520.437243036897, -10869.541569893549, 6755.993575572202, -2200.439834647159, -26927.414766241884, -33604.4843321424, 0.06, -0.002, 1.034, 192.0, 0.0, 0.0, 0.0, 0.0, 0.0, 0.0, 0.0, 0.0, 0.0, 1.747687658654387E9, 0.0, 2025-05-19 22:47:38.654
236.0, 21428.237429647143, 16684.39259343059, 47206.05727506367, 29439.39321510711, 34320.120134367964, -547.103649032551, 8727.68565746375, 92.93855344516676, 0.0, 0.0, 17503.762841673237, -10891.647445159846, 6758.541674440107, -2204.239631204561, -26940.579943726058, -33600.46101814044, 0.06, -0.002, 1.034, 192.0, 0.0, 0.0, 0.0, 0.0, 0.0, 0.0, 0.0, 0.0, 0.0, 1.747687658661387E9, 0.0, 2025-05-19 22:47:38.661
238.0, 21440.374426886374, 16697.73658487041, 47217.56842345816, 29455.374712392655, 34326.35627107099, -541.5157129187243, 8761.68266078027, 99.15233840374214, 0.0, 0.0, 17507.875562653015, -10879.53279966507, 6740.503816664675, -2220.53405291248, -26942.90452514941, -33625.159695763556, 0.06, -0.002, 1.034, 192.0, 0.0, 0.0, 0.0, 0.0, 0.0, 0.0, 0.0, 0.0, 0.0, 1.747687658670371E9, 0.0, 2025-05-19 22:47:38.670
240.0, 21439.279191408063, 16694.897913324585, 47225.369182273054, 29464.337761919232, 34347.523373070166, -501.2378694102609, 8748.517483296095, 103.01919019451026, 0.0, 0.0, 17519.99020814779, -10871.396764683339, 6773.629101947439, -2177.261075647006, -26908.438135199325, -33576.05291319524, 0.064, 0.002, 1.032, 192.0, 1.0, 0.0, 0.0, 8.0, 16.0, 32.0, 0.0, 0.0, 0.0, 1.747687658678484E9, 0.0, 2025-05-19 22:47:38.678
242.0, 21435.792319273034, 16692.863904579153, 47216.54024321321, 29453.787738536328, 34323.78582045863, -541.8956925744644, 8739.532082025062, 106.6625245407253, 0.0, 0.0, 17514.1340511005, -10874.213084484707, 6757.938177339814, -2204.261982949017, -26937.026016357664, -33603.970242019925, 0.064, 0.002, 1.032, 192.0, 0.0, 0.0, 0.0, 0.0, 0.0, 0.0, 0.0, 0.0, 0.0, 1.747687658685473E9, 0.0, 2025-05-19 22:47:38.685
244.0, 21436.239354162142, 16691.12046851164, 47224.76568517276, 29461.4543868845, 34340.54962880011, -517.6664015849116, 8760.9674049577, 95.30783835742932, 0.0, 0.0, 17516.771556946227, -10871.128543749875, 6755.166561027356, -2195.6118578448127, -26922.922065606366, -33602.09269548568, 0.064, 0.002, 1.032, 192.0, 0.0, 0.0, 0.0, 0.0, 0.0, 0.0, 0.0, 0.0, 0.0, 1.747687658693497E9, 0.0, 2025-05-19 22:47:38.693
246.0, 21426.04695869052, 16682.15741898506, 47216.67435367994, 29445.49524134341, 34325.93158792634, -520.3709626640037, 8725.696352207226, 93.45264356763883, 0.0, 0.0, 17510.84834466557, -10883.220837500196, 6766.431840232831, -2189.643942075246, -26923.346748751017, -33588.25696566784, 0.064, 0.002, 1.032, 192.0, 0.0, 0.0, 0.0, 0.0, 0.0, 0.0, 0.0, 0.0, 0.0, 1.747687658702546E9, 0.0, 2025-05-19 22:47:38.702
248.0, 21442.564897842993, 16698.25067499288, 47228.185502074426, 29460.336799661734, 34324.07639313655, -555.3961462254699, 8772.098573696443, 95.06196916842094, 0.0, 0.0, 17518.537344758195, -10870.323880949483, 6750.405639458375, -2215.348448198849, -26939.79763267012, -33622.142210262085, 0.064, 0.002, 1.032, 192.0, 0.0, 0.0, 0.0, 0.0, 0.0, 0.0, 0.0, 0.0, 0.0, 1.747687658709602E9, 0.0, 2025-05-19 22:47:38.709
250.0, 21436.976961729164, 16690.941654555994, 47225.57034797315, 29456.246430426414, 34348.61860854848, -517.3981806514479, 8743.935375682757, 78.85695443832331, 0.0, 0.0, 17522.538307015697, -10869.876846060377, 6774.76904091466, -2180.211505915106, -26913.869609101966, -33582.78078827629, 0.062, -0.002, 1.03, 192.0, 0.5, 120.0, 127.5, 120.0, 16.0, 24.0, 0.0, 0.0, 0.0, 1.747687658717609E9, 0.0, 2025-05-19 22:47:38.717
252.0, 21442.564897842993, 16696.775459858833, 47227.15732182948, 29455.575878092754, 34327.6526722494, -538.2300064837941, 8735.86639593439, 103.86855648381191, 0.0, 0.0, 17518.917324413935, -10874.257787973618, 6758.496970951196, -2207.279468450483, -26934.43321400085, -33609.22290196692, 0.062, -0.002, 1.03, 192.0, 0.0, 0.0, 0.0, 0.0, 0.0, 0.0, 0.0, 0.0, 0.0, 1.747687658726649E9, 0.0, 2025-05-19 22:47:38.726
254.0, 21444.665961821793, 16700.619959905143, 47233.66167946597, 29464.87420378616, 34352.79838476162, -517.2193666958054, 8764.007242203623, 94.48082381258295, 0.0, 0.0, 17531.076673397623, -10859.48328488866, 6767.728241411239, -2189.8227560308883, -26914.31664399107, -33596.25889018284, 0.062, -0.002, 1.03, 192.0, 0.0, 0.0, 0.0, 0.0, 0.0, 0.0, 0.0, 0.0, 0.0, 1.747687658734655E9, 0.0, 2025-05-19 22:47:38.734
0.0, 21436.887554751345, 16692.953311556972, 47224.56451947267, 29453.318351902766, 34330.91602693988, -518.1581399629283, 8713.49229973463, 93.29618135645168, 0.0, 0.0, 17521.174850603922, -10873.810753084512, 6775.86427639297, -2186.7158635516007, -26921.178629538852, -33584.814797021725, 0.062, -0.002, 1.03, 192.0, 0.0, 0.0, 0.0, 0.0, 0.0, 0.0, 0.0, 0.0, 0.0, 1.74768765874172E9, 0.0, 2025-05-19 22:47:38.741
2.0, 21452.980810759167, 16707.616055919654, 47233.974603888346, 29466.237660197934, 34335.40872757539, -521.3320876755819, 8771.02568996259, 107.08720768537614, 0.0, 0.0, 17527.545097773684, -10861.67375584528, 6759.592206429506, -2206.2959916944496, -26930.18638255434, -33613.24621596887, 0.062, -0.002, 1.03, 192.0, 0.0, 0.0, 0.0, 0.0, 0.0, 0.0, 0.0, 0.0, 0.0, 1.747687658749697E9, 0.0, 2025-05-19 22:47:38.749
4.0, 21441.46966236468, 16697.87069533714, 47222.35169677159, 29457.766349049372, 34348.75271901521, -503.7189130448, 8751.847893219936, 97.83358548087901, 0.0, 0.0, 17526.60632450656, -10863.841875057446, 6783.687386952328, -2171.1814011551623, -26903.811324097078, -33572.096654426656, 0.062, -0.002, 1.03, 192.0, 0.5, 120.0, 127.5, 120.0, 16.0, 24.0, 0.0, 0.0, 0.0, 1.747687658758787E9, 0.0, 2025-05-19 22:47:38.758
6.0, 21447.884613023354, 16701.894009339096, 47225.503292739784, 29455.285305414833, 34326.065698393075, -525.3106981886266, 8734.704105222716, 101.52162331600468, 0.0, 0.0, 17515.721024956827, -10874.928340307277, 6759.81572387406, -2207.5923928728575, -26938.121251835975, -33607.2335967104, 0.062, -0.002, 1.03, 192.0, 0.0, 0.0, 0.0, 0.0, 0.0, 0.0, 0.0, 0.0, 0.0, 1.747687658765866E9, 0.0, 2025-05-19 22:47:38.765
8.0, 21447.61639208989, 16700.910532583064, 47228.54312998571, 29464.82950029725, 34355.502945840715, -518.9628027633194, 8771.226855662688, 96.06779766890976, 0.0, 0.0, 17530.070844897135, -10862.925453534777, 6765.873046621447, -2189.889811264254, -26912.684966645837, -33595.52128261582, 0.062, -0.002, 1.03, 192.0, 0.0, 0.0, 0.0, 0.0, 0.0, 0.0, 0.0, 0.0, 0.0, 1.747687658773879E9, 0.0, 2025-05-19 22:47:38.773
10.0, 21438.921563496777, 16690.561674900255, 47210.75114139928, 29444.310598887278, 34327.518561782665, -519.3204306746043, 8721.605982971905, 90.63632376627014, 0.0, 0.0, 17512.681187710903, -10880.359814209916, 6766.945930355303, -2191.208564187117, -26925.24664702972, -33588.9275180015, 0.062, -0.002, 1.03, 192.0, 0.0, 0.0, 0.0, 0.0, 0.0, 0.0, 0.0, 0.0, 0.0, 1.747687658781887E9, 0.0, 2025-05-19 22:47:38.781
12.0, 21448.219889190186, 16698.138916270604, 47212.82985363363, 29445.562296576776, 34318.13082911144, -538.6323378839896, 8753.770143243091, 107.13191117428676, 0.0, 0.0, 17508.032024864202, -10882.080898532975, 6741.531996909618, -2222.9480413136534, -26951.442891531336, -33626.32198647523, 0.062, -0.002, 1.03, 192.0, 0.0, 0.0, 0.0, 0.0, 0.0, 0.0, 0.0, 0.0, 0.0, 1.747687658790925E9, 0.0, 2025-05-19 22:47:38.790
14.0, 21450.276249680075, 16698.764765115353, 47230.35362128659, 29463.5554508633, 34361.023826721175, -518.7392853187663, 8737.833349446459, 89.92106794370031, 0.0, 0.0, 17519.878449425512, -10876.135334507864, 6774.411413003375, -2181.9102384937096, -26910.248626500208, -33583.80896852123, 0.06, -0.002, 1.032, 192.0, 0.5, 112.0, 127.5, 120.0, 16.0, 32.0, 0.0, 0.0, 0.0, 1.747687658797951E9, 0.0, 2025-05-19 22:47:38.797
16.0, 21446.744674056135, 16698.273026737337, 47227.62670846304, 29455.911154259582, 34325.39514605941, -546.8354280990873, 8725.852814418413, 94.32436160139581, 0.0, 0.0, 17523.633542494004, -10868.111058248409, 6766.364784999465, -2201.669180592201, -26929.8064028986, -33603.478503641905, 0.06, -0.002, 1.032, 192.0, 0.0, 0.0, 0.0, 0.0, 0.0, 0.0, 0.0, 0.0, 0.0, 1.747687658805987E9, 0.0, 2025-05-19 22:47:38.805
18.0, 21444.554203099517, 16700.463497693956, 47226.7996939182, 29464.06954098577, 34339.99083518873, -518.1134364740177, 8752.20552113122, 86.30008534194057, 0.0, 0.0, 17525.958123917357, -10865.048869258031, 6764.733107654227, -2195.142471211251, -26921.849181872512, -33604.0820007422, 0.06, -0.002, 1.032, 192.0, 0.0, 0.0, 0.0, 0.0, 0.0, 0.0, 0.0, 0.0, 0.0, 1.747687658814023E9, 0.0, 2025-05-19 22:47:38.814
20.0, 21445.403569388818, 16698.29537848179, 47224.20689156138, 29458.950991505506, 34335.296968853116, -529.3340121905818, 8741.901366937323, 90.189288877164, 0.0, 0.0, 17518.917324413935, -10871.91085480581, 6776.4901252377185, -2182.804308271922, -26918.585827182036, -33583.60780282114, 0.06, -0.002, 1.032, 192.0, 0.0, 0.0, 0.0, 0.0, 0.0, 0.0, 0.0, 0.0, 0.0, 1.747687658823038E9, 0.0, 2025-05-19 22:47:38.823
22.0, 21454.545432871037, 16705.91732334105, 47231.58296723163, 29462.3037531738, 34332.83827696303, -540.3757739515036, 8768.343480627953, 95.86663196881199, 0.0, 0.0, 17522.538307015697, -10866.166456480796, 6755.323023238543, -2209.447587662648, -26934.43321400085, -33618.8341520827, 0.06, -0.002, 1.032, 192.0, 0.0, 0.0, 0.0, 0.0, 0.0, 0.0, 0.0, 0.0, 0.0, 1.747687658830059E9, 0.0, 2025-05-19 22:47:38.830
24.0, 21442.788415287545, 16698.943579070998, 47225.726810184344, 29461.54379386232, 34338.157992143395, -512.2796311711826, 8752.54079729805, 86.7024167421361, 0.0, 0.0, 17528.193298362887, -10863.931282035266, 6783.262703807677, -2171.2931598774385, -26903.811324097078, -33574.532994572284, 0.058, -0.002, 1.026, 192.0, 0.5, 104.0, 127.5, 120.0, 16.0, 8.0, 0.0, 0.0, 0.0, 1.747687658838097E9, 0.0, 2025-05-19 22:47:38.838
26.0, 21442.85547052091, 16693.713270868455, 47215.48971122381, 29447.05986345528, 34303.6468987044, -556.938416592886, 8734.882919178357, 89.02699816548802, 0.0, 0.0, 17510.870696410024, -10878.325805464483, 6756.328851739032, -2212.2415557195613, -26947.173708340375, -33614.65437586956, 0.058, -0.002, 1.026, 192.0, 0.0, 0.0, 0.0, 0.0, 0.0, 0.0, 0.0, 0.0, 0.0, 1.747687658846156E9, 0.0, 2025-05-19 22:47:38.846
28.0, 21449.09160722394, 16699.524724426832, 47228.11844684106, 29461.67790432905, 34345.71288176929, -520.1250934749953, 8772.947939985746, 90.68102725518075, 0.0, 0.0, 17520.10196687007, -10872.447296672737, 6758.184046528822, -2196.3271136673825, -26922.31856850607, -33608.41823916653, 0.058, -0.002, 1.026, 192.0, 0.0, 0.0, 0.0, 0.0, 0.0, 0.0, 0.0, 0.0, 0.0, 1.74768765885316E9, 0.0, 2025-05-19 22:47:38.853
30.0, 21434.361807627894, 16686.87363706513, 47217.85899613607, 29448.959761733982, 34325.9539396708, -510.71500905931106, 8711.81591890048, 85.89775394174504, 0.0, 0.0, 17516.458632523852, -10874.034270529064, 6774.05378509209, -2182.6478460607345, -26921.178629538852, -33584.09954119915, 0.058, -0.002, 1.026, 192.0, 0.0, 0.0, 0.0, 0.0, 0.0, 0.0, 0.0, 0.0, 0.0, 1.747687658862221E9, 0.0, 2025-05-19 22:47:38.862
32.0, 21444.800072288523, 16699.636483149112, 47231.605318976086, 29461.67790432905, 34326.333919326535, -527.6129278675232, 8770.891579495858, 97.23008838058573, 0.0, 0.0, 17520.303132570163, -10872.044965272542, 6751.947909825792, -2209.536994640469, -26937.070719846575, -33622.11985851763, 0.058, -0.002, 1.026, 192.0, 0.0, 0.0, 0.0, 0.0, 0.0, 0.0, 0.0, 0.0, 0.0, 1.747687658870228E9, 0.0, 2025-05-19 22:47:38.870
34.0, 21440.374426886374, 16692.77449760133, 47232.18646433192, 29463.890727030128, 34348.305684126106, -540.6216431405119, 8736.53694826805, 85.60718126382605, 0.0, 0.0, 17528.260353596255, -10865.00416576912, 6784.670863708361, -2168.0074534425084, -26904.41482119737, -33575.874099239605, 0.06, -0.002, 1.026, 192.0, 0.5, 112.0, 127.5, 120.0, 16.0, 8.0, 0.0, 0.0, 0.0, 1.747687658878315E9, 0.0, 2025-05-19 22:47:38.878
36.0, 21446.476453122672, 16696.998977303385, 47229.370144530556, 29456.53700310433, 34324.92575942585, -571.5788092111122, 8726.143387096332, 90.61397202181483, 0.0, 0.0, 17520.90662967046, -10874.302491462528, 6764.934273354325, -2204.664314349212, -26937.026016357664, -33612.30744270175, 0.06, -0.002, 1.026, 192.0, 0.0, 0.0, 0.0, 0.0, 0.0, 0.0, 0.0, 0.0, 0.0, 1.747687658885317E9, 0.0, 2025-05-19 22:47:38.885
38.0, 21447.0128949896, 16697.24484649239, 47239.16020860198, 29476.65357311411, 34338.33680609904, -536.0395355271739, 8774.423155119795, 87.97646617608859, 0.0, 0.0, 17534.965876932845, -10857.605738354414, 6772.466811235763, -2184.8383170173547, -26913.243760257217, -33595.27541342681, 0.06, -0.002, 1.026, 192.0, 0.0, 0.0, 0.0, 0.0, 0.0, 0.0, 0.0, 0.0, 0.0, 1.747687658894311E9, 0.0, 2025-05-19 22:47:38.894
40.0, 21437.692217551736, 16688.080631265715, 47226.73263868483, 29461.990828751426, 34325.5516082706, -536.6206808830119, 8721.427169016262, 89.85401271033439, 0.0, 0.0, 17524.438205294395, -10865.786476825057, 6784.022663119157, -2177.0375582024526, -26920.66453941638, -33576.16467191752, 0.06, -0.002, 1.026, 192.0, 0.0, 0.0, 0.0, 0.0, 0.0, 0.0, 0.0, 0.0, 0.0, 1.747687658902302E9, 0.0, 2025-05-19 22:47:38.902
42.0, 21450.209194446707, 16701.916361083553, 47231.00182187579, 29468.4057794101, 34316.901483166395, -546.5448554211683, 8775.11605919791, 98.54884130344884, 0.0, 0.0, 17525.153461116966, -10864.53477913556, 6760.732145396727, -2203.2338027040723, -26936.04253960163, -33612.30744270175, 0.06, -0.002, 1.026, 192.0, 0.0, 0.0, 0.0, 0.0, 0.0, 0.0, 0.0, 0.0, 0.0, 1.747687658909328E9, 0.0, 2025-05-19 22:47:38.909
44.0, 21442.117862953888, 16694.182657502017, 47231.22533932034, 29472.16087247859, 34341.62251253397, -502.15429093292846, 8742.750733226625, 87.86470745381206, 0.0, 0.0, 17525.712254728347, -10860.064430244498, 6784.894381152914, -2169.370909854282, -26912.126173034452, -33569.10152066965, 0.06, 0.002, 1.03, 192.0, 0.5, 112.0, 0.0, 8.0, 16.0, 24.0, 0.0, 0.0, 0.0, 1.747687658917333E9, 0.0, 2025-05-19 22:47:38.917
46.0, 21451.595002602935, 16701.424622705534, 47237.28266206774, 29464.896555530617, 34333.59823627451, -521.8014743091434, 8730.747846454125, 99.30880061492928, 0.0, 0.0, 17526.67337973993, -10867.440505914748, 6771.706851924283, -2196.5282793674805, -26931.907466877397, -33598.40465765055, 0.06, 0.002, 1.03, 192.0, 0.0, 0.0, 0.0, 0.0, 0.0, 0.0, 0.0, 0.0, 0.0, 1.747687658926387E9, 0.0, 2025-05-19 22:47:38.926
48.0, 21451.43854039175, 16702.38574771711, 47233.50521725479, 29470.48449164444, 34348.79742250412, -519.0522097411406, 8763.314338125509, 95.28548661297401, 0.0, 0.0, 17536.46344381135, -10860.824389555979, 6776.400718259897, -2185.710035051112, -26916.03772831413, -33592.995535492366, 0.06, 0.002, 1.03, 192.0, 0.0, 0.0, 0.0, 0.0, 0.0, 0.0, 0.0, 0.0, 0.0, 1.747687658934441E9, 0.0, 2025-05-19 22:47:38.934
50.0, 21443.257801921107, 16691.20987548946, 47225.525644484245, 29460.850889784208, 34334.805230475096, -519.9686312638082, 8721.382465527353, 98.34767560335108, 0.0, 0.0, 17523.074748882624, -10869.452162915726, 6782.458041007286, -2181.351444882327, -26919.94928359381, -33578.46690159642, 0.06, 0.002, 1.03, 192.0, 0.0, 0.0, 0.0, 0.0, 0.0, 0.0, 0.0, 0.0, 0.0, 1.747687658941476E9, 0.0, 2025-05-19 22:47:38.941
52.0, 21450.879746780367, 16697.378956959124, 47226.710286940375, 29461.297924673312, 34325.68571873733, -528.5740528791014, 8760.833294490969, 96.64894302474774, 0.0, 0.0, 17522.426548293417, -10871.240302472152, 6755.390078471909, -2209.402884173737, -26938.94826638082, -33615.39198343659, 0.06, 0.002, 1.03, 192.0, 0.0, 0.0, 0.0, 0.0, 0.0, 0.0, 0.0, 0.0, 0.0, 1.747687658950501E9, 0.0, 2025-05-19 22:47:38.950
54.0, 21444.084816465955, 16693.06507027925, 47223.02224910525, 29462.43786364053, 34345.26584688018, -500.50026184323576, 8737.341611068441, 80.17570736118644, 0.0, 0.0, 17522.38184480451, -10871.307357705517, 6778.278264794143, -2177.1269651802736, -26915.724803891757, -33578.75747427434, 0.06, -0.004, 1.034, 192.0, 0.5, 112.0, 127.5, 112.0, 16.0, 40.0, 0.0, 0.0, 0.0, 1.747687658958526E9, 0.0, 2025-05-19 22:47:38.958
56.0, 21445.045941477532, 16693.623863890632, 47223.64809795, 29457.20755543799, 34317.661442477875, -573.9257423789195, 8731.507805765606, 94.41376857921703, 0.0, 0.0, 17515.341045301087, -10876.291796719051, 6760.57568318554, -2207.838262061866, -26942.032807115655, -33610.76517233434, 0.06, -0.004, 1.034, 192.0, 0.0, 0.0, 0.0, 0.0, 0.0, 0.0, 0.0, 0.0, 0.0, 1.747687658965554E9, 0.0, 2025-05-19 22:47:38.965
58.0, 21447.459929878703, 16696.328424969724, 47224.92214738395, 29463.242526440925, 34340.86255322248, -546.2989862321599, 8750.68560250826, 94.68198951268072, 0.0, 0.0, 17520.50429827026, -10868.692203604247, 6760.1733517853445, -2194.538974110958, -26925.22429528526, -33602.65148909706, 0.06, -0.004, 1.034, 192.0, 0.0, 0.0, 0.0, 0.0, 0.0, 0.0, 0.0, 0.0, 0.0, 1.747687658973593E9, 0.0, 2025-05-19 22:47:38.973
60.0, 21440.03915071954, 16693.266235979347, 47222.73167642733, 29457.453424626998, 34329.44081180583, -529.19990172385, 8726.411608029795, 93.29618135645168, 0.0, 0.0, 17513.821126678125, -10876.24709323014, 6772.57856995804, -2185.084186206363, -26925.336054007537, -33584.59127957717, 0.06, -0.004, 1.034, 192.0, 0.0, 0.0, 0.0, 0.0, 0.0, 0.0, 0.0, 0.0, 0.0, 1.747687658982844E9, 0.0, 2025-05-19 22:47:38.982
62.0, 21450.253897935618, 16704.39740471809, 47232.63349922103, 29465.947087520017, 34325.864532692976, -534.4972651597578, 8774.914893497813, 99.59937329284827, 0.0, 0.0, 17521.04074013719, -10866.367622180895, 6757.379383728431, -2203.7925963154553, -26932.37685351096, -33612.84388456868, 0.06, -0.004, 1.034, 192.0, 0.0, 0.0, 0.0, 0.0, 0.0, 0.0, 0.0, 0.0, 0.0, 1.74768765898965E9, 0.0, 2025-05-19 22:47:38.989
64.0, 21429.91381048129, 16682.15741898506, 47214.23801353431, 29451.530212346344, 34333.5535327856, -523.4107999099255, 8737.587480257449, 83.05908239592104, 0.0, 0.0, 17511.921228399424, -10876.403555441328, 6767.951758855791, -2178.1327936807625, -26915.545989936116, -33581.84201500917, 0.066, -0.004, 1.03, 192.0, 1.0, 8.0, 127.5, 112.0, 16.0, 24.0, 0.0, 0.0, 0.0, 1.747687658997702E9, 0.0, 2025-05-19 22:47:38.997
66.0, 21440.553240842015, 16690.651081878077, 47218.77541765874, 29452.133709446636, 34316.29798606611, -546.9471868213639, 8712.709988678693, 86.79182371995732, 0.0, 0.0, 17500.499486982764, -10892.139183537864, 6741.822569587537, -2216.4660354216144, -26951.934629909352, -33619.10237301617, 0.066, -0.004, 1.03, 192.0, 0.0, 0.0, 0.0, 0.0, 0.0, 0.0, 0.0, 0.0, 0.0, 1.747687659005698E9, 0.0, 2025-05-19 22:47:39.005
68.0, 21443.011932732097, 16694.137954013106, 47225.43623750642, 29468.674000343563, 34341.06371892258, -517.4205323959031, 8760.945053213245, 83.10378588483167, 0.0, 0.0, 17516.972722646326, -10870.413287927306, 6754.786581371615, -2192.7284828100783, -26924.41963248487, -33600.55042511826, 0.066, -0.004, 1.03, 192.0, 0.0, 0.0, 0.0, 0.0, 0.0, 0.0, 0.0, 0.0, 0.0, 1.747687659014793E9, 0.0, 2025-05-19 22:47:39.014
70.0, 21436.619333817882, 16685.241959719893, 47218.44014149191, 29455.620581581665, 34324.56813151457, -533.7596575927327, 8726.25514581861, 84.98133241907745, 0.0, 0.0, 17510.42366152092, -10879.510447920615, 6769.225808289744, -2178.7809942699664, -26920.597484183014, -33579.49508184136, 0.066, -0.004, 1.03, 192.0, 0.0, 0.0, 0.0, 0.0, 0.0, 0.0, 0.0, 0.0, 0.0, 1.747687659021965E9, 0.0, 2025-05-19 22:47:39.021
72.0, 21442.229621676164, 16694.45087843548, 47224.609222961575, 29455.173546692557, 34319.60604424549, -550.4564107008471, 8755.960614199712, 85.60718126382605, 0.0, 0.0, 17507.294417297177, -10888.048814302543, 6740.280299220121, -2213.2697359645053, -26942.613952471493, -33624.869123085635, 0.066, -0.004, 1.03, 192.0, 0.0, 0.0, 0.0, 0.0, 0.0, 0.0, 0.0, 0.0, 0.0, 1.747687659029907E9, 0.0, 2025-05-19 22:47:39.029
74.0, 21436.75344428461, 16690.561674900255, 47224.43040900593, 29460.672075828563, 34345.80228874711, -486.0610349251074, 8737.766294213092, 79.50515502752722, 0.0, 0.0, 17516.436280779395, -10876.58236939697, 6772.2656455356655, -2172.634264544757, -26908.460486943783, -33580.83618650868, 0.058, -0.006, 1.032, 192.0, 0.5, 104.0, 127.5, 104.0, 16.0, 32.0, 0.0, 0.0, 0.0, 1.747687659038894E9, 0.0, 2025-05-19 22:47:39.038
76.0, 21440.262668164098, 16691.67926212302, 47221.21175780437, 29452.714854802474, 34323.29408208062, -564.3368440075927, 8721.896555649824, 82.70145448463613, 0.0, 0.0, 17505.70744344085, -10886.238323001662, 6751.1432470254, -2209.3581806848265, -26940.80346117061, -33614.40850668055, 0.058, -0.006, 1.032, 192.0, 0.0, 0.0, 0.0, 0.0, 0.0, 0.0, 0.0, 0.0, 0.0, 1.747687659045895E9, 0.0, 2025-05-19 22:47:39.045
78.0, 21440.28501990855, 16692.77449760133, 47222.77637991624, 29459.867413028172, 34344.304721868604, -530.7421720912662, 8756.675870022282, 75.81711719240155, 0.0, 0.0, 17515.676321467916, -10873.095497261942, 6754.652470904884, -2196.5953346008464, -26923.905542362398, -33606.920672288026, 0.058, -0.006, 1.032, 192.0, 0.0, 0.0, 0.0, 0.0, 0.0, 0.0, 0.0, 0.0, 0.0, 1.747687659053921E9, 0.0, 2025-05-19 22:47:39.053
80.0, 21437.558107085002, 16690.24875047788, 47219.62478394804, 29452.558392591287, 34324.56813151457, -528.4846459012801, 8719.01318061509, 81.56151551741547, 0.0, 0.0, 17504.2322283068, -10886.953578824232, 6763.995500087202, -2191.4320816316704, -26931.505135477204, -33593.688439570484, 0.058, -0.006, 1.032, 192.0, 0.0, 0.0, 0.0, 0.0, 0.0, 0.0, 0.0, 0.0, 0.0, 1.747687659061938E9, 0.0, 2025-05-19 22:47:39.061
82.0, 21446.85643277841, 16698.78711685981, 47225.88327239553, 29458.861584527684, 34322.44471579132, -550.165838022928, 8759.223968890186, 87.01534116451039, 0.0, 0.0, 17517.889144168992, -10876.492962419148, 6751.277357492132, -2210.185195229673, -26937.405996013404, -33623.10333527366, 0.058, -0.006, 1.032, 192.0, 0.0, 0.0, 0.0, 0.0, 0.0, 0.0, 0.0, 0.0, 0.0, 1.747687659071042E9, 0.0, 2025-05-19 22:47:39.071
84.0, 21443.72718855467, 16693.869733079642, 47228.63253696353, 29466.863509042683, 34339.856724722, -514.2242329387943, 8737.363962812897, 80.82390795039034, 0.0, 0.0, 17518.89497266948, -10875.285968218563, 6776.244256048711, -2178.0657384473966, -26914.09312654652, -33586.98291623389, 0.058, -0.01, 1.038, 192.0, 0.5, 104.0, 127.5, 88.0, 16.0, 56.0, 0.0, 0.0, 0.0, 1.747687659077959E9, 0.0, 2025-05-19 22:47:39.077
86.0, 21439.525060597072, 16690.762840600353, 47220.22828104834, 29456.87227927116, 34307.51375049517, -547.9306635773974, 8724.91404115129, 90.03282666597684, 0.0, 0.0, 17513.821126678125, -10879.353985709427, 6761.849732619493, -2203.7478928265446, -26939.350597781016, -33609.17819847801, 0.058, -0.01, 1.038, 192.0, 0.0, 0.0, 0.0, 0.0, 0.0, 0.0, 0.0, 0.0, 0.0, 1.747687659085973E9, 0.0, 2025-05-19 22:47:39.085
88.0, 21445.470624622183, 16700.619959905143, 47227.894929396505, 29470.462139899988, 34338.98500668824, -519.9909830082635, 8770.668062051303, 91.91037320022264, 0.0, 0.0, 17514.89401041198, -10871.664985616802, 6759.167523284856, -2191.253267676028, -26924.307873762595, -33601.84682629667, 0.058, -0.01, 1.038, 192.0, 0.0, 0.0, 0.0, 0.0, 0.0, 0.0, 0.0, 0.0, 0.0, 1.747687659094015E9, 0.0, 2025-05-19 22:47:39.094
90.0, 21432.66307504929, 16685.39842193108, 47212.04754257769, 29448.400968122598, 34319.02489888965, -526.2271197112942, 8711.77121541157, 91.08335865537629, 0.0, 0.0, 17507.428527763906, -10882.706747377724, 6768.622311189451, -2184.3018751504273, -26927.682987175347, -33586.5805848337, 0.058, -0.01, 1.038, 192.0, 0.0, 0.0, 0.0, 0.0, 0.0, 0.0, 0.0, 0.0, 0.0, 1.747687659101966E9, 0.0, 2025-05-19 22:47:39.101
92.0, 21448.801034546024, 16700.485849438413, 47226.151493328995, 29463.220174696467, 34329.977253672754, -550.6352246564895, 8753.121942653888, 97.72182675860248, 0.0, 0.0, 17510.200144076367, -10883.936093322765, 6746.225863245233, -2213.8508813203434, -26942.926876893864, -33625.09264053019, 0.058, -0.01, 1.038, 192.0, 0.0, 0.0, 0.0, 0.0, 0.0, 0.0, 0.0, 0.0, 0.0, 1.747687659110024E9, 0.0, 2025-05-19 22:47:39.110
94.0, 21442.72136005418, 16693.914436568553, 47225.525644484245, 29464.382465408144, 34342.94126545683, -508.1445584469508, 8733.005372644111, 85.83069870837912, 0.0, 0.0, 17523.499432027274, -10869.385107682361, 6780.468735750764, -2174.936494223654, -26914.80838236909, -33579.62919230809, 0.063, -0.007, 1.038, 192.0, 1.0, 16.0, 127.5, 112.0, 16.0, 56.0, 0.0, 0.0, 0.0, 1.747687659118051E9, 0.0, 2025-05-19 22:47:39.118
96.0, 21439.81563327499, 16690.5393231558, 47219.2448042923, 29449.250334411903, 34319.40487854539, -550.165838022928, 8727.39508478583, 84.42253880769478, 0.0, 0.0, 17517.41975753543, -10879.041061287053, 6763.257892520177, -2208.86644230681, -26946.57021124008, -33614.69907935847, 0.063, -0.007, 1.038, 192.0, 0.0, 0.0, 0.0, 0.0, 0.0, 0.0, 0.0, 0.0, 0.0, 1.747687659126085E9, 0.0, 2025-05-19 22:47:39.126
98.0, 21440.732054797656, 16691.947483056483, 47221.21175780437, 29453.944200747515, 34339.16382064388, -531.3456691915595, 8748.763352485103, 70.40799503421725, 0.0, 0.0, 17519.47611802532, -10879.331633964972, 6756.865293605959, -2203.2338027040723, -26934.500269234213, -33617.15777124855, 0.063, -0.007, 1.038, 192.0, 0.0, 0.0, 0.0, 0.0, 0.0, 0.0, 0.0, 0.0, 0.0, 1.747687659133087E9, 0.0, 2025-05-19 22:47:39.133
100.0, 21443.77189204358, 16691.701613867477, 47225.30212703969, 29450.92671524605, 34336.45925956479, -522.2932126871601, 8713.402892756807, 72.35259680182897, 0.0, 0.0, 17515.899838912468, -10886.148916023842, 6771.237465290722, -2192.6837793211675, -26932.24274304423, -33599.25402393985, 0.063, -0.007, 1.038, 192.0, 0.0, 0.0, 0.0, 0.0, 0.0, 0.0, 0.0, 0.0, 0.0, 1.747687659142148E9, 0.0, 2025-05-19 22:47:39.142
102.0, 21454.72424682668, 16705.090308796207, 47229.41484801946, 29459.465081627975, 34329.619625761465, -530.6080616245343, 8753.725439754182, 84.62370450779254, 0.0, 0.0, 17519.364359303043, -10879.778668854078, 6752.57375867054, -2213.2697359645053, -26944.469147261283, -33627.886608587105, 0.063, -0.007, 1.038, 192.0, 0.0, 0.0, 0.0, 0.0, 0.0, 0.0, 0.0, 0.0, 0.0, 1.74768765915017E9, 0.0, 2025-05-19 22:47:39.150
104.0, 21444.241278677142, 16697.82599184823, 47231.62767072054, 29466.41647415358, 34341.7566230007, -515.2300614392831, 8723.282363806053, 70.36329154530664, 0.0, 0.0, 17530.00378966377, -10864.847703557934, 6786.459003264786, -2172.1648779111956, -26912.059117801087, -33583.07136095421, 0.0625, -0.0045000000000000005, 1.036, 192.0, 0.5, 120.0, 127.5, 120.0, 16.0, 40.0, 0.0, 0.0, 0.0, 1.747687659158146E9, 0.0, 2025-05-19 22:47:39.158
106.0, 21449.404531646316, 16700.754070371877, 47227.000859618296, 29464.382465408144, 34319.02489888965, -540.48753267378, 8724.176433584265, 84.511945785516, 0.0, 0.0, 17518.917324413935, -10871.597930383436, 6767.236503033221, -2204.0608172489187, -26946.48080426226, -33610.541654889785, 0.0625, -0.0045000000000000005, 1.036, 192.0, 0.0, 0.0, 0.0, 0.0, 0.0, 0.0, 0.0, 0.0, 0.0, 1.747687659165224E9, 0.0, 2025-05-19 22:47:39.165
108.0, 21455.931241027265, 16707.191372775003, 47235.53922600022, 29477.234718469947, 34339.94613169982, -502.266049655205, 8766.421230604796, 88.44585280965005, 0.0, 0.0, 17524.728777972316, -10863.39484016834, 6769.695194923305, -2185.7547385400226, -26925.00077784071, -33598.04702973927, 0.0625, -0.0045000000000000005, 1.036, 192.0, 0.0, 0.0, 0.0, 0.0, 0.0, 0.0, 0.0, 0.0, 0.0, 1.747687659174237E9, 0.0, 2025-05-19 22:47:39.174
110.0, 21452.936107270256, 16706.25259950788, 47234.37693528854, 29469.813939310785, 34333.03944266313, -521.2203289533054, 8714.565183468483, 86.90358244223385, 0.0, 0.0, 17523.387673305, -10864.981814024666, 6788.761232943682, -2169.125040665274, -26916.887094603433, -33575.80704400624, 0.0625, -0.0045000000000000005, 1.036, 192.0, 0.0, 0.0, 0.0, 0.0, 0.0, 0.0, 0.0, 0.0, 0.0, 1.747687659182267E9, 0.0, 2025-05-19 22:47:39.182
112.0, 21457.47351139468, 16708.063090808762, 47233.125237599044, 29471.13269223365, 34329.95490192829, -533.2902709591712, 8748.651593762826, 82.74615797354674, 0.0, 0.0, 17527.299228584674, -10863.283081446061, 6766.2753780216435, -2197.2658869345055, -26933.829716900556, -33613.51443690234, 0.0625, -0.0045000000000000005, 1.036, 192.0, 0.0, 0.0, 0.0, 0.0, 0.0, 0.0, 0.0, 0.0, 0.0, 1.747687659189289E9, 0.0, 2025-05-19 22:47:39.189
114.0, 21449.516290368592, 16698.07186103724, 47230.264214308765, 29468.361075921188, 34343.90239046841, -517.5769946070903, 8742.907195437812, 78.56638176040433, 0.0, 0.0, 17525.66755123944, -10864.043040757542, 6785.654340464394, -2167.3592528533045, -26909.086335788532, -33577.14814867356, 0.06325, -0.00425, 1.0350000000000001, 192.0, 1.0, 0.0, 127.5, 112.0, 16.0, 40.0, 0.0, 0.0, 0.0, 1.747687659198263E9, 0.0, 2025-05-19 22:47:39.198
116.0, 21449.873918279878, 16696.976625558927, 47225.05625785068, 29457.006389737893, 34319.136657611925, -553.8538758580537, 8720.108416093399, 79.30398932742946, 0.0, 0.0, 17521.37601630402, -10874.861285073912, 6768.376442000443, -2198.9199160241983, -26937.42834775786, -33610.675765356515, 0.06325, -0.00425, 1.0350000000000001, 192.0, 0.0, 0.0, 0.0, 0.0, 0.0, 0.0, 0.0, 0.0, 0.0, 1.747687659206335E9, 0.0, 2025-05-19 22:47:39.206
118.0, 21452.176147958773, 16700.35173897168, 47231.87353990955, 29466.26001194239, 34346.15991665839, -536.8218465831097, 8758.39695434534, 78.1416986157535, 0.0, 0.0, 17521.197202348376, -10874.794229840545, 6760.799200630093, -2194.0695874773965, -26926.163068552385, -33610.76517233434, 0.06325, -0.00425, 1.0350000000000001, 192.0, 0.0, 0.0, 0.0, 0.0, 0.0, 0.0, 0.0, 0.0, 0.0, 1.747687659213369E9, 0.0, 2025-05-19 22:47:39.213
120.0, 21445.090644966444, 16694.517933668845, 47225.48094099533, 29458.72747406095, 34339.87907646645, -527.8587970565316, 8704.1045670634, 77.80642244892388, 0.0, 0.0, 17522.024216893224, -10874.570712395993, 6780.62519796195, -2179.0268634589747, -26920.731594649744, -33586.3794191336, 0.06325, -0.00425, 1.0350000000000001, 192.0, 0.0, 0.0, 0.0, 0.0, 0.0, 0.0, 0.0, 0.0, 0.0, 1.747687659221328E9, 0.0, 2025-05-19 22:47:39.221
122.0, 21453.24903169263, 16706.833744863718, 47231.85118816509, 29467.511709631886, 34328.54674202761, -536.5983291385567, 8757.301718867031, 86.4118440642171, 0.0, 0.0, 17520.861926181547, -10870.882674560866, 6757.938177339814, -2206.4077504167262, -26939.44000475884, -33619.683518372, 0.06325, -0.00425, 1.0350000000000001, 192.0, 0.0, 0.0, 0.0, 0.0, 0.0, 0.0, 0.0, 0.0, 0.0, 1.747687659230419E9, 0.0, 2025-05-19 22:47:39.230
124.0, 21444.375389143872, 16695.099079024683, 47227.02321136275, 29467.578764865255, 34335.989872931226, -495.13584317396203, 8730.63608773185, 75.21362009210827, 0.0, 0.0, 17523.164155860442, -10867.619319870391, 6782.905075896392, -2172.030767444464, -26916.462411458782, -33579.584488819186, 0.062625, -0.003125, 1.0355, 192.0, 0.5, 120.0, 127.5, 120.0, 16.0, 48.0, 0.0, 0.0, 0.0, 1.747687659238451E9, 0.0, 2025-05-19 22:47:39.238
126.0, 21442.52019435408, 16692.819201090242, 47225.68210669543, 29458.749825805407, 34313.70518370929, -533.9384715483751, 8722.053017861012, 80.33216957237359, 0.0, 0.0, 17511.384786532497, -10875.218912985196, 6761.603863430484, -2205.536032382969, -26947.397225784927, -33613.60384388016, 0.062625, -0.003125, 1.0355, 192.0, 0.0, 0.0, 0.0, 0.0, 0.0, 0.0, 0.0, 0.0, 0.0, 1.747687659245494E9, 0.0, 2025-05-19 22:47:39.245
128.0, 21443.011932732097, 16696.708404625464, 47225.63740320652, 29465.388293908632, 34331.25130310671, -528.909329045931, 8742.214291359698, 68.95513164462228, 0.0, 0.0, 17518.380882547008, -10867.954596037222, 6761.894436108403, -2188.951037997131, -26925.134888307442, -33603.210282708445, 0.062625, -0.003125, 1.0355, 192.0, 0.0, 0.0, 0.0, 0.0, 0.0, 0.0, 0.0, 0.0, 0.0, 1.747687659253554E9, 0.0, 2025-05-19 22:47:39.253
130.0, 21442.453139120717, 16696.328424969724, 47228.76664743026, 29461.364979906677, 34325.19398035932, -521.041514997663, 8715.0569218465, 86.68006499768079, 0.0, 0.0, 17509.820164420624, -10882.371471210894, 6769.158753056378, -2184.6595030617123, -26930.544010465626, -33589.93334650199, 0.062625, -0.003125, 1.0355, 192.0, 0.0, 0.0, 0.0, 0.0, 0.0, 0.0, 0.0, 0.0, 0.0, 1.747687659262563E9, 0.0, 2025-05-19 22:47:39.262
132.0, 21464.11197949791, 16716.534401957324, 47245.083420882635, 29480.565128393788, 34333.62058801897, -526.0036022667412, 8765.705974782226, 100.18051864868626, 0.0, 0.0, 17531.389597819998, -10863.48424714616, 6763.347299497998, -2191.700302565134, -26924.687853418334, -33606.004250765356, 0.062625, -0.003125, 1.0355, 192.0, 0.0, 0.0, 0.0, 0.0, 0.0, 0.0, 0.0, 0.0, 0.0, 1.747687659269596E9, 0.0, 2025-05-19 22:47:39.269
134.0, 21446.610563589402, 16698.898875582086, 47230.420676519956, 29467.511709631886, 34348.39509110393, -510.71500905931106, 8731.999544143622, 81.51681202850486, 0.0, 0.0, 17526.695731484382, -10863.528950635071, 6781.653378206895, -2160.676081261168, -26905.107725275484, -33571.806081748735, 0.060312500000000005, -5.625000000000001E-4, 1.0317500000000002, 192.0, 0.5, 104.0, 0.0, 8.0, 16.0, 16.0, 0.0, 0.0, 0.0, 1.747687659279622E9, 0.0, 2025-05-19 22:47:39.279
136.0, 21452.019685747586, 16704.576218673734, 47230.3983247755, 29459.621543839163, 34320.9024454239, -542.6780036304002, 8739.733247725158, 93.09501565635392, 0.0, 0.0, 17515.631617979005, -10879.577503153982, 6760.799200630093, -2197.1317764677738, -26938.501231491715, -33608.17236997752, 0.060312500000000005, -5.625000000000001E-4, 1.0317500000000002, 192.0, 0.0, 0.0, 0.0, 0.0, 0.0, 0.0, 0.0, 0.0, 0.0, 1.747687659285634E9, 0.0, 2025-05-19 22:47:39.285
138.0, 21461.474473652182, 16713.583971689222, 47243.38468830403, 29479.91692780458, 34357.89458249743, -485.68105526936716, 8751.154989141822, 84.10961438532048, 0.0, 0.0, 17529.847327452582, -10861.852569800922, 6771.393927501908, -2177.23872390255, -26913.601388168503, -33594.58250934869, 0.060312500000000005, -5.625000000000001E-4, 1.0317500000000002, 192.0, 0.0, 0.0, 0.0, 0.0, 0.0, 0.0, 0.0, 0.0, 0.0, 1.747687659294701E9, 0.0, 2025-05-19 22:47:39.294
140.0, 21456.53473812756, 16707.817221619753, 47234.08636261062, 29468.361075921188, 34347.43396609234, -514.5818608500792, 8707.367921753874, 81.673274239692, 0.0, 0.0, 17525.958123917357, -10866.412325669806, 6786.704872453794, -2167.672177275679, -26914.47310620226, -33574.331828872186, 0.060312500000000005, -5.625000000000001E-4, 1.0317500000000002, 192.0, 0.0, 0.0, 0.0, 0.0, 0.0, 0.0, 0.0, 0.0, 0.0, 1.747687659301707E9, 0.0, 2025-05-19 22:47:39.301
142.0, 21465.788360332055, 16716.377939746137, 47239.897816169, 29470.797416066816, 34336.79453573162, -533.5361401481796, 8743.130712882366, 85.62953300828136, 0.0, 0.0, 17526.65102799547, -10863.216026212696, 6764.733107654227, -2195.9471340116424, -26930.923990121366, -33611.50277990136, 0.060312500000000005, -5.625000000000001E-4, 1.0317500000000002, 192.0, 0.0, 0.0, 0.0, 0.0, 0.0, 0.0, 0.0, 0.0, 0.0, 1.747687659309741E9, 0.0, 2025-05-19 22:47:39.309
144.0, 21447.795206045535, 16695.903741825074, 47227.31378404066, 29459.64389558362, 34346.964579458785, -513.4195701384032, 8729.384390042353, 72.97844564657755, 0.0, 0.0, 17520.794870948183, -10874.995395540644, 6778.211209560777, -2170.9355319661536, -26915.054251558096, -33584.61363132163, 0.05815625000000001, 0.00171875, 1.033875, 192.0, 0.5, 96.0, 0.0, 16.0, 16.0, 48.0, 0.0, 0.0, 0.0, 1.747687659317772E9, 0.0, 2025-05-19 22:47:39.317
146.0, 21450.52211886908, 16698.697709881988, 47226.75499042928, 29450.92671524605, 34319.918968667866, -516.4370556398696, 8728.40091328632, 90.01047492152153, 0.0, 0.0, 17510.535420243195, -10884.204314256229, 6757.133514539423, -2200.730407325078, -26941.42931001536, -33612.88858805759, 0.05815625000000001, 0.00171875, 1.033875, 192.0, 0.0, 0.0, 0.0, 0.0, 0.0, 0.0, 0.0, 0.0, 0.0, 1.747687659325872E9, 0.0, 2025-05-19 22:47:39.325
148.0, 21458.97107827319, 16706.49846869689, 47237.01444113427, 29471.98205852295, 34339.901428210906, -519.1863202078724, 8767.315300383008, 91.41863482220589, 0.0, 0.0, 17525.689902983893, -10871.262654216607, 6764.464886720763, -2182.2231629160838, -26919.61400742698, -33597.80116055026, 0.05815625000000001, 0.00171875, 1.033875, 192.0, 0.0, 0.0, 0.0, 0.0, 0.0, 0.0, 0.0, 0.0, 0.0, 1.747687659333847E9, 0.0, 2025-05-19 22:47:39.333
150.0, 21444.129519954866, 16693.690919123997, 47218.97658335884, 29458.63806708313, 34321.103611123996, -528.1717214789059, 8715.571011968972, 91.39628307775058, 0.0, 0.0, 17516.279818568208, -10875.15185775183, 6779.932293883836, -2174.0424244454416, -26923.99494934022, -33579.69624754146, 0.05815625000000001, 0.00171875, 1.033875, 192.0, 0.0, 0.0, 0.0, 0.0, 0.0, 0.0, 0.0, 0.0, 0.0, 1.747687659341882E9, 0.0, 2025-05-19 22:47:39.341
152.0, 21462.212081219208, 16711.50525945488, 47238.377897546045, 29474.82073006877, 34319.293119823116, -540.2193117403164, 8758.0169746896, 98.414730836717, 0.0, 0.0, 17516.99507439078, -10870.748564094134, 6757.558197684074, -2202.049160247941, -26945.117347850486, -33614.69907935847, 0.05815625000000001, 0.00171875, 1.033875, 192.0, 0.0, 0.0, 0.0, 0.0, 0.0, 0.0, 0.0, 0.0, 0.0, 1.747687659350895E9, 0.0, 2025-05-19 22:47:39.350
154.0, 21446.38704614485, 16699.658834893566, 47233.52756899924, 29469.277497443858, 34349.53503007114, -505.7976252791435, 8737.900404679824, 85.093091141354, 0.0, 0.0, 17526.51691752874, -10864.57948262447, 6785.944913142313, -2159.893770205232, -26903.297233974605, -33572.74485501586, 0.059078125, -1.4062500000000002E-4, 1.0319375000000002, 192.0, 0.5, 112.0, 127.5, 120.0, 16.0, 24.0, 0.0, 0.0, 0.0, 1.747687659356925E9, 0.0, 2025-05-19 22:47:39.356
156.0, 21451.95263051422, 16700.77642211633, 47228.99016487481, 29458.83923278323, 34321.997680902205, -537.4476954278583, 8722.410645772296, 100.06875992640973, 0.0, 0.0, 17516.145708101478, -10877.7670118531, 6766.677709421839, -2193.3319799103715, -26933.315626778083, -33605.713678087435, 0.059078125, -1.4062500000000002E-4, 1.0319375000000002, 192.0, 0.0, 0.0, 0.0, 0.0, 0.0, 0.0, 0.0, 0.0, 0.0, 1.74768765936594E9, 0.0, 2025-05-19 22:47:39.365
158.0, 21451.259726436107, 16699.457669193467, 47233.840493421616, 29469.411607910588, 34339.38733808843, -514.7159713168111, 8760.676832279782, 90.59162027735952, 0.0, 0.0, 17519.05143488067, -10873.453125173226, 6761.134476796923, -2184.033654216964, -26919.748117893712, -33601.22097745192, 0.059078125, -1.4062500000000002E-4, 1.0319375000000002, 192.0, 0.0, 0.0, 0.0, 0.0, 0.0, 0.0, 0.0, 0.0, 0.0, 1.747687659373967E9, 0.0, 2025-05-19 22:47:39.373
160.0, 21440.955572242212, 16685.420773675534, 47227.6490602075, 29452.983075735938, 34338.96265494378, -525.265994699716, 8707.747901409615, 89.18346037667519, 0.0, 0.0, 17514.156402844954, -10883.936093322765, 6776.378366515442, -2172.924837222676, -26917.42353647036, -33581.88671849808, 0.059078125, -1.4062500000000002E-4, 1.0319375000000002, 192.0, 0.0, 0.0, 0.0, 0.0, 0.0, 0.0, 0.0, 0.0, 0.0, 1.747687659382008E9, 0.0, 2025-05-19 22:47:39.382
162.0, 21455.61831660489, 16698.384785459613, 47236.701516711895, 29462.571974107264, 34342.94126545683, -549.8305618560985, 8763.44844859224, 94.92785870168909, 0.0, 0.0, 17514.37992028951, -10885.500715434637, 6749.802142358082, -2202.272677692494, -26933.069757589074, -33620.80110559477, 0.059078125, -1.4062500000000002E-4, 1.0319375000000002, 192.0, 0.0, 0.0, 0.0, 0.0, 0.0, 0.0, 0.0, 0.0, 0.0, 1.747687659390033E9, 0.0, 2025-05-19 22:47:39.390
164.0, 21448.219889190186, 16693.266235979347, 47232.655850965486, 29464.516575874877, 34356.77699527467, -513.330163160582, 8755.580634543972, 85.80834696392381, 0.0, 0.0, 17526.159289617455, -10878.661081631313, 6777.093622338012, -2167.0016249420196, -26905.66651888687, -33580.79148301977, 0.0575390625, 9.296875E-4, 1.03096875, 192.0, 0.5, 96.0, 0.0, 8.0, 16.0, 24.0, 0.0, 0.0, 0.0, 1.747687659398067E9, 0.0, 2025-05-19 22:47:39.398
166.0, 21448.599868845926, 16693.73562261291, 47227.31378404066, 29453.899497258604, 34336.347500842516, -540.2416634847717, 8728.624430730872, 88.75877723202434, 0.0, 0.0, 17515.788080190192, -10886.953578824232, 6760.016889574157, -2198.8528607908324, -26935.729615179258, -33609.66993685603, 0.0575390625, 9.296875E-4, 1.03096875, 192.0, 0.0, 0.0, 0.0, 0.0, 0.0, 0.0, 0.0, 0.0, 0.0, 1.747687659405117E9, 0.0, 2025-05-19 22:47:39.405
168.0, 21444.867127521888, 16689.44408767749, 47230.73360094233, 29460.4038548951, 34351.300817883115, -526.942375533864, 8765.124829426388, 76.48766952606077, 0.0, 0.0, 17518.9843796473, -10881.008014799121, 6757.848770361993, -2187.319360651894, -26917.401184725906, -33607.61357636614, 0.0575390625, 9.296875E-4, 1.03096875, 192.0, 0.0, 0.0, 0.0, 0.0, 0.0, 0.0, 0.0, 0.0, 0.0, 1.747687659413159E9, 0.0, 2025-05-19 22:47:39.413
170.0, 21426.49399357963, 16677.888235794097, 47212.382818744525, 29445.62935181014, 34326.51273328218, -529.1551982349393, 8712.084139833945, 79.37104456079538, 0.0, 0.0, 17501.17003931642, -10896.9224568513, 6762.900264608892, -2182.7819565274667, -26924.643149929423, -33593.46492212593, 0.0575390625, 9.296875E-4, 1.03096875, 192.0, 0.0, 0.0, 0.0, 0.0, 0.0, 0.0, 0.0, 0.0, 0.0, 1.747687659422159E9, 0.0, 2025-05-19 22:47:39.422
172.0, 21447.68344732326, 16700.59760816069, 47222.798731660696, 29462.01318049588, 34319.494285523215, -539.7052216178444, 8753.412515331807, 93.89967845674497, 0.0, 0.0, 17501.97470211681, -10888.96523582521, 6741.308479465066, -2213.4932534090585, -26950.48176651976, -33627.037242297796, 0.0575390625, 9.296875E-4, 1.03096875, 192.0, 0.0, 0.0, 0.0, 0.0, 0.0, 0.0, 0.0, 0.0, 0.0, 1.747687659430182E9, 0.0, 2025-05-19 22:47:39.430
174.0, 21442.251973420618, 16697.624826148134, 47218.97658335884, 29465.79062530883, 34334.313492097084, -483.53528780165766, 8740.426151803274, 89.2505156100411, 0.0, 0.0, 17512.211801077345, -10872.96138679521, 6774.813744403571, -2171.315511621894, -26919.256379515697, -33578.46690159642, 0.05976953125, 0.00246484375, 1.0324843750000001, 192.0, 0.5, 120.0, 0.0, 16.0, 16.0, 40.0, 0.0, 0.0, 0.0, 1.747687659437238E9, 0.0, 2025-05-19 22:47:39.437
176.0, 21442.05080772052, 16699.904704082575, 47220.764722915264, 29460.44855838401, 34302.574014970545, -534.8995965599534, 8730.278459820564, 100.80636749343485, 0.0, 0.0, 17496.27500728071, -10886.350081723938, 6752.640813903906, -2202.0938637368517, -26948.961847896797, -33608.26177695534, 0.05976953125, 0.00246484375, 1.0324843750000001, 192.0, 0.0, 0.0, 0.0, 0.0, 0.0, 0.0, 0.0, 0.0, 0.0, 1.747687659445248E9, 0.0, 2025-05-19 22:47:39.445
178.0, 21451.706761325215, 16709.15832628707, 47236.008612633785, 29478.709933603997, 34332.637111262935, -497.34866587503745, 8764.230759648175, 97.36419884731757, 0.0, 0.0, 17515.005769134255, -10862.813694812501, 6763.190837286811, -2177.596351813835, -26916.820039370068, -33591.520320358315, 0.05976953125, 0.00246484375, 1.0324843750000001, 192.0, 0.0, 0.0, 0.0, 0.0, 0.0, 0.0, 0.0, 0.0, 0.0, 1.74768765945428E9, 0.0, 2025-05-19 22:47:39.454
180.0, 21443.548374599028, 16694.696747624486, 47226.084438095626, 29465.611811353185, 34325.19398035932, -509.30684915862673, 8707.43497698724, 98.30297211444046, 0.0, 0.0, 17504.27693179571, -10879.91277932081, 6771.952721113292, -2171.360215110805, -26920.50807720519, -33577.14814867356, 0.05976953125, 0.00246484375, 1.0324843750000001, 192.0, 0.0, 0.0, 0.0, 0.0, 0.0, 0.0, 0.0, 0.0, 0.0, 1.747687659461306E9, 0.0, 2025-05-19 22:47:39.461
182.0, 21460.267479451595, 16711.996997832895, 47244.72579297135, 29479.849872571216, 34327.47385829376, -524.8413115550651, 8781.441602878762, 109.21062340863031, 0.0, 0.0, 17516.682149968405, -10868.133409992864, 6758.76519188466, -2187.9452094966423, -26925.00077784071, -33603.16557921953, 0.05976953125, 0.00246484375, 1.0324843750000001, 192.0, 0.0, 0.0, 0.0, 0.0, 0.0, 0.0, 0.0, 0.0, 0.0, 1.747687659469398E9, 0.0, 2025-05-19 22:47:39.469
184.0, 21451.684409580757, 16701.692843638997, 47235.31570855567, 29472.429093412054, 34353.670102795375, -500.2543926542274, 8738.436846546752, 86.27773359748527, 0.0, 0.0, 17521.174850603922, -10864.065392501998, 6780.669901450861, -2155.6022352698133, -26900.100934517497, -33569.9732387034, 0.061884765625000004, 2.32421875E-4, 1.0332421875, 192.0, 1.0, 0.0, 127.5, 120.0, 16.0, 40.0, 0.0, 0.0, 0.0, 1.74768765947738E9, 0.0, 2025-05-19 22:47:39.477
186.0, 21453.38314215936, 16701.089346538705, 47238.06497312367, 29468.674000343563, 34334.33584384154, -516.5041108732356, 8728.959706897702, 104.58381230638174, 0.0, 0.0, 17513.9328854004, -10876.425907185783, 6763.257892520177, -2187.185250185162, -26928.688815675836, -33598.78463730629, 0.061884765625000004, 2.32421875E-4, 1.0332421875, 192.0, 0.0, 0.0, 0.0, 0.0, 0.0, 0.0, 0.0, 0.0, 0.0, 1.747687659486406E9, 0.0, 2025-05-19 22:47:39.486
188.0, 21452.310258425507, 16700.932884327518, 47234.600452733095, 29472.02676201186, 34345.98110270275, -503.18247117787257, 8772.903236496835, 96.22425988009691, 0.0, 0.0, 17521.107795370557, -10867.172284981285, 6762.095601808501, -2173.8412587453436, -26913.176705023852, -33590.08980871318, 0.061884765625000004, 2.32421875E-4, 1.0332421875, 192.0, 0.0, 0.0, 0.0, 0.0, 0.0, 0.0, 0.0, 0.0, 0.0, 1.747687659493437E9, 0.0, 2025-05-19 22:47:39.493
190.0, 21438.00514197411, 16685.890160309096, 47217.56842345816, 29451.664322813074, 34329.5525705281, -520.6391835974674, 8722.812977172493, 89.78695747696847, 0.0, 0.0, 17502.913475383935, -10888.451145702738, 6765.269549521155, -2181.485555349059, -26935.371987267972, -33586.625288322604, 0.061884765625000004, 2.32421875E-4, 1.0332421875, 192.0, 0.0, 0.0, 0.0, 0.0, 0.0, 0.0, 0.0, 0.0, 0.0, 1.747687659501471E9, 0.0, 2025-05-19 22:47:39.501
192.0, 21455.327743926973, 16701.089346538705, 47238.33319405714, 29465.254183441903, 34343.0083206902, -535.458390171336, 8742.795436715536, 92.4244633226947, 0.0, 0.0, 17513.75407144476, -10883.377299711383, 6749.735087124716, -2204.373741671293, -26939.171783825375, -33621.20343699496, 0.061884765625000004, 2.32421875E-4, 1.0332421875, 192.0, 0.0, 0.0, 0.0, 0.0, 0.0, 0.0, 0.0, 0.0, 0.0, 1.747687659510499E9, 0.0, 2025-05-19 22:47:39.510
194.0, 21446.63291533386, 16690.69578536699, 47230.264214308765, 29460.716779317474, 34358.45337610881, -514.3583434055262, 8732.021895888078, 77.62760849328143, 0.0, 0.0, 17520.41489129244, -10876.87294207489, 6775.797221159604, -2169.2591511320056, -26910.04746080011, -33584.56892783272, 0.0599423828125, -0.0018837890625, 1.03262109375, 192.0, 0.5, 104.0, 127.5, 112.0, 16.0, 32.0, 0.0, 0.0, 0.0, 1.747687659518519E9, 0.0, 2025-05-19 22:47:39.518
196.0, 21451.371485158383, 16695.546113913788, 47234.533397499734, 29460.247392683912, 34324.76929721466, -538.0511925281517, 8719.460215504196, 93.13971914526454, 0.0, 0.0, 17507.56263823064, -10888.920532336298, 6758.161694784367, -2198.0705497348968, -26940.37877802596, -33612.910939802045, 0.0599423828125, -0.0018837890625, 1.03262109375, 192.0, 0.0, 0.0, 0.0, 0.0, 0.0, 0.0, 0.0, 0.0, 0.0, 1.747687659525561E9, 0.0, 2025-05-19 22:47:39.525
198.0, 21450.67858108027, 16696.842515092198, 47237.461476023374, 29473.36786667918, 34335.31932059757, -518.6275265964898, 8764.275463137086, 93.85497496783435, 0.0, 0.0, 17519.565525003138, -10866.971119281188, 6763.771982642649, -2174.310645378905, -26915.18836202483, -33593.129645959096, 0.0599423828125, -0.0018837890625, 1.03262109375, 192.0, 0.0, 0.0, 0.0, 0.0, 0.0, 0.0, 0.0, 0.0, 0.0, 1.747687659533577E9, 0.0, 2025-05-19 22:47:39.533
200.0, 21441.9614007427, 16691.366337700645, 47232.20881607638, 29465.142424719626, 34333.397070574414, -493.0794826840738, 8706.71972116467, 89.67519875469193, 0.0, 0.0, 17509.55194348716, -10878.549322909037, 6775.1490205704, -2166.9569214531093, -26915.52363819166, -33576.34348587316, 0.0599423828125, -0.0018837890625, 1.03262109375, 192.0, 0.0, 0.0, 0.0, 0.0, 0.0, 0.0, 0.0, 0.0, 0.0, 1.747687659541593E9, 0.0, 2025-05-19 22:47:39.541
202.0, 21455.30539218252, 16703.793907617797, 47236.276833567244, 29471.177395722556, 34328.367928071966, -533.8937680594645, 8751.534968797561, 102.72861751659126, 0.0, 0.0, 17507.249713808265, -10877.34232870845, 6749.779790613627, -2194.9413055111536, -26933.159164566896, -33609.11114324464, 0.0599423828125, -0.0018837890625, 1.03262109375, 192.0, 0.0, 0.0, 0.0, 0.0, 0.0, 0.0, 0.0, 0.0, 0.0, 1.747687659549594E9, 0.0, 2025-05-19 22:47:39.549
204.0, 21453.092569481443, 16697.513067425858, 47230.15245558649, 29471.043285255826, 34339.92377995537, -502.3554566330262, 8749.612718774404, 96.96186744712203, 0.0, 0.0, 17513.79877493367, -10865.607662869414, 6777.160677571378, -2157.770354481978, -26903.453696185792, -33568.58743054717, 0.056971191406249996, -0.00494189453125, 1.034310546875, 192.0, 0.5, 88.0, 127.5, 96.0, 16.0, 48.0, 0.0, 0.0, 0.0, 1.747687659558658E9, 0.0, 2025-05-19 22:47:39.558
206.0, 21455.81948230499, 16703.168058773048, 47231.00182187579, 29461.16381420658, 34318.019070389164, -526.1600644779282, 8718.767311426082, 101.5886785493706, 0.0, 0.0, 17501.281798038697, -10879.577503153982, 6758.966357584758, -2194.4272153886814, -26939.060025103096, -33603.14322747508, 0.056971191406249996, -0.00494189453125, 1.034310546875, 192.0, 0.0, 0.0, 0.0, 0.0, 0.0, 0.0, 0.0, 0.0, 0.0, 1.747687659565697E9, 0.0, 2025-05-19 22:47:39.565
208.0, 21459.507520140116, 16711.54996294379, 47241.3506795586, 29473.323163190267, 34345.46701258028, -504.52357584519103, 8764.856608492924, 94.10084415684274, 0.0, 0.0, 17520.683112225906, -10867.954596037222, 6764.24136927621, -2182.089052449352, -26920.798649883112, -33599.81281755124, 0.056971191406249996, -0.00494189453125, 1.034310546875, 192.0, 0.0, 0.0, 0.0, 0.0, 0.0, 0.0, 0.0, 0.0, 0.0, 1.747687659573716E9, 0.0, 2025-05-19 22:47:39.573
210.0, 21453.20432820372, 16703.50333493988, 47231.69472595391, 29463.756616563394, 34335.81105897559, -503.7636165337106, 8705.110395563888, 96.15720464673099, 0.0, 0.0, 17519.85609768106, -10876.314148463505, 6780.736956684227, -2169.1920958986398, -26915.38952772493, -33580.43385510849, 0.056971191406249996, -0.00494189453125, 1.034310546875, 192.0, 0.0, 0.0, 0.0, 0.0, 0.0, 0.0, 0.0, 0.0, 0.0, 1.747687659581752E9, 0.0, 2025-05-19 22:47:39.581
212.0, 21463.419075419795, 16711.147631543594, 47240.65777548048, 29473.569032379277, 34332.68181475184, -518.5157678742132, 8752.1161141534, 107.31072512992921, 0.0, 0.0, 17520.392539547986, -10871.91085480581, 6759.882779107425, -2195.343636911349, -26932.980350611255, -33611.18985547899, 0.056971191406249996, -0.00494189453125, 1.034310546875, 192.0, 0.0, 0.0, 0.0, 0.0, 0.0, 0.0, 0.0, 0.0, 0.0, 1.747687659589707E9, 0.0, 2025-05-19 22:47:39.589
214.0, 21454.18780495975, 16702.117526783648, 47231.33709804262, 29473.189052723534, 34347.81394574809, -480.89778195593146, 8728.557375497505, 91.95507668913325, 0.0, 0.0, 17519.02908313621, -10867.239340214652, 6779.127631083445, -2159.0667556603858, -26906.13590552043, -33571.35904685963, 0.056971191406249996, -0.00494189453125, 1.034310546875, 192.0, 0.0, 0.0, 0.0, 0.0, 0.0, 0.0, 0.0, 0.0, 0.0, 1.747687659597782E9, 0.0, 2025-05-19 22:47:39.597
216.0, 21457.406456161316, 16704.911494840562, 47234.84632192211, 29470.015105010883, 34326.98211991574, -531.0103930247299, 8736.760465712603, 107.44483559666105, 0.0, 0.0, 17504.008710862247, -10879.979834554177, 6759.458095962775, -2190.4709566200922, -26937.785975669143, -33600.66218384054, 0.052000000000000005, -0.01, 1.03, 192.0, 0.5, 80.0, 127.5, 88.0, 16.0, 24.0, 0.0, 0.0, 0.0, 1.747687659605862E9, 0.0, 2025-05-19 22:47:39.605
218.0, 21451.52794736957, 16698.36243371516, 47236.67916496744, 29471.93735503404, 34338.49326831022, -522.2932126871601, 8773.21616091921, 92.67033251170308, 0.0, 0.0, 17519.05143488067, -10864.981814024666, 6764.2190175317555, -2171.740194766545, -26913.33316723504, -33592.25792792534, 0.052000000000000005, -0.01, 1.03, 192.0, 0.0, 0.0, 0.0, 0.0, 0.0, 0.0, 0.0, 0.0, 0.0, 1.747687659613895E9, 0.0, 2025-05-19 22:47:39.613
220.0, 21461.45212190773, 16703.816259362255, 47226.77734217374, 29455.173546692557, 34338.53797179913, -523.9248900323976, 8707.837308387436, 84.95898067462214, 0.0, 0.0, 17507.093251597078, -10885.120735778897, 6769.985767601224, -2171.673139533179, -26922.027995828154, -33585.865329011125, 0.052000000000000005, -0.01, 1.03, 192.0, 0.0, 0.0, 0.0, 0.0, 0.0, 0.0, 0.0, 0.0, 0.0, 1.747687659620882E9, 0.0, 2025-05-19 22:47:39.620
222.0, 21453.494900881637, 16704.30799774027, 47235.74039170032, 29470.909174789093, 34327.16093387138, -533.6031953815456, 8758.665175278804, 97.07362616939858, 0.0, 0.0, 17513.351740044563, -10876.694128119247, 6753.2443110041995, -2199.5234131244915, -26937.58480996905, -33619.839980583194, 0.052000000000000005, -0.01, 1.03, 192.0, 0.0, 0.0, 0.0, 0.0, 0.0, 0.0, 0.0, 0.0, 0.0, 1.747687659629868E9, 0.0, 2025-05-19 22:47:39.629
224.0, 21447.19170894524, 16697.893047081598, 47236.701516711895, 29473.97136377947, 34356.821698763575, -483.15530814591745, 8732.759503455103, 85.56247777491544, 0.0, 0.0, 17515.60926623455, -10869.295700704539, 6776.400718259897, -2159.580845782858, -26904.817152597567, -33575.82939575069, 0.052000000000000005, -0.01, 1.03, 192.0, 0.0, 0.0, 0.0, 0.0, 0.0, 0.0, 0.0, 0.0, 0.0, 1.747687659639905E9, 0.0, 2025-05-19 22:47:39.639
226.0, 21431.43372910425, 16687.186561487506, 47222.91049038297, 29460.895593273115, 34314.44279127631, -519.9909830082635, 8715.928639880258, 93.09501565635392, 0.0, 0.0, 17501.706481183348, -10882.326767721983, 6757.222921517244, -2195.343636911349, -26940.445833259328, -33605.82543680971, 0.058, 0.0, 1.024, 192.0, 0.5, 104.0, 0.0, 0.0, 16.0, 0.0, 0.0, 0.0, 0.0, 1.747687659645911E9, 0.0, 2025-05-19 22:47:39.645
228.0, 21436.99931347362, 16696.82016334774, 47238.44495277941, 29487.225948241467, 34338.13564039894, -487.6927122703448, 8761.459143335718, 100.58285004888178, 0.0, 0.0, 17510.758937687748, -10862.76899132359, 6761.313290752565, -2177.7751657694776, -26922.363271994982, -33592.03441048079, 0.058, 0.0, 1.024, 192.0, 0.0, 0.0, 0.0, 0.0, 0.0, 0.0, 0.0, 0.0, 0.0, 1.747687659653933E9, 0.0, 2025-05-19 22:47:39.653
230.0, 21412.77002248407, 16676.435372404503, 47221.949365371394, 29471.155043978102, 34316.43209653284, -490.5313838161688, 8724.623468473372, 100.22522213759687, 0.0, 0.0, 17501.61707420553, -10867.954596037222, 6776.57953221554, -2162.1289446507626, -26920.9551120943, -33568.676837524996, 0.058, 0.0, 1.024, 192.0, 0.0, 0.0, 0.0, 0.0, 0.0, 0.0, 0.0, 0.0, 0.0, 1.747687659661965E9, 0.0, 2025-05-19 22:47:39.661
232.0, 21422.38127259985, 16690.5393231558, 47240.23309233583, 29490.176378509568, 34311.69352670831, -491.8054332501213, 8759.49218982365, 112.026943209999, 0.0, 0.0, 17499.717175926828, -10863.417191912795, 6752.685517392817, -2187.632285074268, -26933.628551200458, -33602.07034374122, 0.058, 0.0, 1.024, 192.0, 0.0, 0.0, 0.0, 0.0, 0.0, 0.0, 0.0, 0.0, 0.0, 1.747687659669983E9, 0.0, 2025-05-19 22:47:39.669
234.0, 21418.24619987562, 16688.550017899277, 47240.9483481584, 29492.590366910743, 34327.943244927315, -473.20878186330583, 8756.45235257773, 102.37098960530635, 0.0, 0.0, 17509.75310918726, -10850.542587106536, 6782.547447985107, -2139.3972205397154, -26894.35653619248, -33553.50000303984, 0.058, 0.0, 1.024, 192.0, 0.0, 0.0, 0.0, 0.0, 0.0, 0.0, 0.0, 0.0, 0.0, 1.747687659677014E9, 0.0, 2025-05-19 22:47:39.677
236.0, 21420.839002232435, 16686.247788220382, 47228.096095096604, 29472.451445156512, 34298.304831779584, -507.6304683244787, 8733.944145911235, 108.18244316368619, 0.0, 0.0, 17499.94069337138, -10865.562959380504, 6764.643700676406, -2179.228029159073, -26933.29327503363, -33592.41439013653, 0.056, 0.0, 1.024, 192.0, 0.5, 96.0, 0.0, 0.0, 16.0, 0.0, 0.0, 0.0, 0.0, 1.747687659685992E9, 0.0, 2025-05-19 22:47:39.685
238.0, 21422.224810388663, 16685.934863798007, 47223.692801438905, 29477.525291147864, 34317.102648866494, -489.05616868211854, 8785.107288969433, 96.78305349147958, 0.0, 0.0, 17503.964007373335, -10862.545473879038, 6760.486276207719, -2177.57400006938, -26924.553742951604, -33594.962489004436, 0.056, 0.0, 1.024, 192.0, 0.0, 0.0, 0.0, 0.0, 0.0, 0.0, 0.0, 0.0, 0.0, 1.747687659694077E9, 0.0, 2025-05-19 22:47:39.694
240.0, 21422.96241795569, 16685.35371844217, 47225.30212703969, 29466.908212531594, 34323.048212891605, -481.54598254513536, 8713.872279390369, 91.50804180002712, 0.0, 0.0, 17493.436335734885, -10876.269444974596, 6768.689366422816, -2173.9083139787094, -26929.292312776128, -33581.663201053525, 0.056, 0.0, 1.024, 192.0, 0.0, 0.0, 0.0, 0.0, 0.0, 0.0, 0.0, 0.0, 0.0, 1.747687659702167E9, 0.0, 2025-05-19 22:47:39.702
242.0, 21434.42886286126, 16700.21762850495, 47231.71707769836, 29473.949012035016, 34322.154143113396, -491.6489710389342, 8749.612718774404, 94.74904474604664, 0.0, 0.0, 17503.315806784132, -10869.094535004442, 6753.914863337858, -2199.635171846768, -26940.825812915067, -33616.777791592816, 0.056, 0.0, 1.024, 192.0, 0.0, 0.0, 0.0, 0.0, 0.0, 0.0, 0.0, 0.0, 0.0, 1.747687659709109E9, 0.0, 2025-05-19 22:47:39.709
244.0, 21417.57564754196, 16691.25457897837, 47222.575214216144, 29472.004410267404, 34323.338785569525, -485.01050293570796, 8741.141407625844, 83.12613762928697, 0.0, 0.0, 17502.89112363948, -10866.85936055891, 6774.746689170205, -2169.482668576559, -26920.441021971827, -33581.19381441997, 0.056, 0.0, 1.024, 192.0, 0.0, 0.0, 0.0, 0.0, 0.0, 0.0, 0.0, 0.0, 0.0, 1.747687659718157E9, 0.0, 2025-05-19 22:47:39.718
246.0, 21431.366673870885, 16700.30703548277, 47234.756914944286, 29470.350381177712, 34310.464180763265, -490.2631628827051, 8717.739131181137, 102.99683845005495, 0.0, 0.0, 17500.164210815932, -10872.424944928283, 6764.129610553934, -2200.0375032469638, -26952.42636828737, -33608.26177695534, 0.052000000000000005, -0.002, 1.026, 192.0, 0.5, 80.0, 127.5, 120.0, 16.0, 8.0, 0.0, 0.0, 0.0, 1.747687659725138E9, 0.0, 2025-05-19 22:47:39.725
248.0, 21447.929316512265, 16713.382805989124, 47244.92695867145, 29492.523311677374, 34335.40872757539, -493.750035017733, 8761.325032868986, 100.38168434878402, 0.0, 0.0, 17522.89593492698, -10857.851607543422, 6775.126668825945, -2176.85874424681, -26920.239856271728, -33593.755494803845, 0.052000000000000005, -0.002, 1.026, 192.0, 0.0, 0.0, 0.0, 0.0, 0.0, 0.0, 0.0, 0.0, 0.0, 1.747687659733189E9, 0.0, 2025-05-19 22:47:39.733
250.0, 21441.9614007427, 16710.186506532016, 47235.67333646695, 29487.69533487503, 34324.590483259024, -475.8686394534874, 8695.588552425928, 86.92593418668916, 0.0, 0.0, 17520.37018780353, -10844.99935448162, 6798.9759801597575, -2166.129906908263, -26923.883190617944, -33570.44262533696, 0.052000000000000005, -0.002, 1.026, 192.0, 0.0, 0.0, 0.0, 0.0, 0.0, 0.0, 0.0, 0.0, 0.0, 1.747687659741205E9, 0.0, 2025-05-19 22:47:39.741
252.0, 21453.472549137183, 16719.328370014235, 47247.765630217276, 29493.238567499946, 34315.18039884334, -492.90066872843136, 8739.174454113776, 91.7986144779461, 0.0, 0.0, 17522.3371413156, -10842.563014335992, 6778.05474734959, -2193.95782875512, -26940.490536748235, -33606.98772752139, 0.052000000000000005, -0.002, 1.026, 192.0, 0.0, 0.0, 0.0, 0.0, 0.0, 0.0, 0.0, 0.0, 0.0, 1.747687659750255E9, 0.0, 2025-05-19 22:47:39.750
254.0, 21444.643610077335, 16709.918285598553, 47241.5518452587, 29489.103494775714, 34334.872285708465, -472.67233999637847, 8734.324125566975, 87.79765222044614, 0.0, 0.0, 17526.159289617455, -10843.747656792124, 6798.193669103822, -2158.1279823932628, -26911.85795210099, -33571.806081748735, 0.052000000000000005, -0.002, 1.026, 192.0, 0.0, 0.0, 0.0, 0.0, 0.0, 0.0, 0.0, 0.0, 0.0, 1.747687659757279E9, 0.0, 2025-05-19 22:47:39.757
0.0, 21443.97305774368, 16707.146669286092, 47237.64028997902, 29480.900404560616, 34305.45739000528, -500.5673170766017, 8713.782872412548, 108.8753472418007, 0.0, 0.0, 17509.574295231618, -10858.946843021733, 6776.758346171182, -2185.508869351014, -26940.04350185913, -33597.48823612789, 0.054, -0.002, 1.03, 192.0, 0.5, 88.0, 127.5, 120.0, 16.0, 24.0, 0.0, 0.0, 0.0, 1.747687659765279E9, 0.0, 2025-05-19 22:47:39.765
2.0, 21440.262668164098, 16709.940637343007, 47239.87546442455, 29491.65159364362, 34319.628395989945, -475.1757353753728, 8769.192846917254, 101.23105063808569, 0.0, 0.0, 17513.642312722484, -10852.308374918506, 6771.416279246364, -2170.4661453325925, -26921.51390570568, -33589.910994757534, 0.054, -0.002, 1.03, 192.0, 0.0, 0.0, 0.0, 0.0, 0.0, 0.0, 0.0, 0.0, 0.0, 1.747687659774295E9, 0.0, 2025-05-19 22:47:39.774
4.0, 21438.63099081886, 16703.056300050772, 47241.104810369594, 29483.761427850895, 34321.997680902205, -477.9473516878309, 8722.075369605467, 103.60033555034823, 0.0, 0.0, 17513.642312722484, -10855.415267397793, 6788.828288177048, -2152.182418368151, -26912.90848409039, -33564.83233747868, 0.054, -0.002, 1.03, 192.0, 0.0, 0.0, 0.0, 0.0, 0.0, 0.0, 0.0, 0.0, 0.0, 1.74768765978126E9, 0.0, 2025-05-19 22:47:39.781
6.0, 21443.8612990214, 16710.722948398943, 47239.11550511307, 29481.16862549408, 34313.01227963118, -491.87248848348725, 8782.849762779446, 114.15035893325317, 0.0, 0.0, 17512.256504566252, -10858.253938943619, 6763.10143030899, -2178.7809942699664, -26926.990083097233, -33600.10339022915, 0.054, -0.002, 1.03, 192.0, 0.0, 0.0, 0.0, 0.0, 0.0, 0.0, 0.0, 0.0, 0.0, 1.747687659789374E9, 0.0, 2025-05-19 22:47:39.789
8.0, 21428.885630236346, 16692.886256323607, 47224.16218807247, 29477.346477192223, 34321.48359077973, -471.3759388179706, 8759.82746599048, 103.30976287242925, 0.0, 0.0, 17505.215705062834, -10861.33847967845, 6775.618407203961, -2154.2611306024946, -26912.796725368113, -33567.35808460213, 0.054, -0.002, 1.03, 192.0, 0.0, 0.0, 0.0, 0.0, 0.0, 0.0, 0.0, 0.0, 0.0, 1.747687659797373E9, 0.0, 2025-05-19 22:47:39.797
10.0, 21433.981827972155, 16696.239017991902, 47224.58687121712, 29469.523366632864, 34300.204730058285, -499.6955990428447, 8732.983020899657, 116.1173124453202, 0.0, 0.0, 17489.100097310555, -10877.163514752809, 6755.233616260722, -2189.7557007975224, -26944.022112372175, -33598.98580300639, 0.06, -0.006, 1.032, 192.0, 0.5, 112.0, 127.5, 104.0, 16.0, 32.0, 0.0, 0.0, 0.0, 1.747687659806393E9, 0.0, 2025-05-19 22:47:39.806
12.0, 21428.7068162807, 16692.72979411242, 47227.894929396505, 29476.07242775827, 34323.13761986943, -493.0571309396185, 8771.606835318427, 108.49536758606048, 0.0, 0.0, 17499.493658482275, -10865.585311124958, 6755.390078471909, -2174.28829363445, -26920.619835927468, -33591.453265124954, 0.06, -0.006, 1.032, 192.0, 0.0, 0.0, 0.0, 0.0, 0.0, 0.0, 0.0, 0.0, 0.0, 1.747687659813412E9, 0.0, 2025-05-19 22:47:39.813
14.0, 21420.011987687587, 16684.97373878643, 47219.378914759036, 29469.54571837732, 34317.192055844316, -490.2184593937945, 8731.328991809964, 109.72471353110237, 0.0, 0.0, 17491.156457800444, -10877.25292173063, 6764.598997187495, -2167.9403982091426, -26924.7549086517, -33575.78469226178, 0.06, -0.006, 1.032, 192.0, 0.0, 0.0, 0.0, 0.0, 0.0, 0.0, 0.0, 0.0, 0.0, 1.747687659821398E9, 0.0, 2025-05-19 22:47:39.821
16.0, 21435.322932639472, 16697.580122659223, 47234.28752831072, 29480.11809350468, 34308.63133771793, -503.56245083361284, 8762.621434047394, 114.2621176555297, 0.0, 0.0, 17495.42564099141, -10871.8661513169, 6744.951813811281, -2193.734311310567, -26937.76362392469, -33608.284128699794, 0.06, -0.006, 1.032, 192.0, 0.0, 0.0, 0.0, 0.0, 0.0, 0.0, 0.0, 0.0, 0.0, 1.747687659829493E9, 0.0, 2025-05-19 22:47:39.829
18.0, 21431.523136082073, 16693.132125512617, 47232.61114747657, 29482.241509227933, 34329.17259087236, -473.63346500795666, 8744.047134405033, 102.05806518293205, 0.0, 0.0, 17505.998016118767, -10865.741773336145, 6772.176238557844, -2156.47395330357, -26908.505190432694, -33568.0733404247, 0.06, -0.006, 1.032, 192.0, 0.0, 0.0, 0.0, 0.0, 0.0, 0.0, 0.0, 0.0, 0.0, 1.747687659837541E9, 0.0, 2025-05-19 22:47:39.837
20.0, 21433.512441338593, 16697.513067425858, 47222.68697293842, 29471.177395722556, 34303.26691904866, -490.41962509389225, 8745.768218728092, 119.87240551381177, 0.0, 0.0, 17498.26431253723, -10875.554189152026, 6759.3463372404985, -2183.340750138849, -26935.61785645698, -33593.08494247019, 0.06, -0.004, 1.034, 192.0, 0.5, 112.0, 127.5, 112.0, 16.0, 40.0, 0.0, 0.0, 0.0, 1.747687659845544E9, 0.0, 2025-05-19 22:47:39.845
22.0, 21445.180051944262, 16706.72198614144, 47241.61890049207, 29489.818750598282, 34318.84608493401, -485.61400003600124, 8771.02568996259, 111.53520483198224, 0.0, 0.0, 17502.824068406113, -10864.333613435461, 6758.094639551001, -2173.5059825785142, -26921.93858885033, -33588.70400055695, 0.06, -0.004, 1.034, 192.0, 0.0, 0.0, 0.0, 0.0, 0.0, 0.0, 0.0, 0.0, 0.0, 1.74768765985362E9, 0.0, 2025-05-19 22:47:39.853
24.0, 21437.446348362726, 16700.508201182867, 47242.512970270276, 29479.69341036003, 34320.2989483236, -463.1504968584176, 8726.590421985438, 117.34665839036208, 0.0, 0.0, 17510.870696410024, -10868.088706503953, 6782.0110061181795, -2155.6469387587235, -26910.203923011297, -33566.776939246294, 0.06, -0.004, 1.034, 192.0, 0.0, 0.0, 0.0, 0.0, 0.0, 0.0, 0.0, 0.0, 0.0, 1.747687659862615E9, 0.0, 2025-05-19 22:47:39.862
26.0, 21450.67858108027, 16714.29922751179, 47250.11256338508, 29488.879977331162, 34317.86260817797, -499.0697501980961, 8763.314338125509, 116.18436767868612, 0.0, 0.0, 17519.721987214325, -10856.130523220363, 6769.851657134493, -2178.177497169673, -26919.591655682525, -33594.962489004436, 0.06, -0.004, 1.034, 192.0, 0.0, 0.0, 0.0, 0.0, 0.0, 0.0, 0.0, 0.0, 0.0, 1.747687659868631E9, 0.0, 2025-05-19 22:47:39.868
28.0, 21435.501746595117, 16701.804602361277, 47237.93086265694, 29485.32604996277, 34327.183285615836, -465.65389223741204, 8749.232739118665, 106.93074547418898, 0.0, 0.0, 17518.738510458294, -10856.354040664917, 6787.10720385399, -2152.3388805793384, -26904.861856086478, -33565.21231713442, 0.06, -0.004, 1.034, 192.0, 0.0, 0.0, 0.0, 0.0, 0.0, 0.0, 0.0, 0.0, 0.0, 1.747687659877655E9, 0.0, 2025-05-19 22:47:39.877
30.0, 21435.14411868383, 16701.894009339096, 47233.147589343505, 29475.78185508035, 34306.753791183684, -497.32631413058215, 8740.426151803274, 121.12410320330898, 0.0, 0.0, 17503.740489928783, -10867.90989254831, 6766.878875121936, -2181.3067413934164, -26934.880248889956, -33591.14034070258, 0.06, -0.004, 1.036, 192.0, 0.5, 112.0, 127.5, 112.0, 16.0, 48.0, 0.0, 0.0, 0.0, 1.747687659885698E9, 0.0, 2025-05-19 22:47:39.885
32.0, 21439.81563327499, 16705.604398918676, 47230.755952686784, 29479.715762104486, 34325.7527739707, -466.01152014869695, 8773.752602786137, 112.07164669890962, 0.0, 0.0, 17510.42366152092, -10859.259767444108, 6765.716584410261, -2172.9471889671313, -26920.91040860539, -33588.12285520111, 0.06, -0.004, 1.036, 192.0, 0.0, 0.0, 0.0, 0.0, 0.0, 0.0, 0.0, 0.0, 0.0, 1.747687659893745E9, 0.0, 2025-05-19 22:47:39.893
34.0, 21425.130537167854, 16689.198218488484, 47212.516929211255, 29460.292096172823, 34309.36894528496, -477.4779650542695, 8717.649724203317, 101.56632680491529, 0.0, 0.0, 17489.524780455205, -10878.05758453102, 6766.72241291075, -2176.0987849353296, -26936.71309193529, -33580.612669064125, 0.06, -0.004, 1.036, 192.0, 0.0, 0.0, 0.0, 0.0, 0.0, 0.0, 0.0, 0.0, 0.0, 1.747687659901738E9, 0.0, 2025-05-19 22:47:39.901
36.0, 21438.653342563313, 16703.816259362255, 47231.806484676184, 29477.011201025394, 34321.70710822429, -501.2155176658056, 8750.77500948608, 108.45066409714987, 0.0, 0.0, 17494.866847380024, -10874.414250184805, 6743.677764377328, -2202.29502943695, -26948.738330452245, -33616.37546019262, 0.06, -0.004, 1.036, 192.0, 0.0, 0.0, 0.0, 0.0, 0.0, 0.0, 0.0, 0.0, 0.0, 1.747687659909773E9, 0.0, 2025-05-19 22:47:39.909
38.0, 21426.315179623984, 16692.238055734404, 47222.999897360794, 29473.278459701356, 34333.37471882996, -477.03093016516334, 8742.594271015438, 94.34671334585111, 0.0, 0.0, 17505.953312629856, -10866.546436136538, 6771.86331413547, -2165.861685974799, -26919.815173127077, -33577.25990739583, 0.06, -0.004, 1.036, 192.0, 0.0, 0.0, 0.0, 0.0, 0.0, 0.0, 0.0, 0.0, 0.0, 1.747687659917901E9, 0.0, 2025-05-19 22:47:39.917
40.0, 21436.060540206498, 16701.44697444999, 47230.86771140906, 29476.161834736093, 34303.87041614895, -503.8306717670765, 8726.746884196626, 109.05416119744316, 0.0, 0.0, 17497.772574159215, -10874.526008907082, 6758.966357584758, -2190.9403432536537, -26947.508984507203, -33600.058686740245, 0.058, -0.006, 1.034, 192.0, 0.5, 104.0, 127.5, 104.0, 16.0, 40.0, 0.0, 0.0, 0.0, 1.747687659926856E9, 0.0, 2025-05-19 22:47:39.926
42.0, 21445.9623630002, 16717.45082347999, 47242.62472899255, 29492.724477377473, 34326.31156758208, -478.66260751040073, 8762.30850962502, 98.59354479235945, 0.0, 0.0, 17513.910533655948, -10853.023630741076, 6767.996462344702, -2172.276636633472, -26921.245684772217, -33590.469788368915, 0.058, -0.006, 1.034, 192.0, 0.0, 0.0, 0.0, 0.0, 0.0, 0.0, 0.0, 0.0, 0.0, 1.747687659933874E9, 0.0, 2025-05-19 22:47:39.933
