%OpenBCI Raw EXG Data
%Number of channels = 16
%Sample Rate = 125 Hz
%Board = OpenBCI_GUI$BoardCytonSerialDaisy
Sample Index, EXG Channel 0, EXG Channel 1, EXG Channel 2, EXG Channel 3, EXG Channel 4, EXG Channel 5, EXG Channel 6, EXG Channel 7, EXG Channel 8, EXG Channel 9, EXG Channel 10, EXG Channel 11, EXG Channel 12, EXG Channel 13, EXG Channel 14, EXG Channel 15, Accel Channel 0, Accel Channel 1, Accel Channel 2, Not Used, Digital Channel 0 (D11), Digital Channel 1 (D12), Digital Channel 2 (D13), Digital Channel 3 (D17), Not Used, Digital Channel 4 (D18), Analog Channel 0, Analog Channel 1, Analog Channel 2, Timestamp, Marker Channel, Timestamp (Formatted)
218.0, 21413.686444006737, 18563.23552885479, 48603.95772504303, 34328.300872838605, 43190.05229354528, 1120.6047082668197, 8691.922866335257, 8479.15661086519, 0.0, 0.0, 7269.368442221695, -26640.485422669106, 17943.756931275955, 5655.147809403874, -7504.397035169249, -30906.762886853565, 0.0, 0.0, 0.0, 192.0, 0.0, 0.0, 0.0, 0.0, 0.0, 0.0, 0.0, 0.0, 0.0, 1.7476915478358E9, 0.0, 2025-05-19 23:52:27.835
0.0, 10973.231312421718, 9310.730911580433, 24111.96668290695, 17204.31652120549, 22448.30399135399, 1559.570617624595, 4030.8912433256205, 4143.0970004912615, 0.0, 0.0, 3628.828064063557, -13323.07020700815, 8965.463514979305, 2814.7104757679076, -3763.452620917871, -15466.311927594177, 0.054, -0.002, 1.036, 192.0, 0.5, 88.0, 127.5, 120.0, 16.0, 48.0, 0.0, 0.0, 0.0, 1.747691547934795E9, 0.0, 2025-05-19 23:52:27.934
2.0, 21944.741540520376, 18622.668817361453, 48223.620441391526, 34416.85848437053, 44904.22992756724, 3129.6018516542736, 8074.4335740129445, 8274.25816944339, 0.0, 0.0, 6645.397144007343, -27194.76398167181, 18471.347507399023, 5744.599490714013, -6744.370668455443, -30773.85941432231, 0.054, -0.002, 1.036, 192.0, 0.0, 0.0, 0.0, 0.0, 0.0, 0.0, 0.0, 0.0, 0.0, 1.747691547944817E9, 0.0, 2025-05-19 23:52:27.944
4.0, 21933.498613059357, 18610.554171866675, 48211.21522321883, 34401.12285627399, 44889.008389593175, 3129.9371278211033, 8025.3044397001795, 8261.361212892678, 0.0, 0.0, 6641.239719538656, -27202.67649920899, 18473.85090277802, 5740.844397645521, -6758.4075639733755, -30775.871071323287, 0.054, -0.002, 1.036, 192.0, 0.0, 0.0, 0.0, 0.0, 0.0, 0.0, 0.0, 0.0, 0.0, 1.747691547951857E9, 0.0, 2025-05-19 23:52:27.951
6.0, 21940.807633496242, 18617.30439869218, 48217.20549073285, 34403.71565863081, 44902.03945661062, 3114.9614590360475, 8064.330585519146, 8279.600236368207, 0.0, 0.0, 6632.366076989899, -27209.404374290036, 18456.08126593605, 5723.566499181569, -6768.175276300344, -30793.350135487337, 0.054, -0.002, 1.036, 192.0, 0.0, 0.0, 0.0, 0.0, 0.0, 0.0, 0.0, 0.0, 0.0, 1.74769154795788E9, 0.0, 2025-05-19 23:52:27.957
8.0, 21937.276057872303, 18613.63871260151, 48218.61365063354, 34414.8244756251, 44902.06180835507, 3138.587252925307, 8061.044879084216, 8275.196942710512, 0.0, 0.0, 6641.798513150038, -27202.654147464535, 18469.537016098144, 5749.673336705368, -6744.57183415554, -30767.936202041652, 0.064, -0.002, 1.034, 192.0, 1.0, 0.0, 127.5, 120.0, 16.0, 40.0, 0.0, 0.0, 0.0, 1.747691547967908E9, 0.0, 2025-05-19 23:52:27.967
10.0, 21938.572459050712, 18614.465727146355, 48222.65931637995, 34408.56598717761, 44897.59145946401, 3126.0032207969693, 8043.945794575906, 8280.427250913055, 0.0, 0.0, 6638.3116410150105, -27204.844618421153, 18467.748876541722, 5734.429446986848, -6763.324947753543, -30779.536757413956, 0.064, -0.002, 1.034, 192.0, 0.0, 0.0, 0.0, 0.0, 0.0, 0.0, 0.0, 0.0, 0.0, 1.747691547973995E9, 0.0, 2025-05-19 23:52:27.973
12.0, 21945.233278898395, 18619.15959348197, 48226.28029898171, 34421.03826058367, 44909.23671832523, 3133.647517400684, 8071.103164089104, 8282.394204425122, 0.0, 0.0, 6645.55360621853, -27197.356784028627, 18470.431085876357, 5748.220473315772, -6741.666107376351, -30769.27730670897, 0.064, -0.002, 1.034, 192.0, 0.0, 0.0, 0.0, 0.0, 0.0, 0.0, 0.0, 0.0, 0.0, 1.747691547981027E9, 0.0, 2025-05-19 23:52:27.981
14.0, 21936.29258111627, 18613.14697422349, 48216.266717465725, 34408.05189705514, 44895.55745071858, 3140.5989099262847, 8033.976916548839, 8273.967596765471, 0.0, 0.0, 6640.41270499381, -27202.05065036424, 18476.153132456915, 5745.47120874777, -6754.138380782411, -30766.684504352153, 0.064, -0.002, 1.034, 192.0, 0.0, 0.0, 0.0, 0.0, 0.0, 0.0, 0.0, 0.0, 0.0, 1.747691547990002E9, 0.0, 2025-05-19 23:52:27.990
16.0, 21950.910621990042, 18627.899125563996, 48223.10635126905, 34415.36091749203, 44907.71679970226, 3124.907985318659, 8073.405393768, 8288.384471939144, 0.0, 0.0, 6636.121170058391, -27204.062307365217, 18464.641984062433, 5730.204967284795, -6760.754497141183, -30782.28602198196, 0.064, -0.002, 1.034, 192.0, 0.0, 0.0, 0.0, 0.0, 0.0, 0.0, 0.0, 0.0, 0.0, 1.74769154799906E9, 0.0, 2025-05-19 23:52:27.999
18.0, 21948.54133707778, 18629.44139593141, 48225.52033967023, 34423.60871119603, 44898.19495656431, 3150.0313460864245, 8050.986594079327, 8273.453506642998, 0.0, 0.0, 6652.84027491096, -27189.488969980357, 18485.74203082824, 5753.406078029404, -6742.04608703209, -30759.621353104278, 0.064, -0.002, 1.032, 192.0, 1.0, 0.0, 127.5, 120.0, 16.0, 32.0, 0.0, 0.0, 0.0, 1.747691548006063E9, 0.0, 2025-05-19 23:52:28.006
20.0, 21948.250764399858, 18625.954523796383, 48224.53686291419, 34412.410487223926, 44890.30479077158, 3125.9361655636035, 8030.713561858364, 8274.34757642121, 0.0, 0.0, 6645.2183300517, -27196.216845061404, 18479.863522036496, 5731.747237652211, -6764.688404165317, -30777.39098994625, 0.064, -0.002, 1.032, 192.0, 0.0, 0.0, 0.0, 0.0, 0.0, 0.0, 0.0, 0.0, 0.0, 1.747691548013056E9, 0.0, 2025-05-19 23:52:28.013
22.0, 21956.6326685706, 18634.001151800294, 48230.6835926394, 34429.42016475441, 44901.07833159904, 3133.2898894893992, 8066.4540012423995, 8276.918027033571, 0.0, 0.0, 6654.360193533921, -27185.756228656322, 18484.736202327753, 5745.13593258094, -6744.1918544998, -30767.46681540809, 0.064, -0.002, 1.032, 192.0, 0.0, 0.0, 0.0, 0.0, 0.0, 0.0, 0.0, 0.0, 0.0, 1.747691548022153E9, 0.0, 2025-05-19 23:52:28.022
24.0, 21945.50149983186, 18623.719349350853, 48226.36970595953, 34425.08392633008, 44888.62840993743, 3142.655270416173, 8038.268451484258, 8281.433079413544, 0.0, 0.0, 6650.2698242986, -27187.611423446113, 18490.301786697124, 5750.589758228035, -6751.322060981043, -30758.950800770617, 0.064, -0.002, 1.032, 192.0, 0.0, 0.0, 0.0, 0.0, 0.0, 0.0, 0.0, 0.0, 0.0, 1.747691548030125E9, 0.0, 2025-05-19 23:52:28.030
26.0, 21958.57727033821, 18638.292686735713, 48234.662203152446, 34431.00713861074, 44902.285325799625, 3132.99931681148, 8070.656129199998, 8298.152184266113, 0.0, 0.0, 6651.968556877203, -27183.342240255148, 18482.746897071233, 5744.308918036094, -6748.57279641304, -30764.695199095633, 0.064, -0.002, 1.032, 192.0, 0.0, 0.0, 0.0, 0.0, 0.0, 0.0, 0.0, 0.0, 0.0, 1.74769154803725E9, 0.0, 2025-05-19 23:52:28.037
28.0, 21956.364447637137, 18634.291724478215, 48229.141322271986, 34431.65533919994, 44905.03459036763, 3153.808790899371, 8054.786390636729, 8285.322282948766, 0.0, 0.0, 6659.724612203195, -27178.558966941713, 18495.442687921844, 5760.625691488468, -6734.245328217188, -30749.048977976916, 0.06, -0.004, 1.026, 192.0, 0.5, 112.0, 127.5, 112.0, 16.0, 8.0, 0.0, 0.0, 0.0, 1.74769154804525E9, 0.0, 2025-05-19 23:52:28.045
30.0, 21953.190499924483, 18630.223706987348, 48224.9838978033, 34415.58443493658, 44896.36211351897, 3131.010011554958, 8041.576509663643, 8289.122079506169, 0.0, 0.0, 6646.201806807734, -27192.461751992912, 18481.47284763728, 5736.865787132477, -6761.045069819102, -30771.19955673213, 0.06, -0.004, 1.026, 192.0, 0.0, 0.0, 0.0, 0.0, 0.0, 0.0, 0.0, 0.0, 0.0, 1.747691548054278E9, 0.0, 2025-05-19 23:52:28.054
32.0, 21964.96986925243, 18642.763035626776, 48235.3327554861, 34435.83511541309, 44912.72359046026, 3142.074125060335, 8071.036108855737, 8289.54676265082, 0.0, 0.0, 6659.769315692105, -27180.302403009227, 18489.60888261901, 5750.098019850018, -6738.76038059716, -30762.504728139014, 0.06, -0.004, 1.026, 192.0, 0.0, 0.0, 0.0, 0.0, 0.0, 0.0, 0.0, 0.0, 0.0, 1.747691548061277E9, 0.0, 2025-05-19 23:52:28.061
34.0, 21954.084569702696, 18630.916611065462, 48220.804121590154, 34418.6242721825, 44893.67990418433, 3141.783552382416, 8032.25583222578, 8275.934550277538, 0.0, 0.0, 6656.997699379647, -27182.17994954347, 18496.761440844708, 5751.841455917533, -6747.678726634828, -30758.392007159237, 0.06, -0.004, 1.026, 192.0, 0.0, 0.0, 0.0, 0.0, 0.0, 0.0, 0.0, 0.0, 0.0, 1.747691548069359E9, 0.0, 2025-05-19 23:52:28.069
36.0, 21965.77453205282, 18648.68624790743, 48230.191854261386, 34428.0790600871, 44900.65364845439, 3130.1829970101116, 8068.085678587638, 8295.849954587216, 0.0, 0.0, 6646.537082974563, -27189.15369381353, 18479.148266213928, 5733.490673719725, -6757.513494195163, -30777.078065523874, 0.06, -0.004, 1.026, 192.0, 0.0, 0.0, 0.0, 0.0, 0.0, 0.0, 0.0, 0.0, 0.0, 1.747691548078366E9, 0.0, 2025-05-19 23:52:28.078
38.0, 21961.43829362849, 18642.561869926678, 48233.49991244077, 34437.980882880795, 44904.27463105615, 3152.132410065223, 8054.741687147819, 8281.477782902453, 0.0, 0.0, 6661.93743490427, -27172.70280989442, 18502.595246147543, 5763.218493845284, -6732.211319471756, -30749.071329721373, 0.058, -0.002, 1.032, 192.0, 0.5, 104.0, 127.5, 120.0, 16.0, 32.0, 0.0, 0.0, 0.0, 1.747691548086397E9, 0.0, 2025-05-19 23:52:28.086
40.0, 21958.06318021574, 18641.041951303716, 48231.577662417614, 34424.61453969652, 44894.529270473635, 3140.3083372483657, 8044.079905042638, 8289.770280095372, 0.0, 0.0, 6656.729478446184, -27184.258661777814, 18492.447554164835, 5741.894929634921, -6757.62525291744, -30770.14902474273, 0.058, -0.002, 1.032, 192.0, 0.0, 0.0, 0.0, 0.0, 0.0, 0.0, 0.0, 0.0, 0.0, 1.747691548093426E9, 0.0, 2025-05-19 23:52:28.093
42.0, 21965.461607630445, 18646.428721717446, 48229.67776413891, 34434.29284504567, 44904.72166594525, 3141.5153314489526, 8059.748477905808, 8276.761564822384, 0.0, 0.0, 6659.881074414382, -27178.737780897354, 18490.972339030784, 5751.081496606052, -6740.1014852644785, -30763.08587349485, 0.058, -0.002, 1.032, 192.0, 0.0, 0.0, 0.0, 0.0, 0.0, 0.0, 0.0, 0.0, 0.0, 1.74769154810146E9, 0.0, 2025-05-19 23:52:28.101
44.0, 21946.30616263225, 18626.960352296872, 48215.75262734326, 34416.299690759144, 44889.25425878218, 3142.9011396051815, 8023.87392805504, 8277.20859971149, 0.0, 0.0, 6649.129885331379, -27185.018621089297, 18491.218208219794, 5747.7063831933, -6754.473656949242, -30762.638838605744, 0.058, -0.002, 1.032, 192.0, 0.0, 0.0, 0.0, 0.0, 0.0, 0.0, 0.0, 0.0, 0.0, 1.747691548110444E9, 0.0, 2025-05-19 23:52:28.110
46.0, 21962.622936084623, 18644.88645135003, 48226.615575148535, 34424.212208296325, 44903.4476165113, 3140.62126167074, 8059.100277316604, 8293.704187119507, 0.0, 0.0, 6642.469065483698, -27189.53367346927, 18473.64973707792, 5734.630612686946, -6759.771020385149, -30775.93812655665, 0.058, -0.002, 1.032, 192.0, 0.0, 0.0, 0.0, 0.0, 0.0, 0.0, 0.0, 0.0, 0.0, 1.747691548117542E9, 0.0, 2025-05-19 23:52:28.117
48.0, 21957.482034859902, 18637.84565184661, 48218.16661574443, 34423.49695247375, 44900.00544786519, 3156.468648489553, 8034.1110270155705, 8278.527352634354, 0.0, 0.0, 6653.376716777888, -27182.269356521294, 18489.81004831911, 5752.512008251191, -6742.76134285466, -30757.6096961033, 0.062, -0.002, 1.032, 192.0, 0.5, 120.0, 127.5, 120.0, 16.0, 32.0, 0.0, 0.0, 0.0, 1.74769154812555E9, 0.0, 2025-05-19 23:52:28.125
50.0, 21955.96211623694, 18636.39278845701, 48217.49606341077, 34413.170446535405, 44890.818880894054, 3140.62126167074, 8020.856442553573, 8284.472916659464, 0.0, 0.0, 6639.496283471141, -27195.613347961113, 18475.057896978607, 5729.646173673413, -6769.136401311923, -30776.496920168036, 0.062, -0.002, 1.032, 192.0, 0.0, 0.0, 0.0, 0.0, 0.0, 0.0, 0.0, 0.0, 0.0, 1.747691548133576E9, 0.0, 2025-05-19 23:52:28.133
52.0, 21958.57727033821, 18640.371398970055, 48224.134531514, 34427.14028681997, 44901.45831125478, 3142.7670291384497, 8065.73874541983, 8284.11528874818, 0.0, 0.0, 6646.045344596547, -27189.28780428026, 18475.08024872306, 5744.5100837361915, -6744.482427177719, -30768.450292164125, 0.062, -0.002, 1.032, 192.0, 0.0, 0.0, 0.0, 0.0, 0.0, 0.0, 0.0, 0.0, 0.0, 1.747691548142604E9, 0.0, 2025-05-19 23:52:28.142
54.0, 21943.3780841086, 18623.92051505095, 48206.18608071638, 34404.207397008824, 44879.95593308877, 3136.0168023129468, 8013.905050027973, 8252.711087788473, 0.0, 0.0, 6644.7712951625945, -27193.378173515583, 18482.05399299312, 5741.604356957002, -6757.28997675061, -30769.299658453427, 0.062, -0.002, 1.032, 192.0, 0.0, 0.0, 0.0, 0.0, 0.0, 0.0, 0.0, 0.0, 0.0, 1.747691548149587E9, 0.0, 2025-05-19 23:52:28.149
56.0, 21956.96794473743, 18640.416102458967, 48219.977107045306, 34417.55138844864, 44893.83636639552, 3130.1829970101116, 8051.0760010571485, 8274.146410721112, 0.0, 0.0, 6634.69065841325, -27203.637624220566, 18462.451513105814, 5717.643286900912, -6772.712680424772, -30795.04886806594, 0.062, -0.002, 1.032, 192.0, 0.0, 0.0, 0.0, 0.0, 0.0, 0.0, 0.0, 0.0, 0.0, 1.74769154815763E9, 0.0, 2025-05-19 23:52:28.157
58.0, 21952.87757550211, 18639.477329191843, 48223.41927569143, 34431.74474617776, 44894.37280826245, 3159.307320035377, 8055.009908081282, 8291.759585351896, 0.0, 0.0, 6653.376716777888, -27179.922423353484, 18490.570007630587, 5759.843380432532, -6733.9324037948145, -30750.770062299976, 0.062, 0.0, 1.03, 192.0, 0.5, 120.0, 0.0, 0.0, 16.0, 24.0, 0.0, 0.0, 0.0, 1.747691548166651E9, 0.0, 2025-05-19 23:52:28.166
60.0, 21945.38974110958, 18627.16151799697, 48212.556327886145, 34407.940138332866, 44880.42531972234, 3131.814674355349, 8029.417160679956, 8272.179457209046, 0.0, 0.0, 6635.115341557902, -27198.250853806836, 18472.37568764397, 5729.8026358846, -6767.951758855791, -30777.972135302087, 0.062, 0.0, 1.03, 192.0, 0.0, 0.0, 0.0, 0.0, 0.0, 0.0, 0.0, 0.0, 0.0, 1.747691548173666E9, 0.0, 2025-05-19 23:52:28.173
62.0, 21958.309049404746, 18638.62796290254, 48221.13939775698, 34426.64854844195, 44897.34559027501, 3145.4715902175417, 8066.319890775668, 8288.585637639242, 0.0, 0.0, 6643.251376539633, -27193.445228748948, 18473.47092312228, 5743.794827913622, -6745.711773122761, -30769.031437519963, 0.062, 0.0, 1.03, 192.0, 0.0, 0.0, 0.0, 0.0, 0.0, 0.0, 0.0, 0.0, 0.0, 1.747691548181703E9, 0.0, 2025-05-19 23:52:28.181
64.0, 21943.176918408506, 18625.418081929456, 48217.71958085532, 34414.80212388064, 44882.101700556486, 3140.0848198038125, 8029.305401957679, 8271.955939764493, 0.0, 0.0, 6641.843216638949, -27195.658051450024, 18482.545731371134, 5747.773438426667, -6751.120895280946, -30762.99646651703, 0.062, 0.0, 1.03, 192.0, 0.0, 0.0, 0.0, 0.0, 0.0, 0.0, 0.0, 0.0, 0.0, 1.74769154818971E9, 0.0, 2025-05-19 23:52:28.189
66.0, 21952.341133635182, 18633.55411691119, 48225.09565652558, 34418.691327415865, 44891.93646811682, 3125.176206252123, 8056.932158104439, 8281.902466047104, 0.0, 0.0, 6642.156141061323, -27196.306252039227, 18471.593376588033, 5733.334211508538, -6755.680651149828, -30780.117902769794, 0.062, 0.0, 1.03, 192.0, 0.0, 0.0, 0.0, 0.0, 0.0, 0.0, 0.0, 0.0, 0.0, 1.747691548198767E9, 0.0, 2025-05-19 23:52:28.198
68.0, 21947.446101599468, 18627.452090674888, 48220.73706635679, 34423.2734350292, 44893.79166290661, 3143.817561127849, 8039.140169518015, 8262.814076282273, 0.0, 0.0, 6648.0570015975245, -27191.61238570361, 18482.679841837864, 5751.930862895354, -6740.369706197943, -30762.437672905646, 0.062, -0.002, 1.03, 192.0, 0.5, 120.0, 127.5, 120.0, 16.0, 24.0, 0.0, 0.0, 0.0, 1.747691548205779E9, 0.0, 2025-05-19 23:52:28.205
70.0, 21946.06029344324, 18624.30049470669, 48219.284202967196, 34410.66705115641, 44886.281476769625, 3128.372505709232, 8035.0498002826935, 8278.080317745247, 0.0, 0.0, 6640.770332905095, -27199.39079277406, 18473.739144055744, 5732.7530661527, -6763.235540775721, -30778.463873680103, 0.062, -0.002, 1.03, 192.0, 0.0, 0.0, 0.0, 0.0, 0.0, 0.0, 0.0, 0.0, 0.0, 1.747691548213821E9, 0.0, 2025-05-19 23:52:28.213
72.0, 21960.365409894635, 18643.79121587172, 48233.4328572074, 34434.985749123785, 44901.57006997705, 3145.3151280063544, 8065.694041930919, 8286.775146338361, 0.0, 0.0, 6652.706164444228, -27186.42678098998, 18481.80812380411, 5748.935729138342, -6739.676802119828, -30765.03047526246, 0.062, -0.002, 1.03, 192.0, 0.0, 0.0, 0.0, 0.0, 0.0, 0.0, 0.0, 0.0, 0.0, 1.747691548221861E9, 0.0, 2025-05-19 23:52:28.221
74.0, 21957.169110437528, 18643.34418098261, 48227.040258293186, 34425.687423430376, 44888.20372679278, 3152.8923693767038, 8021.72816058733, 8271.128925219647, 0.0, 0.0, 6656.371850534899, -27183.118722810596, 18495.912074555406, 5754.478961763259, -6746.4940841786965, -30757.542640869935, 0.062, -0.002, 1.03, 192.0, 0.0, 0.0, 0.0, 0.0, 0.0, 0.0, 0.0, 0.0, 0.0, 1.747691548230888E9, 0.0, 2025-05-19 23:52:28.230
76.0, 21972.725924578423, 18657.045800333715, 48237.12089504253, 34435.745708435265, 44902.710008944276, 3144.108133805768, 8058.2956145162125, 8287.937437050037, 0.0, 0.0, 6655.634242967873, -27180.70473440942, 18488.290129696146, 5739.65975518939, -6753.579587171029, -30773.18886198865, 0.062, -0.002, 1.03, 192.0, 0.0, 0.0, 0.0, 0.0, 0.0, 0.0, 0.0, 0.0, 0.0, 1.747691548238899E9, 0.0, 2025-05-19 23:52:28.238
78.0, 21978.7385438369, 18665.338297526636, 48242.70883115636, 34451.52604002071, 44914.28821257213, 3176.7416807105164, 8039.229576495836, 8280.382547424144, 0.0, 0.0, 6671.727498975694, -27161.258716733304, 18511.960627074317, 5771.354528827015, -6726.824549058027, -30742.455213362602, 0.062, -0.002, 1.032, 192.0, 0.5, 120.0, 127.5, 120.0, 16.0, 32.0, 0.0, 0.0, 0.0, 1.747691548246906E9, 0.0, 2025-05-19 23:52:28.246
80.0, 21962.175901195515, 18647.389846729024, 48229.67776413891, 34426.35797576403, 44897.92673563084, 3145.6727559176393, 8024.58918387761, 8276.940378778027, 0.0, 0.0, 6658.137638346868, -27172.85927210561, 18497.767269345197, 5749.405115771904, -6754.540712182607, -30762.12474848327, 0.062, -0.002, 1.032, 192.0, 0.0, 0.0, 0.0, 0.0, 0.0, 0.0, 0.0, 0.0, 0.0, 1.74769154825597E9, 0.0, 2025-05-19 23:52:28.255
82.0, 21958.666677316032, 18639.857308847586, 48226.45911293735, 34430.60480721054, 44905.012238623174, 3144.8904448617036, 8051.590091179621, 8274.794611310317, 0.0, 0.0, 6654.69546970075, -27179.85536812012, 18486.010251761705, 5751.28266230615, -6742.649584132384, -30763.510556639503, 0.062, -0.002, 1.032, 192.0, 0.0, 0.0, 0.0, 0.0, 0.0, 0.0, 0.0, 0.0, 0.0, 1.747691548261996E9, 0.0, 2025-05-19 23:52:28.261
84.0, 21947.379046366103, 18629.240230231313, 48218.16661574443, 34418.758382649234, 44889.701293671285, 3141.180055282123, 8018.040122752205, 8267.68675657353, 0.0, 0.0, 6647.073524841491, -27189.13134206907, 18488.17837097387, 5751.28266230615, -6752.439648203808, -30762.32591418337, 0.062, -0.002, 1.032, 192.0, 0.0, 0.0, 0.0, 0.0, 0.0, 0.0, 0.0, 0.0, 0.0, 1.747691548277044E9, 0.0, 2025-05-19 23:52:28.277
86.0, 21953.458720857947, 18629.530802909234, 48221.1841012459, 34417.81960938211, 44893.99282860671, 3115.408493925154, 8047.052687055193, 8279.801402068306, 0.0, 0.0, 6639.161007304312, -27195.5686444722, 18470.922824254372, 5733.378914997449, -6762.5202849531515, -30781.257841737017, 0.062, -0.002, 1.032, 192.0, 0.0, 0.0, 0.0, 0.0, 0.0, 0.0, 0.0, 0.0, 0.0, 1.747691548283083E9, 0.0, 2025-05-19 23:52:28.283
88.0, 21938.5277555618, 18613.839878301605, 48209.15886272894, 34413.036336068675, 44894.90925012938, 3127.3890289531982, 8036.726181116842, 8263.842256527216, 0.0, 0.0, 6642.357306761421, -27196.75328692833, 18478.74593481373, 5748.309880293594, -6749.533921424619, -30767.28800145245, 0.066, -0.006, 1.036, 192.0, 1.0, 8.0, 127.5, 104.0, 16.0, 48.0, 0.0, 0.0, 0.0, 1.74769154828905E9, 0.0, 2025-05-19 23:52:28.289
90.0, 21930.391720580068, 18606.553209609177, 48206.901336538955, 34397.367763205504, 44883.487508712715, 3108.904136288659, 8022.868099554551, 8268.87139902966, 0.0, 0.0, 6626.733437387162, -27213.80766794773, 18459.99282121573, 5721.174862524851, -6778.300616538599, -30792.90310059823, 0.066, -0.006, 1.036, 192.0, 0.0, 0.0, 0.0, 0.0, 0.0, 0.0, 0.0, 0.0, 0.0, 1.747691548296119E9, 0.0, 2025-05-19 23:52:28.296
92.0, 21936.784319494287, 18613.3928434125, 48213.49510115327, 34415.964414592316, 44894.819843151556, 3115.788473580894, 8053.937024347428, 8274.571093865765, 0.0, 0.0, 6636.389390991854, -27203.48116200938, 18462.719734039278, 5737.245766788217, -6753.087848793012, -30779.782626602966, 0.066, -0.006, 1.036, 192.0, 0.0, 0.0, 0.0, 0.0, 0.0, 0.0, 0.0, 0.0, 0.0, 1.747691548303166E9, 0.0, 2025-05-19 23:52:28.303
94.0, 21924.46850829941, 18608.162535209958, 48206.49900513876, 34408.18600752187, 44879.24067726621, 3124.9303370631146, 8022.197547220892, 8272.559436864787, 0.0, 0.0, 6632.9695740901925, -27204.889321910065, 18470.98987948774, 5740.620880200968, -6759.614558173962, -30774.217042233595, 0.066, -0.006, 1.036, 192.0, 0.0, 0.0, 0.0, 0.0, 0.0, 0.0, 0.0, 0.0, 0.0, 1.747691548310151E9, 0.0, 2025-05-19 23:52:28.310
96.0, 21929.452947312948, 18611.44824164489, 48209.51649064023, 34408.9236150889, 44885.96855234725, 3107.4736246435195, 8048.527902189244, 8272.4029746536, 0.0, 0.0, 6625.392332719843, -27209.33731905667, 18456.595356058522, 5724.974659082253, -6767.840000133515, -30789.86326335231, 0.066, -0.006, 1.036, 192.0, 0.0, 0.0, 0.0, 0.0, 0.0, 0.0, 0.0, 0.0, 0.0, 1.747691548319258E9, 0.0, 2025-05-19 23:52:28.319
98.0, 21928.514174045824, 18607.313168920657, 48209.069455751116, 34418.825437882595, 44886.348532002994, 3132.2617092444552, 8043.990498064816, 8279.510829390387, 0.0, 0.0, 6634.9141758578035, -27200.53073174128, 18471.92865275486, 5748.823970416066, -6748.170465012845, -30767.980905530563, 0.059000000000000004, -0.003, 1.033, 192.0, 0.5, 80.0, 0.0, 0.0, 16.0, 24.0, 0.0, 0.0, 0.0, 1.747691548327243E9, 0.0, 2025-05-19 23:52:28.327
100.0, 21923.127403632094, 18604.630959586022, 48204.040313248675, 34400.787580107164, 44877.765462132156, 3110.9604967785476, 8028.25486996828, 8282.595370125218, 0.0, 0.0, 6622.687771640751, -27211.863066180118, 18458.450550848313, 5730.696705662812, -6770.432802490331, -30784.610603405312, 0.059000000000000004, -0.003, 1.033, 192.0, 0.0, 0.0, 0.0, 0.0, 0.0, 0.0, 0.0, 0.0, 0.0, 1.747691548335285E9, 0.0, 2025-05-19 23:52:28.335
102.0, 21924.91554318852, 18606.82143054264, 48202.81096730363, 34408.63304241098, 44887.73434015922, 3115.453197414064, 8057.535655204732, 8277.83444855624, 0.0, 0.0, 6627.247527509633, -27209.694946967957, 18454.31547812408, 5737.670449932868, -6753.981918571225, -30781.257841737017, 0.059000000000000004, -0.003, 1.033, 192.0, 0.0, 0.0, 0.0, 0.0, 0.0, 0.0, 0.0, 0.0, 0.0, 1.747691548342312E9, 0.0, 2025-05-19 23:52:28.342
104.0, 21919.52877277479, 18601.233494428816, 48194.89844976646, 34397.41246669441, 44877.45253770978, 3123.7009911180726, 8021.124663487038, 8264.959843749983, 0.0, 0.0, 6623.201861763223, -27214.880551681585, 18461.065704949582, 5731.344906252016, -6767.951758855791, -30784.364734216302, 0.059000000000000004, -0.003, 1.033, 192.0, 0.0, 0.0, 0.0, 0.0, 0.0, 0.0, 0.0, 0.0, 0.0, 1.747691548350363E9, 0.0, 2025-05-19 23:52:28.350
106.0, 21930.503479302344, 18612.230552700825, 48203.83914754858, 34404.34150747556, 44886.05795932507, 3110.871089800726, 8051.679498157442, 8282.461259658487, 0.0, 0.0, 6624.364152474899, -27210.834885935175, 18454.427236846357, 5720.280792746639, -6771.1480583129005, -30793.8195221209, 0.059000000000000004, -0.003, 1.033, 192.0, 0.0, 0.0, 0.0, 0.0, 0.0, 0.0, 0.0, 0.0, 0.0, 1.747691548358375E9, 0.0, 2025-05-19 23:52:28.358
108.0, 21925.6755025, 18606.530857864724, 48199.86053703553, 34407.13547553247, 44884.046302324095, 3126.204386497067, 8036.9273468169395, 8267.373832151156, 0.0, 0.0, 6626.755789131616, -27210.834885935175, 18461.378629371957, 5732.596603941513, -6760.396869229898, -30783.358905715813, 0.0565, -0.0025, 1.0295, 192.0, 0.5, 88.0, 127.5, 120.0, 16.0, 8.0, 0.0, 0.0, 0.0, 1.747691548366422E9, 0.0, 2025-05-19 23:52:28.366
110.0, 21918.56764776321, 18601.479363617822, 48196.46307187832, 34393.23269048127, 44876.26789525365, 3119.007124782458, 8019.515337886255, 8268.4020123961, 0.0, 0.0, 6621.458425695709, -27215.68521448198, 18456.93063222535, 5718.2691357456615, -6778.322968283054, -30795.205330277127, 0.0565, -0.0025, 1.0295, 192.0, 0.0, 0.0, 0.0, 0.0, 0.0, 0.0, 0.0, 0.0, 0.0, 1.747691548373452E9, 0.0, 2025-05-19 23:52:28.373
112.0, 21929.452947312948, 18609.034253243717, 48206.566060372126, 34414.17627503589, 44892.428206494835, 3122.0916655172905, 8051.500684201799, 8274.191114210023, 0.0, 0.0, 6626.420512964787, -27208.689118467468, 18456.729466525256, 5730.137912051429, -6758.742840140205, -30787.76219937351, 0.0565, -0.0025, 1.0295, 192.0, 0.0, 0.0, 0.0, 0.0, 0.0, 0.0, 0.0, 0.0, 0.0, 1.747691548381494E9, 0.0, 2025-05-19 23:52:28.381
114.0, 21913.829077938688, 18593.566846080645, 48192.41740613191, 34397.792446350155, 44873.02689230763, 3119.9011945606703, 8022.4881198988105, 8270.167800208068, 0.0, 0.0, 6621.9948675626365, -27214.589979003667, 18461.244518905227, 5735.144702809418, -6764.800162887593, -30780.743751614544, 0.0565, -0.0025, 1.0295, 192.0, 0.0, 0.0, 0.0, 0.0, 0.0, 0.0, 0.0, 0.0, 0.0, 1.747691548390494E9, 0.0, 2025-05-19 23:52:28.390
116.0, 21924.446156554957, 18603.87100027454, 48198.161804456926, 34402.106333030024, 44882.61579067896, 3105.8642990427375, 8052.506512702288, 8279.644939857119, 0.0, 0.0, 6616.764559360095, -27215.126420870594, 18448.727542010252, 5720.638420657924, -6772.511514724674, -30796.077048310883, 0.0565, -0.0025, 1.0295, 192.0, 0.0, 0.0, 0.0, 0.0, 0.0, 0.0, 0.0, 0.0, 0.0, 1.747691548397501E9, 0.0, 2025-05-19 23:52:28.397
118.0, 21916.66774948451, 18598.21600892735, 48194.876098021996, 34405.79437086515, 44882.235811023216, 3126.3608487082543, 8043.834035853629, 8265.049250727803, 0.0, 0.0, 6622.799530363028, -27210.253740579337, 18460.439856104837, 5735.748199909711, -6758.832247118026, -30781.05667603692, 0.058249999999999996, 7.5E-4, 1.02875, 192.0, 0.5, 112.0, 0.0, 16.0, 16.0, 16.0, 0.0, 0.0, 0.0, 1.747691548405501E9, 0.0, 2025-05-19 23:52:28.405
120.0, 21908.151734847037, 18587.24130239979, 48195.88192652249, 34389.63405962397, 44878.815994121556, 3103.8749937862153, 8035.3403729606125, 8269.653710085597, 0.0, 0.0, 6610.573126145974, -27224.87178145311, 18446.827643731554, 5714.245821743706, -6780.8934188954145, -30800.32387975739, 0.058249999999999996, 7.5E-4, 1.02875, 192.0, 0.0, 0.0, 0.0, 0.0, 0.0, 0.0, 0.0, 0.0, 0.0, 1.74769154841557E9, 0.0, 2025-05-19 23:52:28.415
122.0, 21916.064252384218, 18598.685395560908, 48199.65937133544, 34400.96639406281, 44891.89176462791, 3108.8370810552933, 8043.252890497791, 8257.58376807973, 0.0, 0.0, 6626.487568198153, -27215.171124359505, 18453.309649623592, 5727.388647483426, -6758.139343039911, -30791.13731278626, 0.058249999999999996, 7.5E-4, 1.02875, 192.0, 0.0, 0.0, 0.0, 0.0, 0.0, 0.0, 0.0, 0.0, 0.0, 1.747691548422556E9, 0.0, 2025-05-19 23:52:28.422
124.0, 21903.18964757796, 18580.982813952305, 48186.89652525145, 34386.63892586695, 44876.02202606464, 3109.0382467553914, 8010.306419170669, 8257.986099479926, 0.0, 0.0, 6614.887012825849, -27228.559819288235, 18451.02977168915, 5715.586926411024, -6776.892456637915, -30801.106190813327, 0.058249999999999996, 7.5E-4, 1.02875, 192.0, 0.0, 0.0, 0.0, 0.0, 0.0, 0.0, 0.0, 0.0, 0.0, 1.747691548429608E9, 0.0, 2025-05-19 23:52:28.429
126.0, 21918.701758229945, 18595.73496529281, 48197.84888003456, 34397.7700946057, 44885.365055246955, 3104.433787397598, 8066.185780308936, 8279.555532879298, 0.0, 0.0, 6613.456501180709, -27225.318816342213, 18442.334943096037, 5710.356618208482, -6774.590226959018, -30807.118810071806, 0.058249999999999996, 7.5E-4, 1.02875, 192.0, 0.0, 0.0, 0.0, 0.0, 0.0, 0.0, 0.0, 0.0, 0.0, 1.747691548437634E9, 0.0, 2025-05-19 23:52:28.437
128.0, 21923.082700143183, 18609.235418943816, 48187.09769095155, 34401.61459465201, 44885.9462006028, 3127.232566742011, 8036.614422394565, 8269.139619963124, 0.0, 0.0, 6627.471044954186, -27206.81157193322, 18464.731391040255, 5736.41875224337, -6755.501837194185, -30778.82150159139, 0.057124999999999995, 3.75E-4, 1.0273750000000001, 192.0, 0.5, 96.0, 0.0, 0.0, 16.0, 8.0, 0.0, 0.0, 0.0, 1.747691548446618E9, 0.0, 2025-05-19 23:52:28.446
130.0, 21898.339319031158, 18573.517331304232, 48187.34356014056, 34388.80704507912, 44871.05993879556, 3095.2919239153775, 8034.312192715668, 8276.850971800206, 0.0, 0.0, 6609.097911011924, -27229.923275700006, 18442.849033218507, 5707.4732431737475, -6790.258799822188, -30806.180036804682, 0.057124999999999995, 3.75E-4, 1.0273750000000001, 192.0, 0.0, 0.0, 0.0, 0.0, 0.0, 0.0, 0.0, 0.0, 0.0, 1.747691548452699E9, 0.0, 2025-05-19 23:52:28.452
132.0, 21914.38787155007, 18592.471610602333, 48202.54274637017, 34412.56694943511, 44886.23677328072, 3113.396836924176, 8064.598806452609, 8277.163896222579, 0.0, 0.0, 6625.124111786379, -27210.14198185706, 18453.108483923494, 5734.1835777978395, -6756.798238372593, -30784.47649293858, 0.057124999999999995, 3.75E-4, 1.0273750000000001, 192.0, 0.0, 0.0, 0.0, 0.0, 0.0, 0.0, 0.0, 0.0, 0.0, 1.747691548461735E9, 0.0, 2025-05-19 23:52:28.461
134.0, 21912.912656416018, 18581.563959308143, 48193.624400332505, 34394.30557421513, 44877.184316776315, 3096.856546027249, 8011.602820349076, 8253.024012210848, 0.0, 0.0, 6626.912251342804, -27215.729917970886, 18461.736257283243, 5733.0659905750745, -6766.633005932928, -30786.510501684013, 0.057124999999999995, 3.75E-4, 1.0273750000000001, 192.0, 0.0, 0.0, 0.0, 0.0, 0.0, 0.0, 0.0, 0.0, 0.0, 1.747691548469764E9, 0.0, 2025-05-19 23:52:28.469
136.0, 21933.677427014998, 18598.461878116355, 48203.43681614838, 34396.876024827485, 44885.588572691515, 3083.9372377320815, 8056.2392540263245, 8271.553608364298, 0.0, 0.0, 6619.759693117106, -27226.14583088706, 18443.69839950781, 5710.334266464027, -6777.272436293654, -30811.43269675168, 0.057124999999999995, 3.75E-4, 1.0273750000000001, 192.0, 0.0, 0.0, 0.0, 0.0, 0.0, 0.0, 0.0, 0.0, 0.0, 1.74769154847779E9, 0.0, 2025-05-19 23:52:28.477
138.0, 21923.127403632094, 18585.184941909905, 48190.98689448678, 34393.63502188147, 44883.37574999044, 3092.1850314360895, 8037.329678217135, 8263.149352449102, 0.0, 0.0, 6627.0463618095355, -27221.742537229366, 18456.41654210288, 5729.243842273217, -6761.000366330191, -30791.38318197527, 0.0575625, -0.0018125, 1.0296875, 192.0, 0.5, 104.0, 127.5, 112.0, 16.0, 32.0, 0.0, 0.0, 0.0, 1.747691548485769E9, 0.0, 2025-05-19 23:52:28.485
140.0, 21931.039921169275, 18594.885599003508, 48188.036464218676, 34379.17344321888, 44876.31259874256, 3063.7759642333945, 8018.956544274873, 8262.791724537818, 0.0, 0.0, 6611.914230813293, -27236.025301936308, 18441.642039017923, 5704.0087227831755, -6790.482317266741, -30813.6231677083, 0.0575625, -0.0018125, 1.0296875, 192.0, 0.0, 0.0, 0.0, 0.0, 0.0, 0.0, 0.0, 0.0, 0.0, 1.747691548493857E9, 0.0, 2025-05-19 23:52:28.493
142.0, 21937.030188683297, 18600.96527349535, 48190.763377042225, 34391.24338522475, 44886.97438084774, 3073.0966416712577, 8042.805855608685, 8260.556550092286, 0.0, 0.0, 6619.69263788374, -27226.838734965175, 18442.536108796136, 5715.944554322309, -6770.365747256965, -30803.7213449146, 0.0575625, -0.0018125, 1.0296875, 192.0, 0.0, 0.0, 0.0, 0.0, 0.0, 0.0, 0.0, 0.0, 0.0, 1.747691548501896E9, 0.0, 2025-05-19 23:52:28.501
144.0, 21927.754214734345, 18590.996395468283, 48183.968446727806, 34382.10152174253, 44877.810165621064, 3079.4892405854753, 8013.30155292768, 8265.272768172355, 0.0, 0.0, 6616.205765748712, -27233.633665279587, 18447.49819606521, 5715.6986851333, -6780.62519796195, -30800.01095533502, 0.0575625, -0.0018125, 1.0296875, 192.0, 0.0, 0.0, 0.0, 0.0, 0.0, 0.0, 0.0, 0.0, 0.0, 1.747691548508911E9, 0.0, 2025-05-19 23:52:28.508
146.0, 21937.320761361214, 18598.797154283187, 48188.39409212996, 34380.603954864026, 44887.26495352566, 3065.251179367445, 8038.380210206535, 8275.06283224378, 0.0, 0.0, 6613.2106319917, -27237.589924048178, 18434.13185288094, 5704.902792561387, -6786.302541053598, -30811.43269675168, 0.0575625, -0.0018125, 1.0296875, 192.0, 0.0, 0.0, 0.0, 0.0, 0.0, 0.0, 0.0, 0.0, 0.0, 1.747691548516959E9, 0.0, 2025-05-19 23:52:28.516
148.0, 21932.33632234768, 18590.97404372383, 48186.44949036235, 34386.258946211216, 44880.38061623342, 3076.5835138062853, 8030.713561858364, 8257.96374773547, 0.0, 0.0, 6619.446768694731, -27236.159412403038, 18446.917050709373, 5718.537356679125, -6773.562046714073, -30797.820484378397, 0.05878125, -0.00290625, 1.0278437500000002, 192.0, 0.5, 112.0, 127.5, 112.0, 16.0, 8.0, 0.0, 0.0, 0.0, 1.747691548525975E9, 0.0, 2025-05-19 23:52:28.525
150.0, 21927.82126996771, 18587.06248844415, 48182.00149321574, 34369.62924833647, 44874.27858999713, 3060.1549816316347, 8022.77869257673, 8267.77616355135, 0.0, 0.0, 6610.394312190332, -27244.407206107047, 18438.199870371805, 5702.019417526653, -6792.628084734451, -30813.176132819193, 0.05878125, -0.00290625, 1.0278437500000002, 192.0, 0.0, 0.0, 0.0, 0.0, 0.0, 0.0, 0.0, 0.0, 0.0, 1.747691548533026E9, 0.0, 2025-05-19 23:52:28.533
152.0, 21925.72020598891, 18589.25295940077, 48177.15116466894, 34376.22301295078, 44881.945238345295, 3060.110278142724, 8038.223747995347, 8258.58959658022, 0.0, 0.0, 6606.862736566393, -27244.742482273876, 18429.326227823047, 5703.94166754981, -6781.34045378452, -30815.76893517601, 0.05878125, -0.00290625, 1.0278437500000002, 192.0, 0.0, 0.0, 0.0, 0.0, 0.0, 0.0, 0.0, 0.0, 0.0, 1.747691548541037E9, 0.0, 2025-05-19 23:52:28.541
154.0, 21914.790202950266, 18576.937148205896, 48178.06758619161, 34370.34450415904, 44872.222229507235, 3069.3191968583105, 8008.719445314342, 8251.504093587888, 0.0, 0.0, 6606.236887721645, -27245.23422065189, 18438.557498283088, 5706.892097817909, -6787.330721298543, -30811.924435129695, 0.05878125, -0.00290625, 1.0278437500000002, 192.0, 0.0, 0.0, 0.0, 0.0, 0.0, 0.0, 0.0, 0.0, 0.0, 1.74769154855006E9, 0.0, 2025-05-19 23:52:28.550
156.0, 21917.427708795993, 18579.10526741806, 48179.363987370016, 34370.14333845894, 44871.88695334041, 3045.2463680799447, 8020.811739064663, 8251.079410443237, 0.0, 0.0, 6602.794719075528, -27249.81632826523, 18425.437024287825, 5688.407205153371, -6796.2714190806655, -30831.01282489453, 0.05878125, -0.00290625, 1.0278437500000002, 192.0, 0.0, 0.0, 0.0, 0.0, 0.0, 0.0, 0.0, 0.0, 0.0, 1.747691548558102E9, 0.0, 2025-05-19 23:52:28.558
158.0, 21921.71924373141, 18585.5872733101, 48183.02967346069, 34383.57673687658, 44874.63621790841, 3081.7020632865506, 8019.940021030906, 8246.609061552175, 0.0, 0.0, 6611.847175579927, -27236.96407520343, 18443.16195764088, 5704.567516394558, -6783.4191660188635, -30814.38312701978, 0.058390625, -0.001453125, 1.0269218750000002, 192.0, 0.5, 104.0, 0.0, 0.0, 16.0, 8.0, 0.0, 0.0, 0.0, 1.747691548565121E9, 0.0, 2025-05-19 23:52:28.565
160.0, 21920.489897786367, 18583.799133753673, 48179.76631877021, 34364.510698856204, 44864.22030499224, 3060.6467200096513, 8005.9925324907945, 8247.503131330388, 0.0, 0.0, 6612.607134891407, -27239.892153727076, 18442.446701818313, 5693.101071488985, -6796.96432315878, -30823.726156202098, 0.058390625, -0.001453125, 1.0269218750000002, 192.0, 0.0, 0.0, 0.0, 0.0, 0.0, 0.0, 0.0, 0.0, 0.0, 1.747691548573139E9, 0.0, 2025-05-19 23:52:28.573
162.0, 21917.91944717401, 18582.72625001982, 48177.37468211349, 34380.313382186105, 44878.34660748799, 3059.08209789778, 8035.742704360808, 8247.458427841477, 0.0, 0.0, 6606.214535977189, -27244.25074389586, 18429.706207478786, 5693.950437778287, -6788.895343410414, -30825.04490912496, 0.058390625, -0.001453125, 1.0269218750000002, 192.0, 0.0, 0.0, 0.0, 0.0, 0.0, 0.0, 0.0, 0.0, 0.0, 1.747691548582179E9, 0.0, 2025-05-19 23:52:28.582
164.0, 21915.371348306104, 18577.741811006286, 48178.447565847346, 34370.724483814774, 44862.96860730274, 3057.7409932304613, 7997.789442275696, 8238.741247503907, 0.0, 0.0, 6610.103739512413, -27241.277961883305, 18442.759626240688, 5705.282772217128, -6789.834116677537, -30812.72909793009, 0.058390625, -0.001453125, 1.0269218750000002, 192.0, 0.0, 0.0, 0.0, 0.0, 0.0, 0.0, 0.0, 0.0, 0.0, 1.74769154858925E9, 0.0, 2025-05-19 23:52:28.589
166.0, 21923.23916235437, 18585.20729365436, 48182.11325193802, 34372.80319604912, 44872.289284740604, 3069.6991765140506, 8028.321925201646, 8256.10855294568, 0.0, 0.0, 6607.063902266491, -27244.38485436259, 18428.74508246721, 5689.636551098412, -6796.003198147202, -30829.515258016025, 0.058390625, -0.001453125, 1.0269218750000002, 192.0, 0.0, 0.0, 0.0, 0.0, 0.0, 0.0, 0.0, 0.0, 0.0, 1.747691548597248E9, 0.0, 2025-05-19 23:52:28.597
168.0, 21923.216810609916, 18585.408459354458, 48180.906257737435, 34380.69336184184, 44873.18335451882, 3071.241446881467, 8021.951678031884, 8245.49147432941, 0.0, 0.0, 6617.032780293558, -27235.667674025022, 18444.257193119192, 5714.201118254795, -6773.4949914807075, -30806.224740293594, 0.0581953125, -0.0027265625, 1.0274609375000001, 192.0, 0.5, 104.0, 127.5, 112.0, 16.0, 16.0, 0.0, 0.0, 0.0, 1.747691548605277E9, 0.0, 2025-05-19 23:52:28.605
170.0, 21921.227505353392, 18586.10136343257, 48175.27361813469, 34366.23178317926, 44862.96860730274, 3050.879007682682, 8013.055683738671, 8246.050267940793, 0.0, 0.0, 6605.789852832539, -27249.078720698206, 18432.477823791247, 5691.402338910382, -6800.071215638068, -30827.369490548313, 0.0581953125, -0.0027265625, 1.0274609375000001, 192.0, 0.0, 0.0, 0.0, 0.0, 0.0, 0.0, 0.0, 0.0, 0.0, 1.74769154861431E9, 0.0, 2025-05-19 23:52:28.614
172.0, 21917.606522751634, 18579.82052324063, 48173.44077508936, 34374.4125216499, 44877.11726154295, 3045.469885524498, 8035.452131682889, 8243.993907450904, 0.0, 0.0, 6609.1426145008345, -27239.087490926682, 18430.64498074591, 5702.064121015564, -6779.418203761364, -30818.4734962551, 0.0581953125, -0.0027265625, 1.0274609375000001, 192.0, 0.0, 0.0, 0.0, 0.0, 0.0, 0.0, 0.0, 0.0, 0.0, 1.747691548621277E9, 0.0, 2025-05-19 23:52:28.621
174.0, 21905.00013887884, 18567.594119023575, 48162.60017902854, 34356.21820166328, 44861.672206124334, 3048.7779437038835, 7991.061567194649, 8235.120264902147, 0.0, 0.0, 6598.883163795849, -27258.108825458152, 18427.78395745563, 5695.336245934516, -6795.578515002551, -30822.317996301415, 0.0581953125, -0.0027265625, 1.0274609375000001, 192.0, 0.0, 0.0, 0.0, 0.0, 0.0, 0.0, 0.0, 0.0, 0.0, 1.747691548629356E9, 0.0, 2025-05-19 23:52:28.629
176.0, 21917.427708795993, 18581.943938963883, 48166.981120941775, 34365.31536165659, 44877.474889454235, 3043.3241180567884, 8026.39967517849, 8250.67707904304, 0.0, 0.0, 6593.563448615486, -27257.684142313497, 18413.79176542661, 5678.751251548678, -6805.72620698526, -30838.277141842504, 0.0581953125, -0.0027265625, 1.0274609375000001, 192.0, 0.0, 0.0, 0.0, 0.0, 0.0, 0.0, 0.0, 0.0, 0.0, 1.747691548637384E9, 0.0, 2025-05-19 23:52:28.637
178.0, 21917.29359832926, 18578.81469474014, 48169.6186267875, 34369.58454484756, 44873.07159579654, 3064.982958433981, 8011.245192437791, 8236.662535269563, 0.0, 0.0, 6599.844288807427, -27247.7823195198, 18428.879192933942, 5696.990275024209, -6789.923523655359, -30820.507505000536, 0.05909765625, -0.00436328125, 1.02973046875, 192.0, 0.5, 112.0, 127.5, 104.0, 16.0, 32.0, 0.0, 0.0, 0.0, 1.747691548645416E9, 0.0, 2025-05-19 23:52:28.645
180.0, 21911.75036570434, 18573.29381385968, 48160.32030109409, 34348.75271901521, 44869.092985283496, 3040.4854465109643, 7990.547477072178, 8235.455541068977, 0.0, 0.0, 6597.609114361896, -27260.142834203583, 18421.79368994161, 5677.7901265371, -6810.196555876321, -30838.18773486468, 0.05909765625, -0.00436328125, 1.02973046875, 192.0, 0.0, 0.0, 0.0, 0.0, 0.0, 0.0, 0.0, 0.0, 0.0, 1.747691548654406E9, 0.0, 2025-05-19 23:52:28.654
182.0, 21913.024415138294, 18576.557168550156, 48160.47676330528, 34360.95677148781, 44869.76353761715, 3039.3678592881993, 8012.295724427191, 8228.548852032287, 0.0, 0.0, 6596.245657950122, -27256.454796368456, 18415.6469602164, 5679.377100393427, -6800.339436571531, -30838.85828719834, 0.05909765625, -0.00436328125, 1.02973046875, 192.0, 0.0, 0.0, 0.0, 0.0, 0.0, 0.0, 0.0, 0.0, 0.0, 1.747691548662409E9, 0.0, 2025-05-19 23:52:28.662
184.0, 21913.471450027402, 18572.48915105929, 48166.10940290802, 34358.52043134218, 44855.21255197675, 3052.465981539009, 8004.360855145557, 8242.764561505863, 0.0, 0.0, 6594.546925371519, -27259.807558036755, 18424.27473357615, 5687.535487119614, -6803.692198239827, -30830.18581034968, 0.05909765625, -0.00436328125, 1.02973046875, 192.0, 0.0, 0.0, 0.0, 0.0, 0.0, 0.0, 0.0, 0.0, 0.0, 1.747691548670486E9, 0.0, 2025-05-19 23:52:28.670
186.0, 21923.753252476843, 18587.86715124454, 48176.32415012409, 34370.4115593924, 44875.97732257573, 3045.335775057766, 8037.910823572973, 8261.338861148222, 0.0, 0.0, 6599.285495196044, -27256.052464968263, 18418.955018395784, 5682.483992872714, -6798.931276670847, -30836.176077863704, 0.05909765625, -0.00436328125, 1.02973046875, 192.0, 0.0, 0.0, 0.0, 0.0, 0.0, 0.0, 0.0, 0.0, 0.0, 1.747691548677513E9, 0.0, 2025-05-19 23:52:28.677
188.0, 21917.785336707275, 18583.91089247595, 48169.573923298594, 34375.08307398356, 44873.22805800773, 3070.2803218698887, 8011.781634304719, 8243.3457068617, 0.0, 0.0, 6611.0201610350805, -27238.171069404016, 18440.189175628326, 5707.4732431737475, -6778.971168872258, -30809.80101940644, 0.058548828125, -0.002181640625, 1.0298652343749999, 192.0, 0.5, 104.0, 0.0, 0.0, 16.0, 24.0, 0.0, 0.0, 0.0, 1.747691548685527E9, 0.0, 2025-05-19 23:52:28.685
190.0, 21912.33151106018, 18576.95949995035, 48156.00641441422, 34353.87126849547, 44859.52643865663, 3050.1190483712016, 7995.218991663336, 8244.753866762385, 0.0, 0.0, 6588.556657857497, -27260.411055137047, 18419.893791662907, 5676.739594547701, -6815.560974545596, -30837.67364474221, 0.058548828125, -0.002181640625, 1.0298652343749999, 192.0, 0.0, 0.0, 0.0, 0.0, 0.0, 0.0, 0.0, 0.0, 0.0, 1.747691548693577E9, 0.0, 2025-05-19 23:52:28.693
192.0, 21922.30038908725, 18584.87201748753, 48171.76439425521, 34370.724483814774, 44876.714930142756, 3052.845961194749, 8030.244175224802, 8244.597404551198, 0.0, 0.0, 6597.631466106352, -27247.134118930593, 18423.671236475853, 5690.150641220885, -6793.119823112467, -30827.794173692964, 0.058548828125, -0.002181640625, 1.0298652343749999, 192.0, 0.0, 0.0, 0.0, 0.0, 0.0, 0.0, 0.0, 0.0, 0.0, 1.747691548701539E9, 0.0, 2025-05-19 23:52:28.701
194.0, 21921.160450120027, 18580.20050289637, 48159.11330689351, 34351.23376264975, 44862.49922066918, 3047.7721152033946, 7989.921628227428, 8240.01529693786, 0.0, 0.0, 6595.530402127552, -27263.652058083066, 18423.850050431498, 5693.525754633636, -6797.880744681447, -30825.022557380507, 0.058548828125, -0.002181640625, 1.0298652343749999, 192.0, 0.0, 0.0, 0.0, 0.0, 0.0, 0.0, 0.0, 0.0, 0.0, 1.747691548709629E9, 0.0, 2025-05-19 23:52:28.709
196.0, 21910.05163312574, 18573.04794467067, 48161.30377785013, 34359.95094298732, 44872.33398822951, 3029.6001469612297, 8024.209204221869, 8261.517675103865, 0.0, 0.0, 6590.635370091841, -27265.19432845048, 18409.88021014693, 5677.41014688136, -6808.229602364255, -30839.305322087446, 0.058548828125, -0.002181640625, 1.0298652343749999, 192.0, 0.0, 0.0, 0.0, 0.0, 0.0, 0.0, 0.0, 0.0, 0.0, 1.747691548717648E9, 0.0, 2025-05-19 23:52:28.717
198.0, 21910.655130226034, 18580.468723829832, 48176.05592919063, 34386.05778051112, 44863.72856661422, 3065.0276619228916, 8015.022637250739, 8253.627509311142, 0.0, 0.0, 6597.966742273181, -27240.830926994196, 18431.69551273531, 5705.729807106234, -6786.950741642802, -30810.180999062184, 0.0592744140625, -0.0030908203125, 1.0299326171874998, 192.0, 0.5, 112.0, 127.5, 112.0, 16.0, 24.0, 0.0, 0.0, 0.0, 1.7476915487257E9, 0.0, 2025-05-19 23:52:28.725
200.0, 21925.4743367999, 18587.86715124454, 48186.0248072177, 34376.80415830662, 44863.50504916967, 3073.1636969046235, 8007.691265069398, 8261.49532335941, 0.0, 0.0, 6601.54302138603, -27243.96017121794, 18432.187251113326, 5694.9115627898655, -6800.697064482816, -30820.306339300438, 0.0592744140625, -0.0030908203125, 1.0299326171874998, 192.0, 0.0, 0.0, 0.0, 0.0, 0.0, 0.0, 0.0, 0.0, 0.0, 1.747691548734669E9, 0.0, 2025-05-19 23:52:28.734
202.0, 21922.456851298437, 18586.973081466327, 48184.05785370563, 34382.79442582064, 44887.063787825566, 3043.435876779065, 8023.717465843853, 8250.25239589839, 0.0, 0.0, 6619.066789038991, -27231.66671176752, 18440.32328609506, 5712.41297869837, -6772.399756002397, -30808.102286827838, 0.0592744140625, -0.0030908203125, 1.0299326171874998, 192.0, 0.0, 0.0, 0.0, 0.0, 0.0, 0.0, 0.0, 0.0, 0.0, 1.747691548741749E9, 0.0, 2025-05-19 23:52:28.741
204.0, 21917.91944717401, 18577.02655518372, 48172.16672565541, 34368.288143669146, 44872.579857418525, 3050.051993137836, 7991.665064294943, 8244.306831873278, 0.0, 0.0, 6602.191221975234, -27249.59281082068, 18436.389379070926, 5704.813385583567, -6790.214096333278, -30815.09838284235, 0.0592744140625, -0.0030908203125, 1.0299326171874998, 192.0, 0.0, 0.0, 0.0, 0.0, 0.0, 0.0, 0.0, 0.0, 0.0, 1.747691548751795E9, 0.0, 2025-05-19 23:52:28.751
206.0, 21922.568610020713, 18581.96629070834, 48175.54183906816, 34372.28910592665, 44880.961761589264, 3025.308612025811, 8012.139262216004, 8251.30292788779, 0.0, 0.0, 6591.775309059061, -27261.461587126447, 18417.12217535045, 5685.322664418539, -6803.334570328542, -30833.829144695897, 0.0592744140625, -0.0030908203125, 1.0299326171874998, 192.0, 0.0, 0.0, 0.0, 0.0, 0.0, 0.0, 0.0, 0.0, 0.0, 1.74769154875778E9, 0.0, 2025-05-19 23:52:28.757
208.0, 21941.746406763366, 18604.832125286117, 48197.334789912085, 34402.59807140804, 44883.196936034794, 3068.7380515024724, 8008.384169147512, 8256.801457023796, 0.0, 0.0, 6626.934603087259, -27225.72114774241, 18453.64492579042, 5722.3818567254375, -6769.136401311923, -30797.306394255927, 0.05963720703125, -0.0045454101562500005, 1.03096630859375, 192.0, 0.5, 112.0, 127.5, 104.0, 16.0, 32.0, 0.0, 0.0, 0.0, 1.747691548765817E9, 0.0, 2025-05-19 23:52:28.765
210.0, 21931.509307802833, 18599.4900583613, 48197.64771433446, 34387.4659404118, 44875.373825475435, 3053.203589106034, 8009.4570528813665, 8260.243625669913, 0.0, 0.0, 6623.805358863517, -27221.8766476961, 18455.32130662457, 5714.446987443804, -6783.709738696783, -30801.843798380352, 0.05963720703125, -0.0045454101562500005, 1.03096630859375, 192.0, 0.0, 0.0, 0.0, 0.0, 0.0, 0.0, 0.0, 0.0, 0.0, 1.747691548774852E9, 0.0, 2025-05-19 23:52:28.774
212.0, 21927.01660716732, 18593.656253058463, 48179.855725748035, 34381.31921068659, 44884.40393023538, 3045.916920413604, 8011.379302904524, 8247.39137260811, 0.0, 0.0, 6611.087216268446, -27233.52190655731, 18437.819890716066, 5709.306086219083, -6775.752517670694, -30811.835028151876, 0.05963720703125, -0.0045454101562500005, 1.03096630859375, 192.0, 0.0, 0.0, 0.0, 0.0, 0.0, 0.0, 0.0, 0.0, 0.0, 1.747691548781851E9, 0.0, 2025-05-19 23:52:28.781
214.0, 21923.373272821103, 18586.369584366035, 48183.49906009425, 34374.09959722753, 44870.52349692863, 3054.567045517808, 8009.211183692359, 8249.78300926483, 0.0, 0.0, 6608.427358678265, -27249.548107331768, 18439.004533172196, 5708.4120164408705, -6783.374462529953, -30810.896254884752, 0.05963720703125, -0.0045454101562500005, 1.03096630859375, 192.0, 0.0, 0.0, 0.0, 0.0, 0.0, 0.0, 0.0, 0.0, 0.0, 1.747691548790929E9, 0.0, 2025-05-19 23:52:28.790
216.0, 21938.639514284077, 18601.993453740295, 48197.178327700894, 34390.68459161337, 44880.58178193352, 3044.5087605129197, 8028.053704268183, 8265.87626527265, 0.0, 0.0, 6616.608097148907, -27236.29352286977, 18437.79753897161, 5704.142833249907, -6779.686424694828, -30814.29372004196, 0.05963720703125, -0.0045454101562500005, 1.03096630859375, 192.0, 0.0, 0.0, 0.0, 0.0, 0.0, 0.0, 0.0, 0.0, 0.0, 1.747691548797937E9, 0.0, 2025-05-19 23:52:28.797
218.0, 21925.6755025, 18593.723308291832, 48179.11811818101, 34383.95671653232, 44879.911229599864, 3055.9975571629475, 8001.388073133001, 8239.501206815386, 0.0, 0.0, 6617.636277393852, -27229.364482088626, 18448.906355965897, 5714.022304299153, -6773.629101947439, -30801.933205358175, 0.05963720703125, -0.0045454101562500005, 1.03096630859375, 192.0, 0.0, 0.0, 0.0, 0.0, 0.0, 0.0, 0.0, 0.0, 0.0, 1.747691548805929E9, 0.0, 2025-05-19 23:52:28.805
220.0, 21915.61721749511, 18582.569787808632, 48160.566170283106, 34361.5602685881, 44883.062825568064, 3027.163806815601, 7979.237494377791, 8236.148445147091, 0.0, 0.0, 6596.513878883587, -27248.497575342368, 18431.114367379472, 5684.339187662505, -6808.117843641979, -30829.425851038202, 0.06, -0.004, 1.032, 192.0, 0.5, 112.0, 127.5, 112.0, 16.0, 32.0, 0.0, 0.0, 0.0, 1.747691548812982E9, 0.0, 2025-05-19 23:52:28.812
222.0, 21948.6307440556, 18609.749509066285, 48204.5767551156, 34395.75843760472, 44894.12693907344, 3053.8964931841488, 8020.744683831297, 8255.10272444519, 0.0, 0.0, 6613.523556414075, -27231.040862922775, 18441.59733552901, 5701.862955315466, -6784.715567197271, -30814.96427237562, 0.06, -0.004, 1.032, 192.0, 0.0, 0.0, 0.0, 0.0, 0.0, 0.0, 0.0, 0.0, 0.0, 1.747691548822049E9, 0.0, 2025-05-19 23:52:28.822
224.0, 21925.51904028881, 18593.87977050302, 48176.23474314627, 34375.10542572802, 44875.41852896435, 3060.758478731928, 7975.169476886926, 8244.038610939815, 0.0, 0.0, 6624.699428641728, -27233.208982134936, 18455.343658369024, 5714.2234699992505, -6778.814706661071, -30801.642632680254, 0.06, -0.004, 1.032, 192.0, 0.0, 0.0, 0.0, 0.0, 0.0, 0.0, 0.0, 0.0, 0.0, 1.747691548830014E9, 0.0, 2025-05-19 23:52:28.830
226.0, 21940.695874773966, 18601.85934327356, 48187.16474618492, 34377.54176587365, 44882.571087190045, 3035.568062730797, 8020.051779753182, 8264.579864094241, 0.0, 0.0, 6600.82776556346, -27243.177860162006, 18430.555573768088, 5691.201173210285, -6796.159660358389, -30824.66492946922, 0.06, -0.004, 1.032, 192.0, 0.0, 0.0, 0.0, 0.0, 0.0, 0.0, 0.0, 0.0, 0.0, 1.747691548839081E9, 0.0, 2025-05-19 23:52:28.839
228.0, 21925.76490947782, 18591.39872686848, 48171.36206285501, 34375.641867594946, 44882.90636335687, 3046.654527980629, 7998.214125420347, 8247.793704008307, 0.0, 0.0, 6615.602268648418, -27233.901886213054, 18447.11821640947, 5709.909583319376, -6779.395852016909, -30806.425905993692, 0.06, -0.004, 1.032, 192.0, 0.0, 0.0, 0.0, 0.0, 0.0, 0.0, 0.0, 0.0, 0.0, 1.74769154884613E9, 0.0, 2025-05-19 23:52:28.846
230.0, 21927.262476356325, 18589.11884893404, 48177.888772235965, 34367.729350057765, 44869.83059285052, 3023.945155614037, 8001.343369644091, 8257.136733190624, 0.0, 0.0, 6603.35351268691, -27245.4800898409, 18432.902506935898, 5689.703606331779, -6803.535736028641, -30823.212066079628, 0.058, -0.006, 1.034, 192.0, 0.5, 104.0, 127.5, 104.0, 16.0, 40.0, 0.0, 0.0, 0.0, 1.747691548853117E9, 0.0, 2025-05-19 23:52:28.853
232.0, 21940.941743962972, 18603.513372363257, 48186.561249084625, 34383.50968164321, 44893.188165806314, 3048.6438332371513, 8037.977878806339, 8269.16197170758, 0.0, 0.0, 6606.59451563293, -27244.943647973974, 18429.728559223244, 5699.672484358845, -6783.530924741141, -30815.18778982017, 0.058, -0.006, 1.034, 192.0, 0.0, 0.0, 0.0, 0.0, 0.0, 0.0, 0.0, 0.0, 0.0, 1.747691548864161E9, 0.0, 2025-05-19 23:52:28.864
234.0, 21927.44129031197, 18585.922549476927, 48175.0724524346, 34367.438777379844, 44874.949142330785, 3043.2570628234225, 7991.977988717317, 8251.928776732539, 0.0, 0.0, 6613.858832580904, -27243.64724679557, 18442.022018673662, 5706.378007695438, -6786.302541053598, -30807.09645832735, 0.058, -0.006, 1.034, 192.0, 0.0, 0.0, 0.0, 0.0, 0.0, 0.0, 0.0, 0.0, 0.0, 1.747691548872162E9, 0.0, 2025-05-19 23:52:28.872
236.0, 21940.852336985154, 18602.552247351676, 48188.19292642986, 34378.43583565186, 44879.218325521746, 3035.992745875448, 8022.242250709803, 8265.87626527265, 0.0, 0.0, 6607.533288900053, -27241.479127583403, 18431.114367379472, 5694.308065689572, -6790.05763412209, -30820.686318956177, 0.058, -0.006, 1.034, 192.0, 0.0, 0.0, 0.0, 0.0, 0.0, 0.0, 0.0, 0.0, 0.0, 1.747691548878225E9, 0.0, 2025-05-19 23:52:28.878
238.0, 21935.510270060335, 18604.36273865256, 48168.34457735355, 34370.97035300379, 44875.97732257573, 3058.813876964316, 7990.748642772275, 8246.92198597455, 0.0, 0.0, 6610.394312190332, -27237.992255448375, 18439.585678528034, 5709.440196685815, -6775.953683370792, -30806.448257738146, 0.058, -0.006, 1.034, 192.0, 0.0, 0.0, 0.0, 0.0, 0.0, 0.0, 0.0, 0.0, 0.0, 1.747691548887256E9, 0.0, 2025-05-19 23:52:28.887
240.0, 21937.656037528042, 18593.20921816936, 48190.38339738648, 34368.89164076944, 44876.6925783983, 3027.3649725156993, 7989.876924738518, 8257.404954124087, 0.0, 0.0, 6598.167907973279, -27253.705531800453, 18426.35344581049, 5688.206039453273, -6801.546430772118, -30825.84957192535, 0.058, -0.006, 1.034, 192.0, 0.5, 104.0, 127.5, 104.0, 16.0, 40.0, 0.0, 0.0, 0.0, 1.747691548894272E9, 0.0, 2025-05-19 23:52:28.894
242.0, 21928.402415323548, 18587.844799500086, 48182.60499031604, 34375.060722239105, 44894.93160187383, 3025.4874259814533, 8015.87200354004, 8242.473988827944, 0.0, 0.0, 6621.860757095905, -27240.76387176083, 18437.529318038145, 5710.222507741751, -6768.421145489353, -30809.19752230615, 0.058, -0.006, 1.034, 192.0, 0.0, 0.0, 0.0, 0.0, 0.0, 0.0, 0.0, 0.0, 0.0, 1.74769154890129E9, 0.0, 2025-05-19 23:52:28.901
244.0, 21931.889287458576, 18584.290872131693, 48180.01218795922, 34363.50487035571, 44877.07255805404, 3030.091885339247, 7973.917779197429, 8230.113474144158, 0.0, 0.0, 6600.73835858564, -27253.72788354491, 18433.88598369193, 5695.895039545899, -6792.449270778808, -30822.183885834682, 0.058, -0.006, 1.034, 192.0, 0.0, 0.0, 0.0, 0.0, 0.0, 0.0, 0.0, 0.0, 0.0, 1.747691548910354E9, 0.0, 2025-05-19 23:52:28.910
246.0, 21939.24301138437, 18590.16938092344, 48196.53012711169, 34374.68074258337, 44890.66241868286, 3017.7760741443726, 8015.670837839943, 8252.956956977481, 0.0, 0.0, 6624.610021663907, -27245.793014263276, 18437.350504082504, 5694.419824411849, -6786.168430586867, -30825.469592269612, 0.058, -0.006, 1.034, 192.0, 0.0, 0.0, 0.0, 0.0, 0.0, 0.0, 0.0, 0.0, 0.0, 1.747691548919355E9, 0.0, 2025-05-19 23:52:28.919
248.0, 21917.271246584805, 18565.314241089134, 48174.64776928995, 34366.56705934609, 44883.2416395237, 3023.632231191663, 8000.404596376968, 8231.38752357811, 0.0, 0.0, 6610.528422657064, -27249.503403842857, 18437.864594204973, 5707.875574573944, -6774.76904091466, -30812.259711296527, 0.058, -0.006, 1.034, 192.0, 0.0, 0.0, 0.0, 0.0, 0.0, 0.0, 0.0, 0.0, 0.0, 1.747691548926366E9, 0.0, 2025-05-19 23:52:28.926
250.0, 21937.63368578359, 18582.458029086356, 48178.78284201418, 34365.337713401044, 44884.71685465775, 3019.005420089414, 7981.875000223518, 8239.031820181826, 0.0, 0.0, 6602.794719075528, -27268.412979652046, 18422.955980653285, 5682.528696361625, -6803.401625561908, -30833.516220273523, 0.056, -0.006, 1.034, 192.0, 0.5, 96.0, 127.5, 104.0, 16.0, 40.0, 0.0, 0.0, 0.0, 1.747691548933475E9, 0.0, 2025-05-19 23:52:28.933
252.0, 21929.43059556849, 18578.72528776232, 48183.47670834979, 34375.08307398356, 44890.3941977494, 3012.791635130839, 8006.484270868811, 8240.149407404591, 0.0, 0.0, 6616.876318082371, -27238.551049059755, 18436.478786048745, 5702.913487304865, -6777.1383258269225, -30813.91374038622, 0.056, -0.006, 1.034, 192.0, 0.0, 0.0, 0.0, 0.0, 0.0, 0.0, 0.0, 0.0, 0.0, 1.747691548941429E9, 0.0, 2025-05-19 23:52:28.941
254.0, 21930.883458958087, 18583.4862093313, 48181.39799611545, 34368.60106809152, 44885.18624129132, 3023.78869340285, 7976.667043765431, 8232.43805556751, 0.0, 0.0, 6610.237849979145, -27252.744406788875, 18439.160995383383, 5700.208926225773, -6787.48718350973, -30817.311205543425, 0.056, -0.006, 1.034, 192.0, 0.0, 0.0, 0.0, 0.0, 0.0, 0.0, 0.0, 0.0, 0.0, 1.747691548949451E9, 0.0, 2025-05-19 23:52:28.949
0.0, 21944.830947498198, 18587.554226822165, 48198.385321901485, 34376.692399584346, 44883.196936034794, 3029.5777952167746, 7998.214125420347, 8244.195073151002, 0.0, 0.0, 6631.40495197832, -27243.356674117647, 18441.37381808446, 5695.872687801443, -6785.274360808655, -30822.653272468244, 0.056, -0.006, 1.034, 192.0, 0.0, 0.0, 0.0, 0.0, 0.0, 0.0, 0.0, 0.0, 0.0, 1.747691548956474E9, 0.0, 2025-05-19 23:52:28.956
2.0, 21926.658979256033, 18575.081953416106, 48174.62541754549, 34369.24926868072, 44887.42141573685, 3015.339733998744, 7994.101404440571, 8229.420570066044, 0.0, 0.0, 6609.589649389941, -27250.5315840878, 18438.31162909408, 5706.5344699066245, -6775.730165926238, -30813.131429330282, 0.056, -0.006, 1.034, 192.0, 0.0, 0.0, 0.0, 0.0, 0.0, 0.0, 0.0, 0.0, 0.0, 1.747691548965522E9, 0.0, 2025-05-19 23:52:28.965
4.0, 21935.53262180479, 18579.66406102944, 48187.678836307394, 34369.29397216964, 44878.77129063264, 3007.248402505923, 7990.05573869416, 8242.496340572397, 0.0, 0.0, 6612.763597102595, -27260.25459292586, 18430.488518534723, 5689.636551098412, -6794.885610924436, -30827.615359737323, 0.058, -0.004, 1.034, 192.0, 0.5, 104.0, 127.5, 112.0, 16.0, 40.0, 0.0, 0.0, 0.0, 1.747691548973587E9, 0.0, 2025-05-19 23:52:28.973
6.0, 21942.729883519398, 18589.834104756606, 48183.63317056098, 34374.34546641653, 44895.870375140956, 3007.606030417208, 7997.275352153225, 8231.879261956128, 0.0, 0.0, 6613.858832580904, -27252.25266841086, 18433.394245313913, 5699.6054291254795, -6777.093622338012, -30819.501676500047, 0.058, -0.004, 1.034, 192.0, 0.0, 0.0, 0.0, 0.0, 0.0, 0.0, 0.0, 0.0, 0.0, 1.747691548982594E9, 0.0, 2025-05-19 23:52:28.982
8.0, 21936.314932860725, 18585.25199714327, 48180.70509203734, 34370.65742858141, 44873.295113241096, 3017.5525566998194, 7962.38427905849, 8226.604250264674, 0.0, 0.0, 6614.216460492189, -27254.28667715629, 18441.351466340002, 5698.443138413803, -6788.448308521308, -30819.076993355397, 0.058, -0.004, 1.034, 192.0, 0.0, 0.0, 0.0, 0.0, 0.0, 0.0, 0.0, 0.0, 0.0, 1.747691548990625E9, 0.0, 2025-05-19 23:52:28.990
10.0, 21949.59186906718, 18600.16061069496, 48181.15212692644, 34376.871213539984, 44890.349494260496, 3009.081245551258, 7982.433793834901, 8236.886052714117, 0.0, 0.0, 6616.116358770891, -27240.070967682717, 18440.591507028523, 5690.865897043454, -6790.705834711294, -30827.682414970688, 0.058, -0.004, 1.034, 192.0, 0.0, 0.0, 0.0, 0.0, 0.0, 0.0, 0.0, 0.0, 0.0, 1.747691548998665E9, 0.0, 2025-05-19 23:52:28.998
12.0, 21943.087511430684, 18594.527971092222, 48186.6730078069, 34383.599088621035, 44889.96951460475, 3021.3970567461324, 7978.544590299677, 8234.315602101757, 0.0, 0.0, 6612.45067268022, -27241.881458983597, 18444.59246928602, 5703.002894282687, -6783.799145674604, -30814.539589230968, 0.058, -0.004, 1.034, 192.0, 0.0, 0.0, 0.0, 0.0, 0.0, 0.0, 0.0, 0.0, 0.0, 1.747691549007684E9, 0.0, 2025-05-19 23:52:29.007
14.0, 21945.769720765322, 18602.976930496327, 48194.83139453309, 34383.19675722084, 44876.80433712058, 3016.5690799437857, 7963.971252914817, 8250.699430787496, 0.0, 0.0, 6620.609059406407, -27242.95434271745, 18445.66535301988, 5697.437309913315, -6794.796203946616, -30816.707708443133, 0.06, -0.006, 1.036, 192.0, 0.5, 112.0, 127.5, 104.0, 16.0, 48.0, 0.0, 0.0, 0.0, 1.747691549014745E9, 0.0, 2025-05-19 23:52:29.014
16.0, 21963.20408144046, 18610.285950933212, 48212.33281044159, 34410.778809878684, 44903.73818918922, 3030.918899884093, 8011.379302904524, 8255.929738990038, 0.0, 0.0, 6644.056039340025, -27216.691042982467, 18463.658507306398, 5728.03684807263, -6759.212226773767, -30789.550338929934, 0.06, -0.006, 1.036, 192.0, 0.0, 0.0, 0.0, 0.0, 0.0, 0.0, 0.0, 0.0, 0.0, 1.747691549021712E9, 0.0, 2025-05-19 23:52:29.021
18.0, 21955.53743309229, 18605.5920845976, 48199.25703993524, 34396.16076900491, 44882.705197656775, 3030.784789417361, 7959.9702906573175, 8242.943375461504, 0.0, 0.0, 6627.1581205318125, -27231.62200827861, 18464.99961197372, 5728.1933102838175, -6768.778773400638, -30789.304469740924, 0.06, -0.006, 1.036, 192.0, 0.0, 0.0, 0.0, 0.0, 0.0, 0.0, 0.0, 0.0, 0.0, 1.747691549029738E9, 0.0, 2025-05-19 23:52:29.029
20.0, 21957.370276137626, 18610.800041055685, 48203.190946959374, 34402.97805106379, 44902.017104866165, 3020.570042201286, 7995.643674807987, 8269.20667519649, 0.0, 0.0, 6643.094914328446, -27225.788202975775, 18462.183292172347, 5720.303144491094, -6770.186933301322, -30795.89823435524, 0.06, -0.006, 1.036, 192.0, 0.0, 0.0, 0.0, 0.0, 0.0, 0.0, 0.0, 0.0, 0.0, 1.747691549037742E9, 0.0, 2025-05-19 23:52:29.037
22.0, 21966.534491364302, 18617.237343458815, 48200.329923669095, 34406.66608889891, 44905.21340432327, 3050.5213797713973, 7981.360910101046, 8249.671250542551, 0.0, 0.0, 6646.671193441295, -27211.617196991112, 18477.360126657502, 5742.364316268482, -6752.976090070736, -30773.6135451333, 0.06, -0.006, 1.036, 192.0, 0.0, 0.0, 0.0, 0.0, 0.0, 0.0, 0.0, 0.0, 0.0, 1.74769154904473E9, 0.0, 2025-05-19 23:52:29.044
24.0, 21942.238145141382, 18600.02650022823, 48185.801289773146, 34380.447492652835, 44878.50306969918, 3033.5787574742744, 7969.983872173295, 8247.860759241672, 0.0, 0.0, 6609.030855778558, -27246.709435785942, 18445.285373364135, 5705.282772217128, -6787.442480020819, -30810.09159208436, 0.06, -0.008, 1.036, 192.0, 0.5, 112.0, 127.5, 96.0, 16.0, 48.0, 0.0, 0.0, 0.0, 1.74769154905379E9, 0.0, 2025-05-19 23:52:29.053
26.0, 21948.20606091095, 18600.942921750895, 48186.60595257353, 34385.47663515528, 44889.16485180436, 3004.8344141047496, 8004.24909642328, 8245.402067351588, 0.0, 0.0, 6624.230042008167, -27234.81830773572, 18447.431140831846, 5713.3964554544045, -6769.136401311923, -30803.877807125788, 0.06, -0.008, 1.036, 192.0, 0.0, 0.0, 0.0, 0.0, 0.0, 0.0, 0.0, 0.0, 0.0, 1.747691549061773E9, 0.0, 2025-05-19 23:52:29.061
28.0, 21938.371293350614, 18587.084840188603, 48187.50002235175, 34377.05002749563, 44877.966627832255, 3016.5243764548754, 7971.280273351703, 8243.166892906058, 0.0, 0.0, 6625.124111786379, -27240.71916827192, 18456.32713512506, 5713.195289754306, -6778.613540960973, -30804.503655970533, 0.06, -0.008, 1.036, 192.0, 0.0, 0.0, 0.0, 0.0, 0.0, 0.0, 0.0, 0.0, 0.0, 1.74769154906982E9, 0.0, 2025-05-19 23:52:29.069
30.0, 21938.125424161604, 18589.834104756606, 48174.893638478956, 34373.92078327188, 44880.38061623342, 2997.6148006456856, 7989.541648571689, 8256.10855294568, 0.0, 0.0, 6612.696541869229, -27248.20700266445, 18434.98121917024, 5691.000007510186, -6790.035282377635, -30822.832086423885, 0.06, -0.008, 1.036, 192.0, 0.0, 0.0, 0.0, 0.0, 0.0, 0.0, 0.0, 0.0, 0.0, 1.747691549078846E9, 0.0, 2025-05-19 23:52:29.078
32.0, 21944.87565098711, 18596.36081413756, 48189.288161908175, 34381.40861766441, 44897.323238530545, 3020.726504412473, 7996.224820163825, 8245.200901651491, 0.0, 0.0, 6615.512861670597, -27244.787185762787, 18443.497233807713, 5704.388702438915, -6775.283131037132, -30809.4210397507, 0.06, -0.008, 1.036, 192.0, 0.0, 0.0, 0.0, 0.0, 0.0, 0.0, 0.0, 0.0, 0.0, 1.747691549086873E9, 0.0, 2025-05-19 23:52:29.086
34.0, 21925.09435714416, 18583.642671542486, 48167.606969786524, 34355.72646328527, 44859.28056946761, 3008.0307135618586, 7965.29000583768, 8245.2456051404, 0.0, 0.0, 6612.875355824871, -27253.50436610036, 18437.708131993786, 5684.808574296067, -6795.936142913836, -30830.58814174988, 0.056, -0.008, 1.032, 192.0, 0.5, 96.0, 127.5, 96.0, 16.0, 32.0, 0.0, 0.0, 0.0, 1.74769154909591E9, 0.0, 2025-05-19 23:52:29.095
36.0, 21949.413055111534, 18604.630959586022, 48182.292065893664, 34379.62047810799, 44927.743962734225, 3027.5884899602524, 8018.733026830319, 8258.67900355804, 0.0, 0.0, 6602.727663842162, -27250.5315840878, 18432.03078890214, 5701.773548337645, -6773.115011824967, -30814.33842353087, 0.056, -0.008, 1.032, 192.0, 0.0, 0.0, 0.0, 0.0, 0.0, 0.0, 0.0, 0.0, 0.0, 1.747691549102961E9, 0.0, 2025-05-19 23:52:29.102
38.0, 21940.71822651842, 18596.36081413756, 48183.94609498335, 34377.720579829285, 44870.03175855062, 3023.1628445581014, 7974.074241408616, 8246.229081896434, 0.0, 0.0, 6619.156196016812, -27258.466453369434, 18445.17361464186, 5708.4120164408705, -6775.685462437327, -30809.085763583873, 0.056, -0.008, 1.032, 192.0, 0.0, 0.0, 0.0, 0.0, 0.0, 0.0, 0.0, 0.0, 0.0, 1.747691549109948E9, 0.0, 2025-05-19 23:52:29.109
40.0, 21950.39653186757, 18602.038157229206, 48198.362970157024, 34391.42219918039, 44883.2416395237, 3009.6400391626407, 8010.82050929314, 8266.613872839675, 0.0, 0.0, 6620.005562306114, -27226.883438454086, 18442.6031640295, 5702.4217489268485, -6773.584398458529, -30810.85155139584, 0.056, -0.008, 1.032, 192.0, 0.0, 0.0, 0.0, 0.0, 0.0, 0.0, 0.0, 0.0, 0.0, 1.747691549118E9, 0.0, 2025-05-19 23:52:29.118
42.0, 21933.58802003718, 18594.170343180936, 48169.39510934295, 34380.022809508184, 44912.634183482434, 3032.684687696062, 7991.5533055726655, 8245.983212707426, 0.0, 0.0, 6613.16592850279, -27237.902848470552, 18443.452530318802, 5719.230260757239, -6761.492104708208, -30795.00416457703, 0.056, -0.008, 1.032, 192.0, 0.0, 0.0, 0.0, 0.0, 0.0, 0.0, 0.0, 0.0, 0.0, 1.747691549125063E9, 0.0, 2025-05-19 23:52:29.125
44.0, 21942.01462769683, 18594.48326760331, 48190.62926657549, 34371.12681521497, 44875.6420464089, 3014.490367709442, 7984.713671769342, 8247.994869708404, 0.0, 0.0, 6615.423454692776, -27249.01166546484, 18441.17265238436, 5699.896001803399, -6781.496915995707, -30815.61247296482, 0.056, -0.01, 1.03, 192.0, 0.5, 96.0, 127.5, 88.0, 16.0, 24.0, 0.0, 0.0, 0.0, 1.747691549133106E9, 0.0, 2025-05-19 23:52:29.133
46.0, 21947.15552892155, 18605.323863664136, 48187.0753392071, 34390.95281254683, 44894.30575302908, 3045.715754713506, 8005.880773768517, 8256.935567490527, 0.0, 0.0, 6604.7393208431395, -27247.96113347544, 18432.097844135507, 5706.735635606723, -6768.443497233809, -30809.711612428622, 0.056, -0.01, 1.03, 192.0, 0.0, 0.0, 0.0, 0.0, 0.0, 0.0, 0.0, 0.0, 0.0, 1.74769154914212E9, 0.0, 2025-05-19 23:52:29.142
48.0, 21950.57534582321, 18599.333596150114, 48195.16667069992, 34384.80608282162, 44895.53509897412, 3034.964565630504, 7973.336633841591, 8241.87049172765, 0.0, 0.0, 6627.627507165374, -27230.39266233357, 18462.540920083633, 5722.538318936625, -6762.632043675429, -30794.445370965648, 0.056, -0.01, 1.03, 192.0, 0.0, 0.0, 0.0, 0.0, 0.0, 0.0, 0.0, 0.0, 0.0, 1.747691549150152E9, 0.0, 2025-05-19 23:52:29.150
50.0, 21965.86393903064, 18625.954523796383, 48213.31628719763, 34407.2695859992, 44907.49328225771, 3014.177443287068, 8014.530898872722, 8260.690660559017, 0.0, 0.0, 6639.540986960053, -27226.369348331613, 18456.79652175862, 5709.283734474628, -6766.543598955107, -30808.482266483577, 0.056, -0.01, 1.03, 192.0, 0.0, 0.0, 0.0, 0.0, 0.0, 0.0, 0.0, 0.0, 0.0, 1.74769154915822E9, 0.0, 2025-05-19 23:52:29.158
52.0, 21941.76875850782, 18603.893352018997, 48195.14431895546, 34395.51256841571, 44904.58755547852, 3033.2658330519002, 7988.245247393281, 8238.808302737272, 0.0, 0.0, 6633.573071190485, -27224.201229119448, 18463.055010206106, 5726.6063364274905, -6753.1325522819225, -30791.00320231953, 0.056, -0.01, 1.03, 192.0, 0.0, 0.0, 0.0, 0.0, 0.0, 0.0, 0.0, 0.0, 0.0, 1.747691549167232E9, 0.0, 2025-05-19 23:52:29.167
54.0, 21952.363485379636, 18604.072165974638, 48194.026731732694, 34385.85661481102, 44908.63322122493, 3024.280431780867, 7977.695224010376, 8249.335974375723, 0.0, 0.0, 6627.113417042901, -27227.285769854283, 18459.21051015979, 5711.384798453427, -6771.729203668739, -30805.397725748746, 0.058, -0.006, 1.03, 192.0, 0.5, 104.0, 127.5, 104.0, 16.0, 24.0, 0.0, 0.0, 0.0, 1.747691549191331E9, 0.0, 2025-05-19 23:52:29.191
56.0, 21958.24199417138, 18617.907895792472, 48207.7283510838, 34414.15392329144, 44906.50980550168, 3037.2667953094, 7994.324921885124, 8250.364154620667, 0.0, 0.0, 6622.620716407385, -27230.929104200495, 18451.633268789443, 5716.257478744684, -6764.800162887593, -30799.653327423734, 0.058, -0.006, 1.03, 192.0, 0.0, 0.0, 0.0, 0.0, 0.0, 0.0, 0.0, 0.0, 0.0, 1.747691549198343E9, 0.0, 2025-05-19 23:52:29.198
58.0, 21950.284773145293, 18606.754375309276, 48208.17538597291, 34406.06259179862, 44902.46413975527, 3035.970394130992, 7979.908046711451, 8256.734401790429, 0.0, 0.0, 6656.282443557077, -27197.96028112892, 18486.591397117543, 5741.604356957002, -6746.807008601071, -30771.110149754306, 0.058, -0.006, 1.03, 192.0, 0.0, 0.0, 0.0, 0.0, 0.0, 0.0, 0.0, 0.0, 0.0, 1.747691549205344E9, 0.0, 2025-05-19 23:52:29.205
60.0, 21959.851319772162, 18620.500698149288, 48206.63311560549, 34403.313327230615, 44915.20463409479, 3036.7974086758386, 7996.515392841744, 8266.323300161755, 0.0, 0.0, 6627.739265887651, -27227.643397765565, 18454.829568246554, 5714.424635699348, -6768.287035022621, -30797.14993204474, 0.058, -0.006, 1.03, 192.0, 0.0, 0.0, 0.0, 0.0, 0.0, 0.0, 0.0, 0.0, 0.0, 1.74769154921238E9, 0.0, 2025-05-19 23:52:29.212
62.0, 21948.38487486659, 18606.374395653536, 48204.241478948774, 34403.581548164075, 44903.53702348912, 3040.0160598774028, 7987.082956681605, 8244.195073151002, 0.0, 0.0, 6637.506978214619, -27219.44030755047, 18468.866463764487, 5732.998935341709, -6748.706906879772, -30780.81080684791, 0.058, -0.006, 1.03, 192.0, 0.0, 0.0, 0.0, 0.0, 0.0, 0.0, 0.0, 0.0, 0.0, 1.747691549218392E9, 0.0, 2025-05-19 23:52:29.218
64.0, 21951.111787690137, 18605.837953786606, 48194.876098021996, 34389.94698404634, 44906.21923282376, 3031.5894522177523, 7975.191828631381, 8255.594462823208, 0.0, 0.0, 6626.174643775778, -27228.045729165762, 18458.36114387049, 5707.696760618301, -6775.126668825945, -30804.30249027044, 0.062, 0.002, 1.03, 192.0, 0.5, 120.0, 0.0, 8.0, 16.0, 24.0, 0.0, 0.0, 0.0, 1.747691549225464E9, 0.0, 2025-05-19 23:52:29.225
66.0, 21949.793034767277, 18610.330654422123, 48199.45820563534, 34394.149112003935, 44906.46510201277, 3027.879062638171, 7995.196639918881, 8252.01818371036, 0.0, 0.0, 6630.399123477831, -27224.402394819546, 18455.12014092447, 5710.870708330955, -6764.308424509576, -30803.00608909203, 0.062, 0.002, 1.03, 192.0, 0.0, 0.0, 0.0, 0.0, 0.0, 0.0, 0.0, 0.0, 0.0, 1.747691549232534E9, 0.0, 2025-05-19 23:52:29.232
68.0, 21920.95928441993, 18577.853569728562, 48178.49226933626, 34375.217184450295, 44904.65461071189, 3040.753667444428, 7966.944034927373, 8238.361267848166, 0.0, 0.0, 6616.853966337916, -27245.748310774365, 18451.4544548338, 5710.2895629751165, -6771.43863099082, -30807.454086238635, 0.062, 0.002, 1.03, 192.0, 0.0, 0.0, 0.0, 0.0, 0.0, 0.0, 0.0, 0.0, 0.0, 1.74769154923854E9, 0.0, 2025-05-19 23:52:29.238
70.0, 21950.06125570074, 18602.619302585044, 48205.984915016285, 34397.166597505406, 44920.47964578625, 3042.3182895562995, 7993.1402794289925, 8259.863646014172, 0.0, 0.0, 6613.054169780514, -27229.744461744365, 18444.704228008297, 5702.980542538231, -6778.881761894437, -30811.835028151876, 0.062, 0.002, 1.03, 192.0, 0.0, 0.0, 0.0, 0.0, 0.0, 0.0, 0.0, 0.0, 0.0, 1.747691549245536E9, 0.0, 2025-05-19 23:52:29.245
72.0, 21938.617162539624, 18596.807849026663, 48203.16859521492, 34403.71565863081, 44927.14046563393, 3039.949004644037, 7986.702977025864, 8252.040535454815, 0.0, 0.0, 6652.706164444228, -27230.146793144562, 18469.961699242795, 5736.865787132477, -6741.531996909618, -30783.85064409383, 0.062, 0.002, 1.03, 192.0, 0.0, 0.0, 0.0, 0.0, 0.0, 0.0, 0.0, 0.0, 0.0, 1.747691549251539E9, 0.0, 2025-05-19 23:52:29.251
74.0, 21949.122482433617, 18608.49781137679, 48212.01988601922, 34404.073286542094, 44897.43499725282, 3041.915958156104, 7952.9294911538955, 8253.828675011238, 0.0, 0.0, 6620.564355917497, -27225.34116808667, 18459.27756539316, 5714.648153143901, -6775.752517670694, -30798.915719856708, 0.064, 0.004, 1.032, 192.0, 1.0, 8.0, 0.0, 24.0, 16.0, 40.0, 0.0, 0.0, 0.0, 1.747691549258668E9, 0.0, 2025-05-19 23:52:29.258
76.0, 21954.173976680515, 18613.795174812698, 48222.4805024243, 34420.07713557209, 44915.584613750536, 3045.022850635392, 8013.905050027973, 8269.877227530149, 0.0, 0.0, 6654.963690634214, -27204.978728887887, 18477.494237124236, 5741.604356957002, -6736.435799173809, -30776.09458876784, 0.064, 0.004, 1.032, 192.0, 0.0, 0.0, 0.0, 0.0, 0.0, 0.0, 0.0, 0.0, 0.0, 1.747691549265605E9, 0.0, 2025-05-19 23:52:29.265
78.0, 21966.64625008658, 18621.97591328334, 48232.896415340474, 34433.15290607845, 44916.612793995475, 3062.434859566076, 7990.592180561088, 8266.3009484173, 0.0, 0.0, 6653.890806900359, -27206.208074832928, 18488.938330285353, 5748.108714593496, -6739.319174208543, -30767.779739830465, 0.064, 0.004, 1.032, 192.0, 0.0, 0.0, 0.0, 0.0, 0.0, 0.0, 0.0, 0.0, 0.0, 1.747691549272592E9, 0.0, 2025-05-19 23:52:29.272
80.0, 21960.812444783744, 18621.97591328334, 48223.128703013506, 34413.48337095778, 44911.114264859476, 3032.5058737404197, 8000.114023699049, 8266.099782717203, 0.0, 0.0, 6656.2153883237115, -27204.8222666767, 18478.097734224528, 5733.155397552896, -6746.807008601071, -30782.017801048496, 0.064, 0.004, 1.032, 192.0, 0.0, 0.0, 0.0, 0.0, 0.0, 0.0, 0.0, 0.0, 0.0, 1.747691549280653E9, 0.0, 2025-05-19 23:52:29.280
82.0, 21943.042807941772, 18603.893352018997, 48206.49900513876, 34411.874045357, 44905.302811301095, 3042.340641300755, 7980.131564156004, 8241.669326027552, 0.0, 0.0, 6656.707126701728, -27196.216845061404, 18485.585568617054, 5743.794827913622, -6739.565043397552, -30771.713646854598, 0.064, 0.004, 1.032, 192.0, 0.0, 0.0, 0.0, 0.0, 0.0, 0.0, 0.0, 0.0, 0.0, 1.747691549286705E9, 0.0, 2025-05-19 23:52:29.286
84.0, 21941.120557918617, 18607.179058453927, 48208.644772606465, 34404.54267317565, 44889.008389593175, 3040.9995366334365, 7973.67191000842, 8262.747021048906, 0.0, 0.0, 6621.301963484521, -27229.85622046664, 18456.7071147808, 5711.451853686793, -6777.361843271476, -30801.888501869264, 0.064, 0.0, 1.034, 192.0, 1.0, 0.0, 127.5, 112.0, 16.0, 48.0, 0.0, 0.0, 0.0, 1.747691549294702E9, 0.0, 2025-05-19 23:52:29.294
86.0, 21953.704590046953, 18619.316055693158, 48212.53397614169, 34414.31038550263, 44904.878128156444, 3046.8556936807267, 7999.801099276674, 8259.550721591797, 0.0, 0.0, 6644.0113358511135, -27201.804781175233, 18473.47092312228, 5738.318650522072, -6742.873101576937, -30776.09458876784, 0.064, 0.0, 1.034, 192.0, 0.0, 0.0, 0.0, 0.0, 0.0, 0.0, 0.0, 0.0, 0.0, 1.747691549302758E9, 0.0, 2025-05-19 23:52:29.302
88.0, 21951.782340023798, 18619.181945226424, 48210.54467088517, 34409.43770521137, 44903.6487822114, 3058.6797664975843, 7972.308453596646, 8256.019145967859, 0.0, 0.0, 6641.17266430529, -27214.791144703766, 18475.773152801175, 5733.08834231953, -6753.020793559646, -30782.08485628186, 0.064, 0.0, 1.034, 192.0, 0.0, 0.0, 0.0, 0.0, 0.0, 0.0, 0.0, 0.0, 0.0, 1.747691549310787E9, 0.0, 2025-05-19 23:52:29.310
90.0, 21937.49957531686, 18598.372471138533, 48190.94219099786, 34382.90618454292, 44900.206613565286, 3009.1930042735344, 7957.265729578225, 8230.694619499996, 0.0, 0.0, 6622.888937340848, -27229.81151697773, 18449.84512923302, 5706.087435017519, -6772.735032169227, -30809.66690893971, 0.064, 0.0, 1.034, 192.0, 0.0, 0.0, 0.0, 0.0, 0.0, 0.0, 0.0, 0.0, 0.0, 1.747691549318766E9, 0.0, 2025-05-19 23:52:29.318
92.0, 21956.789130781788, 18623.227610972837, 48208.242441206276, 34409.92944358938, 44923.87711094345, 3055.505818784931, 7997.476517853323, 8251.325279632245, 0.0, 0.0, 6639.295117771044, -27217.6745197385, 18468.687649808842, 5729.08738006203, -6752.216130759255, -30790.265594752505, 0.064, 0.0, 1.034, 192.0, 0.0, 0.0, 0.0, 0.0, 0.0, 0.0, 0.0, 0.0, 0.0, 1.747691549326823E9, 0.0, 2025-05-19 23:52:29.326
94.0, 21957.996124982372, 18621.193602227402, 48208.75653132874, 34396.16076900491, 44899.67017169836, 3036.3950772756434, 7962.3172238251245, 8249.291270886812, 0.0, 0.0, 6635.718838658195, -27215.931083670985, 18470.051106220617, 5716.503347933692, -6768.309386767076, -30800.18976929066, 0.06, -0.002, 1.033, 192.0, 0.5, 96.0, 127.5, 112.0, 16.0, 32.0, 0.0, 0.0, 0.0, 1.747691549333887E9, 0.0, 2025-05-19 23:52:29.333
96.0, 21956.34209589268, 18618.667855103955, 48205.94021152738, 34402.24044349676, 44909.773160192155, 3037.60207147623, 7980.310378111646, 8240.529387060331, 0.0, 0.0, 6637.149350303334, -27220.893170940064, 18460.66337354939, 5717.263307245173, -6759.011061073668, -30802.313185013914, 0.06, -0.002, 1.033, 192.0, 0.0, 0.0, 0.0, 0.0, 0.0, 0.0, 0.0, 0.0, 0.0, 1.747691549340863E9, 0.0, 2025-05-19 23:52:29.340
98.0, 21954.844529014175, 18614.711596335364, 48203.21329870383, 34400.96639406281, 44909.50493925869, 3044.776981446383, 7967.748697727764, 8251.839369754716, 0.0, 0.0, 6638.244585781645, -27219.976749417398, 18474.566158600588, 5728.081551561541, -6758.541674440107, -30789.371524974293, 0.06, -0.002, 1.033, 192.0, 0.0, 0.0, 0.0, 0.0, 0.0, 0.0, 0.0, 0.0, 0.0, 1.747691549349989E9, 0.0, 2025-05-19 23:52:29.349
100.0, 21958.174938938017, 18620.992436527307, 48211.952830785856, 34404.74383887575, 44914.26586082767, 3028.1919870605457, 7987.127660170515, 8259.237797169424, 0.0, 0.0, 6637.954013103726, -27217.428650549493, 18462.540920083633, 5716.36923746696, -6763.749630898194, -30800.256824524025, 0.06, -0.002, 1.033, 192.0, 0.0, 0.0, 0.0, 0.0, 0.0, 0.0, 0.0, 0.0, 0.0, 1.747691549357002E9, 0.0, 2025-05-19 23:52:29.357
102.0, 21945.50149983186, 18608.989549754806, 48202.989781259275, 34401.72635337429, 44902.844119411006, 3041.7147924560063, 7978.678700766409, 8246.944337719004, 0.0, 0.0, 6637.752847403628, -27222.547200029756, 18464.55257708461, 5731.456664974292, -6750.070363291546, -30786.935184828664, 0.06, -0.002, 1.033, 192.0, 0.0, 0.0, 0.0, 0.0, 0.0, 0.0, 0.0, 0.0, 0.0, 1.747691549364992E9, 0.0, 2025-05-19 23:52:29.364
104.0, 21946.596735310166, 18607.939017765406, 48198.228859690294, 34390.66223986891, 44891.95881986128, 3027.2308620489675, 7951.320165553113, 8244.77621850684, 0.0, 0.0, 6627.649858909829, -27230.280903611292, 18456.17067291387, 5712.144757764907, -6773.964378114269, -30803.09549606985, 0.061, -0.002, 1.0325, 192.0, 0.5, 120.0, 127.5, 120.0, 16.0, 32.0, 0.0, 0.0, 0.0, 1.747691549372961E9, 0.0, 2025-05-19 23:52:29.372
106.0, 21944.942706220474, 18603.468668874346, 48196.552478856145, 34395.132588759974, 44899.80428216509, 3029.130760327668, 7994.168459673937, 8248.240738897412, 0.0, 0.0, 6623.827710607971, -27228.358653588137, 18447.721713509764, 5717.755045623189, -6760.866255863459, -30797.686373911667, 0.061, -0.002, 1.0325, 192.0, 0.0, 0.0, 0.0, 0.0, 0.0, 0.0, 0.0, 0.0, 0.0, 1.747691549382046E9, 0.0, 2025-05-19 23:52:29.382
108.0, 21948.67544754451, 18610.174192210936, 48201.805138803145, 34395.51256841571, 44909.52729100315, 3067.218132879512, 7965.848799449062, 8242.451637083488, 0.0, 0.0, 6631.561414189508, -27225.497630297858, 18464.440818362335, 5729.713228906779, -6752.082020292523, -30788.27628949598, 0.061, -0.002, 1.0325, 192.0, 0.0, 0.0, 0.0, 0.0, 0.0, 0.0, 0.0, 0.0, 0.0, 1.74769154939012E9, 0.0, 2025-05-19 23:52:29.390
110.0, 21936.404339838547, 18597.903084504975, 48191.61274333153, 34381.81094906461, 44895.93743037432, 3010.958792085504, 7980.489192067289, 8245.424419096043, 0.0, 0.0, 6615.781082604061, -27236.00295019185, 18439.160995383383, 5705.550993150591, -6769.426973989842, -30811.47740024059, 0.061, -0.002, 1.0325, 192.0, 0.0, 0.0, 0.0, 0.0, 0.0, 0.0, 0.0, 0.0, 0.0, 1.747691549400095E9, 0.0, 2025-05-19 23:52:29.400
112.0, 21938.930086962, 18603.178096196425, 48193.132661954485, 34395.24434748225, 44907.58268923553, 3035.5457109863414, 7977.2258373768145, 8240.484683571422, 0.0, 0.0, 6614.529384914564, -27235.108880413638, 18444.748931497208, 5722.94065033682, -6754.853636604981, -30796.65819366672, 0.061, -0.002, 1.0325, 192.0, 0.0, 0.0, 0.0, 0.0, 0.0, 0.0, 0.0, 0.0, 0.0, 1.747691549407146E9, 0.0, 2025-05-19 23:52:29.407
114.0, 21945.50149983186, 18607.693148576396, 48203.81679580412, 34393.47855967028, 44898.55258447559, 3028.437856249554, 7956.729287711298, 8249.447733097999, 0.0, 0.0, 6622.665419896295, -27232.449022823457, 18451.141530411427, 5709.976638552742, -6772.846790891504, -30809.018708350508, 0.0625, -0.002, 1.03325, 192.0, 1.0, 0.0, 127.5, 120.0, 16.0, 40.0, 0.0, 0.0, 0.0, 1.747691549414172E9, 0.0, 2025-05-19 23:52:29.414
116.0, 21951.91645049053, 18617.01382601426, 48206.49900513876, 34403.42508595289, 44905.571032234555, 3031.947080129037, 7987.261770637247, 8246.96668946346, 0.0, 0.0, 6638.624565437385, -27214.724089470397, 18461.579795072055, 5726.919260849865, -6749.377459213431, -30790.489112197058, 0.0625, -0.002, 1.03325, 192.0, 0.0, 0.0, 0.0, 0.0, 0.0, 0.0, 0.0, 0.0, 0.0, 1.747691549421268E9, 0.0, 2025-05-19 23:52:29.421
118.0, 21935.711435760433, 18598.797154283187, 48188.14822294095, 34383.75555083222, 44889.83540413802, 3028.12493182718, 7940.814845659119, 8226.559546775765, 0.0, 0.0, 6621.905460584815, -27231.778470489797, 18457.109446180995, 5717.419769456359, -6767.147096055401, -30799.295699512448, 0.0625, -0.002, 1.03325, 192.0, 0.0, 0.0, 0.0, 0.0, 0.0, 0.0, 0.0, 0.0, 0.0, 1.747691549429246E9, 0.0, 2025-05-19 23:52:29.429
120.0, 21952.47524410191, 18613.25873294577, 48207.0801504946, 34401.18991150736, 44905.63808746792, 3029.8683678946936, 8008.875907525529, 8262.165875693068, 0.0, 0.0, 6614.059998281003, -27235.041825180273, 18439.295105850113, 5705.260420472672, -6771.662148435373, -30811.365641518314, 0.0625, -0.002, 1.03325, 192.0, 0.0, 0.0, 0.0, 0.0, 0.0, 0.0, 0.0, 0.0, 0.0, 1.747691549438286E9, 0.0, 2025-05-19 23:52:29.438
122.0, 21949.100130689163, 18611.850573045085, 48207.01309526123, 34407.4707516993, 44905.68279095683, 3043.6817459680733, 7975.5271047982105, 8233.86856721265, 0.0, 0.0, 6637.350516003432, -27212.019528391305, 18468.41942887538, 5738.720981922267, -6740.727334109228, -30779.492053925045, 0.0625, -0.002, 1.03325, 192.0, 0.0, 0.0, 0.0, 0.0, 0.0, 0.0, 0.0, 0.0, 0.0, 1.747691549444272E9, 0.0, 2025-05-19 23:52:29.444
124.0, 21950.19536616747, 18615.20333471338, 48202.29687718116, 34395.11023701551, 44899.46900599826, 3038.831417421272, 7956.595177244566, 8245.178549907036, 0.0, 0.0, 6620.474948939675, -27231.644360023067, 18453.488463579233, 5713.329400221039, -6770.05282283459, -30804.749525159543, 0.06125, -0.002, 1.035625, 192.0, 0.5, 112.0, 127.5, 120.0, 16.0, 56.0, 0.0, 0.0, 0.0, 1.747691549453326E9, 0.0, 2025-05-19 23:52:29.453
126.0, 21933.14098514807, 18601.188790939905, 48198.76530155722, 34397.12189401649, 44890.70712217178, 3045.8722169246935, 7985.518334569733, 8246.519654574353, 0.0, 0.0, 6628.767446132594, -27218.94856917245, 18456.818873503074, 5726.94161259432, -6750.584453414018, -30792.880748853775, 0.06125, -0.002, 1.035625, 192.0, 0.0, 0.0, 0.0, 0.0, 0.0, 0.0, 0.0, 0.0, 0.0, 1.747691549461344E9, 0.0, 2025-05-19 23:52:29.461
128.0, 21937.09724391666, 18599.691224061396, 48197.11127246753, 34388.695286356844, 44897.256183297184, 3032.2823562958665, 7972.420212318923, 8243.278651628334, 0.0, 0.0, 6614.842309336938, -27236.181764147495, 18453.622574045967, 5719.3867229684265, -6762.632043675429, -30798.871016367797, 0.06125, -0.002, 1.035625, 192.0, 0.0, 0.0, 0.0, 0.0, 0.0, 0.0, 0.0, 0.0, 0.0, 1.747691549470366E9, 0.0, 2025-05-19 23:52:29.470
130.0, 21941.925220719007, 18605.54738110869, 48190.763377042225, 34384.56021363261, 44899.26784029816, 3014.8926991096378, 7969.693299495376, 8238.607137037176, 0.0, 0.0, 6614.283515725555, -27238.461642081937, 18441.485576806735, 5703.114653004963, -6771.393927501908, -30815.165438075717, 0.06125, -0.002, 1.035625, 192.0, 0.0, 0.0, 0.0, 0.0, 0.0, 0.0, 0.0, 0.0, 0.0, 1.747691549478416E9, 0.0, 2025-05-19 23:52:29.478
132.0, 21956.520909848325, 18615.806831813676, 48215.90908955444, 34411.13643778997, 44916.836311440034, 3048.085039625769, 7990.860401494551, 8252.420515110554, 0.0, 0.0, 6627.895728098837, -27224.223580863905, 18461.736257283243, 5725.064066060075, -6754.8312848605265, -30792.344306986848, 0.06125, -0.002, 1.035625, 192.0, 0.0, 0.0, 0.0, 0.0, 0.0, 0.0, 0.0, 0.0, 0.0, 1.747691549486419E9, 0.0, 2025-05-19 23:52:29.486
134.0, 21935.309104360236, 18600.317072906146, 48207.34837142806, 34393.43385618137, 44894.55162221809, 3025.59918470373, 7967.256959349747, 8245.714991773963, 0.0, 0.0, 6640.166835804801, -27215.416993548515, 18470.431085876357, 5725.824025371555, -6754.943043582803, -30791.405533719724, 0.060625, -0.001, 1.0348125000000001, 192.0, 0.5, 112.0, 0.0, 0.0, 16.0, 40.0, 0.0, 0.0, 0.0, 1.747691549495468E9, 0.0, 2025-05-19 23:52:29.495
136.0, 21935.711435760433, 18603.35691015207, 48205.47082489381, 34402.6204231525, 44899.31254378707, 3036.4844842534644, 7983.976064202317, 8243.72568651744, 0.0, 0.0, 6629.348591488432, -27215.551104015245, 18460.819835760576, 5724.348810237505, -6749.802142358082, -30796.23351052207, 0.060625, -0.001, 1.0348125000000001, 192.0, 0.0, 0.0, 0.0, 0.0, 0.0, 0.0, 0.0, 0.0, 0.0, 1.747691549503501E9, 0.0, 2025-05-19 23:52:29.503
138.0, 21944.80859575374, 18602.172267695936, 48209.762359829234, 34400.519359173704, 44896.40681700788, 3033.6458127076403, 7958.316261567625, 8236.550776547287, 0.0, 0.0, 6628.521576943586, -27231.554953045244, 18461.110408438493, 5722.359504980982, -6761.179180285833, -30799.206292534625, 0.060625, -0.001, 1.0348125000000001, 192.0, 0.0, 0.0, 0.0, 0.0, 0.0, 0.0, 0.0, 0.0, 0.0, 1.747691549510545E9, 0.0, 2025-05-19 23:52:29.510
140.0, 21944.518023075823, 18601.546418851187, 48207.37072317251, 34395.557271904625, 44892.18233730583, 3019.5865654452523, 7995.15193642997, 8245.804398751783, 0.0, 0.0, 6624.252393752622, -27222.61425526312, 18452.03560018964, 5713.7987868546, -6763.615520431462, -30807.118810071806, 0.060625, -0.001, 1.0348125000000001, 192.0, 0.0, 0.0, 0.0, 0.0, 0.0, 0.0, 0.0, 0.0, 0.0, 1.74769154951751E9, 0.0, 2025-05-19 23:52:29.517
142.0, 21966.02040124183, 18626.580372641132, 48225.140360014484, 34418.91484486042, 44910.17549159235, 3053.829437950783, 7977.784630988197, 8253.828675011238, 0.0, 0.0, 6650.98508012117, -27202.944720142452, 18480.55642611461, 5745.47120874777, -6732.636002616407, -30775.826367834376, 0.060625, -0.001, 1.0348125000000001, 192.0, 0.0, 0.0, 0.0, 0.0, 0.0, 0.0, 0.0, 0.0, 0.0, 1.747691549525576E9, 0.0, 2025-05-19 23:52:29.525
144.0, 21931.86693571412, 18591.912816990953, 48198.45237713485, 34383.19675722084, 44883.59926743499, 3014.6021264317187, 7942.625336959999, 8233.935622446015, 0.0, 0.0, 6621.59253616244, -27237.120537414616, 18453.08613217904, 5704.791033839111, -6776.803049660093, -30816.752411932044, 0.059312500000000004, 5.0E-4, 1.03340625, 192.0, 0.5, 104.0, 0.0, 8.0, 16.0, 32.0, 0.0, 0.0, 0.0, 1.747691549532632E9, 0.0, 2025-05-19 23:52:29.532
146.0, 21958.934898249496, 18626.669779618955, 48216.06555176563, 34412.544597690656, 44911.91892765986, 3042.6759174675844, 8007.803023791675, 8254.2980616448, 0.0, 0.0, 6640.256242782622, -27211.885417924575, 18467.480655608255, 5730.294374262617, -6744.3259649665315, -30789.03624880746, 0.059312500000000004, 5.0E-4, 1.03340625, 192.0, 0.0, 0.0, 0.0, 0.0, 0.0, 0.0, 0.0, 0.0, 0.0, 1.747691549541569E9, 0.0, 2025-05-19 23:52:29.541
148.0, 21934.727959004398, 18594.6397298145, 48188.505850852234, 34381.90035604243, 44894.73043617373, 3029.242519049945, 7944.882863149985, 8225.263145597357, 0.0, 0.0, 6623.179510018767, -27222.837772707677, 18467.36889688598, 5724.594679426513, -6756.932348839325, -30795.205330277127, 0.059312500000000004, 5.0E-4, 1.03340625, 192.0, 0.0, 0.0, 0.0, 0.0, 0.0, 0.0, 0.0, 0.0, 0.0, 1.747691549549609E9, 0.0, 2025-05-19 23:52:29.549
150.0, 21976.05633450226, 18633.643523889008, 48232.494083940284, 34413.48337095778, 44914.802302694596, 3033.668164452096, 8009.792329048197, 8257.628471568642, 0.0, 0.0, 6628.253356010122, -27231.264380367327, 18454.13666416844, 5706.333304206527, -6767.191799544311, -30814.249016553047, 0.059312500000000004, 5.0E-4, 1.03340625, 192.0, 0.0, 0.0, 0.0, 0.0, 0.0, 0.0, 0.0, 0.0, 0.0, 1.747691549558651E9, 0.0, 2025-05-19 23:52:29.558
152.0, 21949.949496978465, 18609.25777068827, 48196.19485094486, 34394.015001537206, 44902.48649149972, 3036.819760420294, 7974.610683275543, 8233.287421856812, 0.0, 0.0, 6638.512806715108, -27218.94856917245, 18470.52049285418, 5730.763760896178, -6744.951813811281, -30791.293774997448, 0.059312500000000004, 5.0E-4, 1.03340625, 192.0, 0.0, 0.0, 0.0, 0.0, 0.0, 0.0, 0.0, 0.0, 0.0, 1.747691549566697E9, 0.0, 2025-05-19 23:52:29.566
154.0, 21954.06221795824, 18614.57748586863, 48197.603010845545, 34389.32113520159, 44894.30575302908, 3026.850882393227, 7946.425133517401, 8245.849102240694, 0.0, 0.0, 6609.522594156575, -27237.165240903527, 18450.873309477964, 5703.382873938426, -6777.831229905037, -30813.645519452755, 0.056656250000000005, 2.5E-4, 1.032703125, 192.0, 0.5, 88.0, 0.0, 0.0, 16.0, 32.0, 0.0, 0.0, 0.0, 1.747691549574751E9, 0.0, 2025-05-19 23:52:29.574
156.0, 21949.256592900347, 18622.914686550463, 48217.16078724394, 34417.48433321528, 44913.192977093815, 3044.374650046188, 8017.235459951814, 8266.815038539773, 0.0, 0.0, 6646.201806807734, -27203.86114166512, 18475.88491152345, 5737.737505166234, -6737.016944529646, -30780.67669638118, 0.056656250000000005, 2.5E-4, 1.032703125, 192.0, 0.0, 0.0, 0.0, 0.0, 0.0, 0.0, 0.0, 0.0, 0.0, 1.747691549583762E9, 0.0, 2025-05-19 23:52:29.583
158.0, 21953.995162724874, 18609.68245383292, 48203.86149929303, 34396.808969594116, 44899.424302509346, 3051.7730774608945, 7957.668060978421, 8244.709163273474, 0.0, 0.0, 6611.221326735178, -27233.834830979686, 18458.22703340376, 5716.5704031670575, -6764.91192160987, -30802.939033858664, 0.056656250000000005, 2.5E-4, 1.032703125, 192.0, 0.0, 0.0, 0.0, 0.0, 0.0, 0.0, 0.0, 0.0, 0.0, 1.747691549590866E9, 0.0, 2025-05-19 23:52:29.590
160.0, 21965.707476819454, 18630.916611065462, 48220.31238321214, 34413.70688840233, 44907.180357835336, 3043.368821545699, 7991.687416039398, 8277.29800668931, 0.0, 0.0, 6659.009356380625, -27203.883493409576, 18481.092867981537, 5726.002839327198, -6752.394944714898, -30789.46093195211, 0.056656250000000005, 2.5E-4, 1.032703125, 192.0, 0.0, 0.0, 0.0, 0.0, 0.0, 0.0, 0.0, 0.0, 0.0, 1.747691549597792E9, 0.0, 2025-05-19 23:52:29.597
162.0, 21959.53839534979, 18625.216916229358, 48219.82064483412, 34418.49016171577, 44914.109398616485, 3050.8119524493163, 8005.903125512973, 8258.187265180024, 0.0, 0.0, 6646.022992852091, -27205.448115521445, 18481.5622546151, 5741.716115679278, -6737.419275929842, -30774.820539333887, 0.056656250000000005, 2.5E-4, 1.032703125, 192.0, 0.0, 0.0, 0.0, 0.0, 0.0, 0.0, 0.0, 0.0, 0.0, 1.747691549605819E9, 0.0, 2025-05-19 23:52:29.605
164.0, 21957.526738348814, 18623.853459817587, 48212.46692090832, 34400.60876615152, 44901.90534614389, 3029.3319260277663, 7975.616511776032, 8253.515750588866, 0.0, 0.0, 6637.998716592636, -27224.558857030734, 18470.49814110972, 5716.033961300131, -6763.637872175917, -30802.491998969555, 0.059328125, -8.75E-4, 1.0313515625, 192.0, 0.5, 120.0, 127.5, 120.0, 16.0, 24.0, 0.0, 0.0, 0.0, 1.747691549612885E9, 0.0, 2025-05-19 23:52:29.612
166.0, 21944.898002731563, 18611.336482922612, 48207.68364759489, 34403.49214118626, 44906.82272992405, 3030.114237083702, 7996.940075986395, 8250.833541254227, 0.0, 0.0, 6650.381583020876, -27202.5200369978, 18480.288205181147, 5734.56355745358, -6740.526168409129, -30785.057638294416, 0.059328125, -8.75E-4, 1.0313515625, 192.0, 0.0, 0.0, 0.0, 0.0, 0.0, 0.0, 0.0, 0.0, 0.0, 1.747691549620904E9, 0.0, 2025-05-19 23:52:29.620
168.0, 21940.248839884858, 18604.139221208003, 48198.6758945794, 34391.42219918039, 44902.46413975527, 3041.401868033632, 7958.070392378616, 8237.53425330332, 0.0, 0.0, 6628.320411243488, -27229.498592555356, 18467.301841652614, 5721.577193925046, -6759.323985496043, -30799.027478578984, 0.059328125, -8.75E-4, 1.0313515625, 192.0, 0.0, 0.0, 0.0, 0.0, 0.0, 0.0, 0.0, 0.0, 0.0, 1.747691549629928E9, 0.0, 2025-05-19 23:52:29.629
170.0, 21981.44310491599, 18645.86992810606, 48229.99068856129, 34422.71464141782, 44921.28430858664, 3046.922748914093, 7992.246209650781, 8275.532218877343, 0.0, 0.0, 6626.196995520234, -27225.207057619937, 18458.696420037322, 5708.456719929782, -6770.298692023599, -30809.555150217435, 0.059328125, -8.75E-4, 1.0313515625, 192.0, 0.0, 0.0, 0.0, 0.0, 0.0, 0.0, 0.0, 0.0, 0.0, 1.747691549637935E9, 0.0, 2025-05-19 23:52:29.637
172.0, 21948.29546788877, 18613.616360857053, 48216.66904886592, 34414.01981282471, 44908.14148284691, 3049.5826065042743, 7984.847782236074, 8245.446770840499, 0.0, 0.0, 6659.098763358446, -27199.368441029605, 18493.296920454137, 5750.276833805661, -6730.669049104339, -30769.94785904263, 0.059328125, -8.75E-4, 1.0313515625, 192.0, 0.0, 0.0, 0.0, 0.0, 0.0, 0.0, 0.0, 0.0, 0.0, 1.747691549644979E9, 0.0, 2025-05-19 23:52:29.644
174.0, 21941.902868974554, 18606.57556135363, 48203.03448474818, 34390.28226021317, 44900.2960205431, 3030.6506789506293, 7974.923607697918, 8247.413724352566, 0.0, 0.0, 6631.784931634061, -27224.201229119448, 18467.03362071915, 5718.827929357044, -6763.883741364925, -30800.7709146465, 0.06366406250000001, 5.625000000000001E-4, 1.0316757812500001, 192.0, 1.0, 16.0, 0.0, 8.0, 16.0, 32.0, 0.0, 0.0, 0.0, 1.747691549654009E9, 0.0, 2025-05-19 23:52:29.654
176.0, 21954.39749412507, 18621.864154561063, 48218.59129888908, 34413.237501768774, 44916.769256206666, 3042.117123856202, 8004.427910378923, 8258.500189602399, 0.0, 0.0, 6630.64499266684, -27220.75906047333, 18460.149283426916, 5724.617031170968, -6749.712735380261, -30796.72524890009, 0.06366406250000001, 5.625000000000001E-4, 1.0316757812500001, 192.0, 0.0, 0.0, 0.0, 0.0, 0.0, 0.0, 0.0, 0.0, 0.0, 1.747691549660969E9, 0.0, 2025-05-19 23:52:29.660
178.0, 21942.238145141382, 18610.375357911034, 48209.36002842904, 34399.75939986222, 44909.86256716998, 3071.2190951370117, 7957.757467956241, 8241.915195216561, 0.0, 0.0, 6630.622640922385, -27224.73767098638, 18472.576853344068, 5734.541205709124, -6750.360935969465, -30788.52215868499, 0.06366406250000001, 5.625000000000001E-4, 1.0316757812500001, 192.0, 0.0, 0.0, 0.0, 0.0, 0.0, 0.0, 0.0, 0.0, 0.0, 1.747691549669039E9, 0.0, 2025-05-19 23:52:29.669
180.0, 21974.67052634603, 18633.97880005584, 48228.60488040506, 34419.63010068299, 44926.067581900075, 3047.1686181031014, 7988.5581718156545, 8265.719803061462, 0.0, 0.0, 6639.228062537678, -27214.18764760347, 18470.475789365268, 5724.460568959781, -6756.306499994576, -30797.99929833404, 0.06366406250000001, 5.625000000000001E-4, 1.0316757812500001, 192.0, 0.0, 0.0, 0.0, 0.0, 0.0, 0.0, 0.0, 0.0, 0.0, 1.747691549677069E9, 0.0, 2025-05-19 23:52:29.677
182.0, 21960.05248547226, 18623.607590628577, 48222.52520591321, 34415.56208319212, 44922.37954406495, 3047.593301247752, 7985.451279336367, 8243.233948139423, 0.0, 0.0, 6659.456391269731, -27195.85921715012, 18492.827533820575, 5754.210740829795, -6726.1316449799115, -30770.104321253817, 0.06366406250000001, 5.625000000000001E-4, 1.0316757812500001, 192.0, 0.0, 0.0, 0.0, 0.0, 0.0, 0.0, 0.0, 0.0, 0.0, 1.747691549685084E9, 0.0, 2025-05-19 23:52:29.685
184.0, 21947.11082543264, 18608.408404398968, 48210.879947052, 34398.03831553916, 44910.30960205908, 3031.500045239931, 7970.229741362303, 8252.264052899367, 0.0, 0.0, 6626.331105986966, -27227.598694276658, 18462.853844506008, 5717.173900267351, -6766.029508832635, -30806.09062982686, 0.06283203125, 2.8125000000000003E-4, 1.030837890625, 192.0, 0.5, 120.0, 0.0, 0.0, 16.0, 24.0, 0.0, 0.0, 0.0, 1.747691549692152E9, 0.0, 2025-05-19 23:52:29.692
186.0, 21950.351828378658, 18615.6950730914, 48213.02571451971, 34413.930405846884, 44923.89946268791, 3038.3620307877104, 8000.695169054887, 8257.382602379634, 0.0, 0.0, 6636.2552805251225, -27216.825153449197, 18465.357239885, 5736.932842365843, -6740.123837008934, -30784.454141194125, 0.06283203125, 2.8125000000000003E-4, 1.030837890625, 192.0, 0.0, 0.0, 0.0, 0.0, 0.0, 0.0, 0.0, 0.0, 0.0, 1.747691549701164E9, 0.0, 2025-05-19 23:52:29.701
188.0, 21947.73667427739, 18612.230552700825, 48210.99170577428, 34402.70983013032, 44903.93935488932, 3043.212359334512, 7958.584482501088, 8242.898671972594, 0.0, 0.0, 6627.851024609927, -27219.95439767294, 18469.045277720128, 5735.27881327615, -6751.523226681141, -30784.09651328284, 0.06283203125, 2.8125000000000003E-4, 1.030837890625, 192.0, 0.0, 0.0, 0.0, 0.0, 0.0, 0.0, 0.0, 0.0, 0.0, 1.747691549710235E9, 0.0, 2025-05-19 23:52:29.710
190.0, 21965.841587286188, 18633.442358188913, 48221.31821171263, 34416.12087680351, 44920.77021846417, 3051.3260425717885, 7992.5367823287, 8269.519599618865, 0.0, 0.0, 6634.623603179884, -27217.361595316124, 18461.400981116414, 5725.4887492047255, -6755.3006714940875, -30794.579481432378, 0.06283203125, 2.8125000000000003E-4, 1.030837890625, 192.0, 0.0, 0.0, 0.0, 0.0, 0.0, 0.0, 0.0, 0.0, 0.0, 1.747691549716218E9, 0.0, 2025-05-19 23:52:29.716
192.0, 21953.637534813588, 18621.752395838786, 48209.24826970676, 34410.801161623145, 44914.668192227866, 3058.456249053031, 7973.269578608225, 8244.73151501793, 0.0, 0.0, 6638.848082881937, -27209.29261556776, 18474.677917322864, 5741.626708701457, -6739.542691653096, -30779.648516136233, 0.06283203125, 2.8125000000000003E-4, 1.030837890625, 192.0, 0.0, 0.0, 0.0, 0.0, 0.0, 0.0, 0.0, 0.0, 0.0, 1.747691549724281E9, 0.0, 2025-05-19 23:52:29.724
194.0, 21962.645287829077, 18625.798061585196, 48214.99266803177, 34402.396905707945, 44912.72359046026, 3046.118086113702, 7957.690412722875, 8254.946262234005, 0.0, 0.0, 6629.817978121994, -27222.10016514065, 18464.396114873423, 5717.442121200815, -6766.1636192993665, -30801.44146698016, 0.06283203125, 2.8125000000000003E-4, 1.030837890625, 192.0, 0.0, 0.0, 0.0, 0.0, 0.0, 0.0, 0.0, 0.0, 0.0, 1.747691549733327E9, 0.0, 2025-05-19 23:52:29.733
196.0, 21960.00778198335, 18623.428776672936, 48212.19869997486, 34404.60972840902, 44925.285270844135, 3047.012155891914, 8009.792329048197, 8253.471047099954, 0.0, 0.0, 6635.875300869382, -27221.58607501818, 18460.17163517137, 5729.646173673413, -6743.2083777437665, -30792.254900009026, 0.066, 0.0, 1.03, 192.0, 1.0, 8.0, 0.0, 0.0, 16.0, 24.0, 0.0, 0.0, 0.0, 1.747691549741318E9, 0.0, 2025-05-19 23:52:29.741
198.0, 21950.217717911928, 18616.566791125155, 48208.35419992855, 34399.64764113994, 44917.395105051415, 3066.301711356844, 7972.151991385459, 8247.793704008307, 0.0, 0.0, 6626.331105986966, -27229.655054766543, 18464.060838706595, 5732.082513819041, -6747.902244079381, -30789.90796684122, 0.066, 0.0, 1.03, 192.0, 0.0, 0.0, 0.0, 0.0, 0.0, 0.0, 0.0, 0.0, 0.0, 1.74769154974836E9, 0.0, 2025-05-19 23:52:29.748
200.0, 21966.48978787539, 18630.134300009526, 48221.69819136837, 34415.85265587004, 44920.59140450852, 3037.6467749651406, 7994.235514907303, 8271.553608364298, 0.0, 0.0, 6637.976364848181, -27215.037013892772, 18467.36889688598, 5729.489711462225, -6748.058706290568, -30790.131484285772, 0.066, 0.0, 1.03, 192.0, 0.0, 0.0, 0.0, 0.0, 0.0, 0.0, 0.0, 0.0, 0.0, 1.747691549757365E9, 0.0, 2025-05-19 23:52:29.757
202.0, 21956.051523214763, 18624.747529595796, 48213.24923196426, 34418.04312682666, 44933.890692459434, 3051.504856527431, 7996.984779475306, 8246.25143364089, 0.0, 0.0, 6637.641088681351, -27211.751307457842, 18475.974318501274, 5742.252557546206, -6737.531034652118, -30777.14512075724, 0.066, 0.0, 1.03, 192.0, 0.0, 0.0, 0.0, 0.0, 0.0, 0.0, 0.0, 0.0, 0.0, 1.747691549765413E9, 0.0, 2025-05-19 23:52:29.765
204.0, 21956.275040659315, 18622.601762128088, 48214.25506046475, 34409.30359474463, 44909.281421814136, 3045.089905868758, 7978.075203666116, 8272.894713031616, 0.0, 0.0, 6629.683867655262, -27220.222618606404, 18469.626423075966, 5727.455702716792, -6758.541674440107, -30789.684449396667, 0.066, 0.0, 1.03, 192.0, 0.0, 0.0, 0.0, 0.0, 0.0, 0.0, 0.0, 0.0, 0.0, 1.747691549773498E9, 0.0, 2025-05-19 23:52:29.773
206.0, 21967.20504369796, 18634.31407622267, 48223.79925534716, 34426.76030716423, 44926.1569888779, 3061.1384583876684, 8002.215087677848, 8273.341747920722, 0.0, 0.0, 6639.69744917124, -27210.76783070181, 18470.386382387445, 5738.2292435442505, -6740.481464920219, -30779.60381264732, 0.058, -0.004, 1.034, 192.0, 0.5, 104.0, 127.5, 112.0, 16.0, 40.0, 0.0, 0.0, 0.0, 1.747691549783542E9, 0.0, 2025-05-19 23:52:29.783
208.0, 21949.122482433617, 18616.387977169514, 48212.153996485955, 34409.884740100475, 44911.80716893759, 3054.947025173548, 7972.375508830012, 8254.63333781163, 0.0, 0.0, 6642.558472461519, -27207.81740043371, 18485.160885472404, 5743.995993613719, -6739.542691653096, -30771.400722432223, 0.058, -0.004, 1.034, 192.0, 0.0, 0.0, 0.0, 0.0, 0.0, 0.0, 0.0, 0.0, 0.0, 1.747691549790546E9, 0.0, 2025-05-19 23:52:29.790
210.0, 21954.77747378081, 18619.74073883781, 48213.71861859782, 34409.325946489094, 44916.67984922884, 3038.0938098542465, 7999.689340554398, 8270.458372885987, 0.0, 0.0, 6624.408855963809, -27226.97284543191, 18456.41654210288, 5718.984391568231, -6757.513494195163, -30795.920586099695, 0.058, -0.004, 1.034, 192.0, 0.0, 0.0, 0.0, 0.0, 0.0, 0.0, 0.0, 0.0, 0.0, 1.74769154979759E9, 0.0, 2025-05-19 23:52:29.797
212.0, 21963.315840162737, 18629.866079076062, 48219.23949947828, 34421.95468210634, 44925.79936096661, 3063.7089090000286, 7991.307436383658, 8259.416611125065, 0.0, 0.0, 6637.775199148083, -27212.041880135763, 18476.42135339038, 5742.56548196858, -6736.704020107272, -30772.339495699347, 0.058, -0.004, 1.034, 192.0, 0.0, 0.0, 0.0, 0.0, 0.0, 0.0, 0.0, 0.0, 0.0, 1.747691549804594E9, 0.0, 2025-05-19 23:52:29.804
214.0, 21952.408188868547, 18616.5444393807, 48208.53301388419, 34399.91586207341, 44915.47285502826, 3041.3795162891765, 7970.095630895571, 8259.528369847343, 0.0, 0.0, 6630.846158366938, -27221.027281406794, 18467.41360037489, 5724.818196871066, -6756.798238372593, -30789.6173941633, 0.058, -0.004, 1.034, 192.0, 0.0, 0.0, 0.0, 0.0, 0.0, 0.0, 0.0, 0.0, 0.0, 1.747691549812584E9, 0.0, 2025-05-19 23:52:29.812
216.0, 21955.000991225363, 18620.232477215824, 48211.729313341304, 34411.04703081215, 44926.961651678284, 3045.5369407578637, 7998.77291903173, 8263.127000704646, 0.0, 0.0, 6623.425379207776, -27225.00589191984, 18454.606050802, 5723.6112026704795, -6748.863369090959, -30791.919623842197, 0.058, -0.006, 1.038, 192.0, 0.5, 104.0, 127.5, 104.0, 16.0, 56.0, 0.0, 0.0, 0.0, 1.747691549822665E9, 0.0, 2025-05-19 23:52:29.822
218.0, 21952.07291270172, 18619.226648715336, 48214.947964542866, 34407.11312378802, 44922.31248883158, 3064.625330522696, 7979.326901355613, 8260.44479137001, 0.0, 0.0, 6635.070638068991, -27219.82028720621, 18475.013193489696, 5736.619917943468, -6742.873101576937, -30779.335591713858, 0.058, -0.006, 1.038, 192.0, 0.0, 0.0, 0.0, 0.0, 0.0, 0.0, 0.0, 0.0, 0.0, 1.747691549829707E9, 0.0, 2025-05-19 23:52:29.829
220.0, 21957.05735171525, 18626.31215170767, 48216.624345377015, 34411.695231401354, 44925.26291909968, 3065.497048556453, 7998.057663209161, 8275.711032832985, 0.0, 0.0, 6630.555585689019, -27222.457793051934, 18461.84801600552, 5723.544147437114, -6750.04801154709, -30790.176187774683, 0.058, -0.006, 1.038, 192.0, 0.0, 0.0, 0.0, 0.0, 0.0, 0.0, 0.0, 0.0, 0.0, 1.747691549836731E9, 0.0, 2025-05-19 23:52:29.836
222.0, 21960.432465128, 18624.099329006593, 48216.22201397682, 34420.90415011694, 44931.27553835816, 3062.4572113105314, 7988.446413093378, 8262.992890237914, 0.0, 0.0, 6633.93069910177, -27209.4714295234, 18471.74983879922, 5742.006688357197, -6735.295860206588, -30769.500824153525, 0.058, -0.006, 1.038, 192.0, 0.0, 0.0, 0.0, 0.0, 0.0, 0.0, 0.0, 0.0, 0.0, 1.747691549844741E9, 0.0, 2025-05-19 23:52:29.844
224.0, 21952.408188868547, 18616.522087636244, 48211.48344415229, 34403.11216153052, 44921.440770797824, 3044.039373879358, 7957.779819700697, 8245.603233051686, 0.0, 0.0, 6624.9900013196475, -27223.30715934124, 18463.770266028674, 5721.219566013761, -6759.011061073668, -30791.09260929735, 0.058, -0.006, 1.038, 192.0, 0.0, 0.0, 0.0, 0.0, 0.0, 0.0, 0.0, 0.0, 0.0, 1.747691549853779E9, 0.0, 2025-05-19 23:52:29.853
226.0, 21956.25268891486, 18619.71838709335, 48218.0325052777, 34415.539731447665, 44930.76144823569, 3048.1297431146795, 7996.336578886102, 8260.914178003572, 0.0, 0.0, 6632.164911289801, -27216.91456042702, 18463.479693350757, 5731.23314752974, -6740.056781775568, -30785.39291446125, 0.054, -0.008, 1.034, 192.0, 0.5, 88.0, 127.5, 96.0, 16.0, 40.0, 0.0, 0.0, 0.0, 1.74769154986083E9, 0.0, 2025-05-19 23:52:29.860
228.0, 21941.902868974554, 18605.614436342054, 48206.49900513876, 34400.42995219588, 44914.399971294406, 3048.107391370224, 7971.570846029622, 8247.771352263851, 0.0, 0.0, 6624.45355945272, -27229.655054766543, 18463.613803817487, 5732.440141730326, -6746.2035115007775, -30784.878824338775, 0.054, -0.008, 1.034, 192.0, 0.0, 0.0, 0.0, 0.0, 0.0, 0.0, 0.0, 0.0, 0.0, 1.747691549868859E9, 0.0, 2025-05-19 23:52:29.868
230.0, 21951.692933045975, 18619.71838709335, 48213.78567383119, 34408.78950462217, 44921.32901207555, 3040.3960395331433, 8003.913820256451, 8275.867495044171, 0.0, 0.0, 6620.676114639773, -27229.789165233276, 18452.16971065637, 5718.202080512296, -6755.524188938641, -30798.647498923245, 0.054, -0.008, 1.034, 192.0, 0.0, 0.0, 0.0, 0.0, 0.0, 0.0, 0.0, 0.0, 0.0, 1.747691549876879E9, 0.0, 2025-05-19 23:52:29.876
232.0, 21944.182746908995, 18606.910837520463, 48209.069455751116, 34409.28124300018, 44917.5515672626, 3052.533036772375, 7997.320055642135, 8255.661518056575, 0.0, 0.0, 6632.164911289801, -27216.95926391593, 18468.28531840865, 5742.23020580175, -6732.077209005023, -30774.23939397805, 0.054, -0.008, 1.034, 192.0, 0.0, 0.0, 0.0, 0.0, 0.0, 0.0, 0.0, 0.0, 0.0, 1.747691549884896E9, 0.0, 2025-05-19 23:52:29.884
234.0, 21927.553049034246, 18596.24905541528, 48194.49611836626, 34388.002382278726, 44900.11720658746, 3033.7352196854617, 7977.851686221563, 8262.367041393167, 0.0, 0.0, 6606.1474807438235, -27242.77552876181, 18444.257193119192, 5713.642324643412, -6762.788505886616, -30802.961385603117, 0.054, -0.008, 1.034, 192.0, 0.0, 0.0, 0.0, 0.0, 0.0, 0.0, 0.0, 0.0, 0.0, 1.747691549892917E9, 0.0, 2025-05-19 23:52:29.892
236.0, 21943.24397364187, 18604.16157295246, 48206.409598160935, 34404.94500457585, 44925.84406445552, 3042.8994349121376, 8003.1762126894255, 8270.614835097174, 0.0, 0.0, 6611.288381968544, -27234.058348424238, 18444.748931497208, 5722.672429403357, -6747.81283710156, -30792.634879664765, 0.056, -0.006, 1.036, 192.0, 0.5, 96.0, 127.5, 104.0, 16.0, 48.0, 0.0, 0.0, 0.0, 1.747691549900956E9, 0.0, 2025-05-19 23:52:29.900
238.0, 21936.29258111627, 18601.769936295743, 48207.37072317251, 34396.876024827485, 44909.57199449206, 3046.8780454251823, 7966.519351782722, 8250.274747642845, 0.0, 0.0, 6622.97834431867, -27232.449022823457, 18461.959774727795, 5729.266194017672, -6748.1928167573, -30786.130522028274, 0.056, -0.006, 1.036, 192.0, 0.0, 0.0, 0.0, 0.0, 0.0, 0.0, 0.0, 0.0, 0.0, 1.747691549908979E9, 0.0, 2025-05-19 23:52:29.908
240.0, 21941.835813741185, 18607.313168920657, 48214.29976395366, 34404.363859220015, 44920.14436961942, 3031.5894522177523, 8012.161613960459, 8270.100744974703, 0.0, 0.0, 6617.748036116128, -27237.835793237187, 18446.44766407581, 5715.028132799642, -6756.977052328236, -30800.81561813541, 0.056, -0.006, 1.036, 192.0, 0.0, 0.0, 0.0, 0.0, 0.0, 0.0, 0.0, 0.0, 0.0, 1.747691549916069E9, 0.0, 2025-05-19 23:52:29.916
242.0, 21940.6288195406, 18604.608607841565, 48215.864386065536, 34417.506684959735, 44918.84796844101, 3082.305560386844, 8004.5843725901095, 8262.948186749005, 0.0, 0.0, 6623.425379207776, -27227.039900665273, 18459.344620626525, 5744.867711647476, -6730.423179915331, -30772.47360616608, 0.056, -0.006, 1.036, 192.0, 0.0, 0.0, 0.0, 0.0, 0.0, 0.0, 0.0, 0.0, 0.0, 1.747691549925077E9, 0.0, 2025-05-19 23:52:29.925
244.0, 21936.00200843835, 18603.423965385435, 48208.10833073954, 34403.53684467517, 44907.806206680085, 3045.2240163354895, 7977.158782143449, 8268.133791462635, 0.0, 0.0, 6617.591573904941, -27229.520944299813, 18456.55065256961, 5731.523720207658, -6748.461037690764, -30781.973097559585, 0.056, -0.006, 1.036, 192.0, 0.0, 0.0, 0.0, 0.0, 0.0, 0.0, 0.0, 0.0, 0.0, 1.74769154993314E9, 0.0, 2025-05-19 23:52:29.933
246.0, 21942.461662585934, 18606.083822975615, 48212.04223776367, 34409.124780788996, 44923.56418652108, 3045.045202379847, 8018.330695430124, 8265.87626527265, 0.0, 0.0, 6617.1221872713795, -27225.05059540875, 18450.00159144421, 5734.138874308929, -6737.66514511885, -30782.50953942651, 0.056, -0.006, 1.032, 192.0, 0.5, 96.0, 127.5, 104.0, 16.0, 32.0, 0.0, 0.0, 0.0, 1.747691549941058E9, 0.0, 2025-05-19 23:52:29.941
248.0, 21937.4772235724, 18601.233494428816, 48203.81679580412, 34396.49604517175, 44909.773160192155, 3041.044240122347, 7974.029537919705, 8253.225177910947, 0.0, 0.0, 6616.384579704354, -27237.63462753709, 18455.36601011348, 5730.003801584698, -6746.136456267412, -30788.298641240435, 0.056, -0.006, 1.032, 192.0, 0.0, 0.0, 0.0, 0.0, 0.0, 0.0, 0.0, 0.0, 0.0, 1.747691549948058E9, 0.0, 2025-05-19 23:52:29.948
250.0, 21940.651171285055, 18611.11296547806, 48217.58547038859, 34407.023716810196, 44912.768293949164, 3042.810027934316, 8007.914782513951, 8276.672157844563, 0.0, 0.0, 6617.88214658286, -27235.354749602648, 18448.436969332335, 5720.549013680103, -6752.596110414996, -30797.10522855583, 0.056, -0.006, 1.032, 192.0, 0.0, 0.0, 0.0, 0.0, 0.0, 0.0, 0.0, 0.0, 0.0, 1.747691549957165E9, 0.0, 2025-05-19 23:52:29.957
252.0, 21941.366427107627, 18615.6950730914, 48217.54076689968, 34418.57956869359, 44912.47772127124, 3071.3308538592883, 8003.2879714117025, 8267.68675657353, 0.0, 0.0, 6628.298059499033, -27220.088508139674, 18466.340716641036, 5742.788999413133, -6732.323078194032, -30775.89342306774, 0.056, -0.006, 1.032, 192.0, 0.0, 0.0, 0.0, 0.0, 0.0, 0.0, 0.0, 0.0, 0.0, 1.747691549965156E9, 0.0, 2025-05-19 23:52:29.965
254.0, 21937.521927061312, 18615.4939073913, 48211.77401683021, 34405.63790865397, 44899.69252344281, 3060.914940943115, 7986.948846214873, 8270.078393230247, 0.0, 0.0, 6620.206728006212, -27222.547200029756, 18464.32905964006, 5726.628688171946, -6753.870159848948, -30789.125655785283, 0.056, -0.006, 1.032, 192.0, 0.0, 0.0, 0.0, 0.0, 0.0, 0.0, 0.0, 0.0, 0.0, 1.747691549972199E9, 0.0, 2025-05-19 23:52:29.972
0.0, 21934.01270318183, 18616.745605080796, 48213.62921162, 34419.78656289417, 44906.196881079304, 3067.6428160241626, 8015.134395973015, 8271.620663597663, 0.0, 0.0, 6618.843271594438, -27215.841676693166, 18458.495254337224, 5730.808464385088, -6743.543653910596, -30785.32585922788, 0.056, -0.004, 1.032, 192.0, 0.5, 96.0, 127.5, 112.0, 16.0, 32.0, 0.0, 0.0, 0.0, 1.747691549982281E9, 0.0, 2025-05-19 23:52:29.982
2.0, 21919.19349660796, 18601.658177573467, 48208.28714469518, 34413.08103955758, 44898.999619364695, 3080.495069085964, 7973.694261752876, 8263.01524198237, 0.0, 0.0, 6617.256297738111, -27216.780449960286, 18467.79358003063, 5739.100961578008, -6743.968337055247, -30776.407513190214, 0.056, -0.004, 1.032, 192.0, 0.0, 0.0, 0.0, 0.0, 0.0, 0.0, 0.0, 0.0, 0.0, 1.747691549989263E9, 0.0, 2025-05-19 23:52:29.989
4.0, 21934.57149679321, 18618.77961382623, 48226.123836770515, 34426.179161808395, 44904.40874152288, 3072.113164915224, 8021.258773953769, 8288.362120194688, 0.0, 0.0, 6618.686809383251, -27213.695909225455, 18460.439856104837, 5729.534414951136, -6749.422162702342, -30785.39291446125, 0.056, -0.004, 1.032, 192.0, 0.0, 0.0, 0.0, 0.0, 0.0, 0.0, 0.0, 0.0, 0.0, 1.747691549996298E9, 0.0, 2025-05-19 23:52:29.996
6.0, 21933.52096480381, 18623.808756328675, 48218.367781444525, 34431.58828396658, 44912.298907315606, 3094.4872611149863, 7996.358930630557, 8273.83348629874, 0.0, 0.0, 6631.293193256044, -27197.58030147318, 18482.27751043767, 5759.396345543426, -6720.275487932621, -30755.97801875806, 0.056, -0.004, 1.032, 192.0, 0.0, 0.0, 0.0, 0.0, 0.0, 0.0, 0.0, 0.0, 0.0, 1.747691550004335E9, 0.0, 2025-05-19 23:52:30.004
8.0, 21930.7269967469, 18625.820413329653, 48210.052932507155, 34415.09269655856, 44893.88106988443, 3088.362883134232, 7991.888581739496, 8281.611893369185, 0.0, 0.0, 6612.584783146952, -27208.175028344995, 18467.83828351954, 5730.875519618455, -6754.205436015777, -30778.687391124655, 0.056, -0.004, 1.032, 192.0, 0.0, 0.0, 0.0, 0.0, 0.0, 0.0, 0.0, 0.0, 0.0, 1.747691550013337E9, 0.0, 2025-05-19 23:52:30.013
10.0, 21938.214831139427, 18634.805814600684, 48212.221051719316, 34427.632025197985, 44905.41457002337, 3107.8089008103493, 8028.791311835207, 8287.333939949744, 0.0, 0.0, 6615.468158181687, -27206.81157193322, 18461.89271949443, 5739.883272633943, -6734.312383450554, -30771.55718464341, 0.056, -0.01, 1.03, 192.0, 0.5, 96.0, 127.5, 88.0, 16.0, 24.0, 0.0, 0.0, 0.0, 1.747691550021404E9, 0.0, 2025-05-19 23:52:30.021
12.0, 21940.405302096045, 18633.73293086683, 48208.55536562865, 34416.97024309281, 44896.898555385895, 3084.5854383212854, 7983.461974079844, 8275.73338457744, 0.0, 0.0, 6609.276724967566, -27211.259569079826, 18468.75470504221, 5738.653926688901, -6744.996517300191, -30771.445425921134, 0.056, -0.01, 1.03, 192.0, 0.0, 0.0, 0.0, 0.0, 0.0, 0.0, 0.0, 0.0, 0.0, 1.747691550028367E9, 0.0, 2025-05-19 23:52:30.028
14.0, 21952.341133635182, 18646.294611250712, 48220.44649367887, 34422.55817920664, 44904.34168628952, 3078.304598129344, 8021.705808842875, 8297.414576699088, 0.0, 0.0, 6623.291268741044, -27203.034127120274, 18469.671126564877, 5730.674353918356, -6748.52809292413, -30781.727228370575, 0.056, -0.01, 1.03, 192.0, 0.0, 0.0, 0.0, 0.0, 0.0, 0.0, 0.0, 0.0, 0.0, 1.747691550036467E9, 0.0, 2025-05-19 23:52:30.036
16.0, 21949.793034767277, 18643.79121587172, 48214.63504012049, 34425.44155424137, 44906.353343290495, 3098.689389072584, 8006.484270868811, 8278.214428211979, 0.0, 0.0, 6626.152292031324, -27201.938891641963, 18475.616690589988, 5745.493560492225, -6734.602956128473, -30767.600925874824, 0.056, -0.01, 1.03, 192.0, 0.0, 0.0, 0.0, 0.0, 0.0, 0.0, 0.0, 0.0, 0.0, 1.747691550045439E9, 0.0, 2025-05-19 23:52:30.045
18.0, 21949.748331278366, 18643.45593970489, 48213.36099068654, 34411.069382556605, 44897.72556993074, 3080.919752230615, 7985.160706658448, 8275.934550277538, 0.0, 0.0, 6618.865623338893, -27213.695909225455, 18468.933518997852, 5728.729752150745, -6752.350241225987, -30785.907004583718, 0.056, -0.01, 1.03, 192.0, 0.0, 0.0, 0.0, 0.0, 0.0, 0.0, 0.0, 0.0, 0.0, 1.747691550052505E9, 0.0, 2025-05-19 23:52:30.052
20.0, 21956.900889504064, 18652.083713064636, 48221.87700532401, 34433.46583050082, 44911.516596259666, 3096.0965867157684, 8020.409407664467, 8280.4048991686, 0.0, 0.0, 6628.052190310024, -27199.10022009614, 18473.403867888912, 5738.4080574998925, -6735.09469450649, -30778.687391124655, 0.054, -0.002, 1.03, 192.0, 0.5, 88.0, 127.5, 120.0, 16.0, 24.0, 0.0, 0.0, 0.0, 1.747691550062497E9, 0.0, 2025-05-19 23:52:30.062
22.0, 21955.49272960338, 18656.084675322138, 48220.468845423326, 34430.26953104371, 44901.50301474369, 3115.2967352028772, 7979.617474033532, 8264.959843749983, 0.0, 0.0, 6629.8626816109045, -27189.444266491446, 18491.75465008672, 5743.414848257881, -6739.810912586559, -30770.283135209458, 0.054, -0.002, 1.03, 192.0, 0.0, 0.0, 0.0, 0.0, 0.0, 0.0, 0.0, 0.0, 0.0, 1.747691550068573E9, 0.0, 2025-05-19 23:52:30.068
24.0, 21966.62389834212, 18667.752285927807, 48230.08009553911, 34434.58341772359, 44908.47675901375, 3093.257915169944, 8007.4006923914785, 8280.091974746225, 0.0, 0.0, 6630.8014548780275, -27189.95835661392, 18483.6633185939, 5724.974659082253, -6751.389116214409, -30787.270460995493, 0.054, -0.002, 1.03, 192.0, 0.0, 0.0, 0.0, 0.0, 0.0, 0.0, 0.0, 0.0, 0.0, 1.747691550077594E9, 0.0, 2025-05-19 23:52:30.077
26.0, 21966.91447102004, 18663.326640525658, 48236.85267410907, 34446.29573181817, 44915.51755851717, 3112.435711912598, 8005.925477257429, 8279.332015434744, 0.0, 0.0, 6649.420458009298, -27175.317963995694, 18502.841115336552, 5751.707345450801, -6724.969354268236, -30760.247201949027, 0.054, -0.002, 1.03, 192.0, 0.0, 0.0, 0.0, 0.0, 0.0, 0.0, 0.0, 0.0, 0.0, 1.747691550084577E9, 0.0, 2025-05-19 23:52:30.084
28.0, 21958.353752893658, 18654.296535765712, 48222.81577859113, 34424.25691178524, 44904.095817100504, 3090.9333337465923, 7973.962482686339, 8280.002567768404, 0.0, 0.0, 6635.629431680373, -27196.842693906154, 18488.08896399605, 5732.194272541317, -6749.623328402439, -30777.301582968426, 0.054, -0.002, 1.03, 192.0, 0.0, 0.0, 0.0, 0.0, 0.0, 0.0, 0.0, 0.0, 0.0, 1.747691550094636E9, 0.0, 2025-05-19 23:52:30.094
30.0, 21962.444122128978, 18660.84559689112, 48231.77882811771, 34445.96045565134, 44916.12105561746, 3115.8778805587153, 8009.501756370278, 8284.294102703823, 0.0, 0.0, 6634.958879346715, -27187.253795534827, 18484.602091861023, 5738.497464477714, -6739.408581186364, -30771.62423987678, 0.056, 0.0, 1.028, 192.0, 0.5, 96.0, 0.0, 0.0, 16.0, 16.0, 0.0, 0.0, 0.0, 1.747691550101672E9, 0.0, 2025-05-19 23:52:30.101
32.0, 21952.899927246563, 18650.854367119595, 48221.96641230183, 34432.83998165608, 44914.399971294406, 3105.5737263648184, 7982.500849068267, 8269.340785663222, 0.0, 0.0, 6633.528367701575, -27183.655164677522, 18496.873199566984, 5751.193255328329, -6735.899357306881, -30760.13544322675, 0.056, 0.0, 1.028, 192.0, 0.0, 0.0, 0.0, 0.0, 0.0, 0.0, 0.0, 0.0, 0.0, 1.747691550108704E9, 0.0, 2025-05-19 23:52:30.108
34.0, 21958.62197382712, 18655.056495077195, 48222.10052276856, 34428.66020544293, 44913.349439305006, 3082.8643539982268, 8009.434701136912, 8283.936474792537, 0.0, 0.0, 6620.586707661952, -27198.072039851195, 18472.62155683298, 5733.267156275172, -6748.304575479577, -30779.290888224947, 0.056, 0.0, 1.028, 192.0, 0.0, 0.0, 0.0, 0.0, 0.0, 0.0, 0.0, 0.0, 0.0, 1.747691550117763E9, 0.0, 2025-05-19 23:52:30.117
36.0, 21954.643363314077, 18654.475349721357, 48225.497987925766, 34437.86912415852, 44916.88101492894, 3109.0829502443016, 8012.720407571842, 8277.655634600596, 0.0, 0.0, 6633.014277579103, -27188.52784496878, 18487.84309480704, 5758.4799240207585, -6723.516490878641, -30756.313294924894, 0.056, 0.0, 1.028, 192.0, 0.0, 0.0, 0.0, 0.0, 0.0, 0.0, 0.0, 0.0, 0.0, 1.747691550124792E9, 0.0, 2025-05-19 23:52:30.124
38.0, 21953.659886558045, 18649.826186874652, 48213.24923196426, 34418.22194078231, 44908.27559331365, 3091.402720380154, 7993.699073040376, 8288.429175428055, 0.0, 0.0, 6615.937544815248, -27206.81157193322, 18473.023888233172, 5735.4129237428815, -6751.545578425596, -30776.832196334864, 0.056, 0.0, 1.028, 192.0, 0.0, 0.0, 0.0, 0.0, 0.0, 0.0, 0.0, 0.0, 0.0, 1.747691550133823E9, 0.0, 2025-05-19 23:52:30.133
40.0, 21952.07291270172, 18650.630849675043, 48216.08790351009, 34428.36963276501, 44911.94127940432, 3094.4872611149863, 8018.464805896856, 8283.601198625707, 0.0, 0.0, 6624.922946086282, -27199.591958474157, 18471.61572833249, 5739.324479022561, -6737.486331163208, -30774.015876533496, 0.056, -0.008, 1.028, 192.0, 0.5, 96.0, 127.5, 96.0, 16.0, 16.0, 0.0, 0.0, 0.0, 1.747691550140878E9, 0.0, 2025-05-19 23:52:30.140
42.0, 21945.38974110958, 18645.4005414725, 48215.17148198742, 34426.35797576403, 44903.067636855565, 3108.166528721634, 7994.0790526961155, 8273.699375832008, 0.0, 0.0, 6618.440940194242, -27200.150752085538, 18480.914054025896, 5741.6937639348225, -6742.247252732188, -30771.445425921134, 0.056, -0.008, 1.028, 192.0, 0.0, 0.0, 0.0, 0.0, 0.0, 0.0, 0.0, 0.0, 0.0, 1.747691550148885E9, 0.0, 2025-05-19 23:52:30.148
44.0, 21951.5811743237, 18649.35680024109, 48219.21714773383, 34427.18499030888, 44905.90630840138, 3092.296790158366, 8024.097445499593, 8292.810117341294, 0.0, 0.0, 6619.111492527902, -27196.038031105763, 18472.75566729971, 5731.255499274194, -6748.461037690764, -30781.4143039482, 0.056, -0.008, 1.028, 192.0, 0.0, 0.0, 0.0, 0.0, 0.0, 0.0, 0.0, 0.0, 0.0, 1.747691550156992E9, 0.0, 2025-05-19 23:52:30.156
46.0, 21938.550107306255, 18633.285895977726, 48216.266717465725, 34430.917731632915, 44900.608944965476, 3103.8079385528495, 8018.665971596954, 8280.851934057706, 0.0, 0.0, 6618.8879750833485, -27202.028298619785, 18474.879083022963, 5752.310842551094, -6728.724447336727, -30763.13057698376, 0.056, -0.008, 1.028, 192.0, 0.0, 0.0, 0.0, 0.0, 0.0, 0.0, 0.0, 0.0, 0.0, 1.747691550164973E9, 0.0, 2025-05-19 23:52:30.164
48.0, 21944.786244009287, 18642.36070422658, 48221.720543112824, 34426.84971414205, 44894.97630536274, 3100.8798600292043, 8001.611590577554, 8290.440832429033, 0.0, 0.0, 6612.383617446854, -27209.270263823306, 18469.13468469795, 5744.37597326946, -6741.688459120805, -30769.031437519963, 0.056, -0.008, 1.028, 192.0, 0.0, 0.0, 0.0, 0.0, 0.0, 0.0, 0.0, 0.0, 0.0, 1.747691550172966E9, 0.0, 2025-05-19 23:52:30.172
