%OpenBCI Raw EXG Data
%Number of channels = 16
%Sample Rate = 125 Hz
%Board = OpenBCI_GUI$BoardCytonSerialDaisy
Sample Index, EXG Channel 0, EXG Channel 1, EXG Channel 2, EXG Channel 3, EXG Channel 4, EXG Channel 5, EXG Channel 6, EXG Channel 7, EXG Channel 8, EXG Channel 9, EXG Channel 10, EXG Channel 11, EXG Channel 12, EXG Channel 13, EXG Channel 14, EXG Channel 15, Accel Channel 0, Accel Channel 1, Accel Channel 2, Not Used, Digital Channel 0 (D11), Digital Channel 1 (D12), Digital Channel 2 (D13), Digital Channel 3 (D17), Not Used, Digital Channel 4 (D18), Analog Channel 0, Analog Channel 1, Analog Channel 2, Timestamp, Marker Channel, Timestamp (Formatted)
172.0, 24044.419711163013, 21030.041102175845, 48796.450948292135, 32351.043206577684, 38170.02930283896, 3656.991262077244, 8714.431073001751, 2114.1621010496738, 0.0, 0.0, 14726.648000079156, -14746.384590433192, 10038.973097678792, 2341.7028596047, -20329.470375713157, -32941.59864683136, 0.0, 0.0, 0.0, 192.0, 0.0, 0.0, 0.0, 0.0, 0.0, 0.0, 0.0, 0.0, 0.0, 1.747688752818612E9, 0.0, 2025-05-19 23:05:52.818
174.0, 24040.217583205413, 21027.269485863388, 48792.89702092374, 32367.44938700788, 38169.69402667213, 3689.49069851526, 8693.666302402771, 2102.092159043808, 0.0, 0.0, 14736.460415895035, -14735.074607738807, 10070.3772986385, 2367.5861796839454, -20311.45486968218, -32911.2673296055, 0.062, -0.008, 1.032, 192.0, 0.5, 120.0, 127.5, 96.0, 16.0, 32.0, 0.0, 0.0, 0.0, 1.747688752819106E9, 0.0, 2025-05-19 23:05:52.819
0.0, 12188.897989856958, 10806.532002274038, 24609.002424359613, 16415.836383800077, 19496.8008395196, 1172.7736798255062, 5084.708939159982, 1231.9834508876147, 0.0, 0.0, 7362.195236944585, -7373.549923127881, 5027.823749521226, 1169.8679530463164, -10170.647224265007, -16463.467951234335, 0.06, -0.008, 1.0310000000000001, 192.0, 0.5, 104.0, 127.5, 96.0, 16.0, 24.0, 0.0, 0.0, 0.0, 1.747688752897717E9, 0.0, 2025-05-19 23:05:52.897
2.0, 24376.790151213427, 21608.593655657012, 49210.673476537886, 32803.10723818627, 38993.64638252812, 2337.2548624580936, 10156.945604913904, 2461.5752651185117, 0.0, 0.0, 15077.972719427673, -16111.986769674633, 10738.381533429807, 2898.887145386594, -19480.39465908941, -32308.954871768343, 0.06, -0.008, 1.0310000000000001, 192.0, 0.0, 0.0, 0.0, 0.0, 0.0, 0.0, 0.0, 0.0, 0.0, 1.747688752904749E9, 0.0, 2025-05-19 23:05:52.904
4.0, 24392.861055476795, 21629.17961230035, 49211.03110444917, 32819.938101761116, 39000.620126798174, 2359.0701650464734, 10171.63070102104, 2437.6812502957882, 0.0, 0.0, 15082.42071657428, -16100.229752091142, 10719.047274475966, 2896.5178604743314, -19483.635662035427, -32323.662319619936, 0.06, -0.008, 1.0310000000000001, 192.0, 0.0, 0.0, 0.0, 0.0, 0.0, 0.0, 0.0, 0.0, 0.0, 1.747688752911774E9, 0.0, 2025-05-19 23:05:52.911
6.0, 24373.079761633846, 21600.70348986429, 49216.060246951616, 32818.954625005084, 39007.258594901396, 2361.439449958736, 10148.63075597653, 2448.6336050788886, 0.0, 0.0, 15085.192332886736, -16100.408566046783, 10747.769266101035, 2917.729665962418, -19469.308193839574, -32296.460246617826, 0.06, -0.008, 1.0310000000000001, 192.0, 0.0, 0.0, 0.0, 0.0, 0.0, 0.0, 0.0, 0.0, 0.0, 1.747688752920829E9, 0.0, 2025-05-19 23:05:52.920
8.0, 24388.815389730382, 21616.126193538454, 49213.31098238361, 32804.269528897945, 39003.123522177164, 2327.688315831222, 10167.942663185915, 2447.3148521560256, 0.0, 0.0, 15071.624824002365, -16115.09366215392, 10719.471957620617, 2887.219534780924, -19486.988423703722, -32327.886799321986, 0.054, -0.01, 1.032, 192.0, 0.5, 88.0, 127.5, 88.0, 16.0, 32.0, 0.0, 0.0, 0.0, 1.747688752927839E9, 0.0, 2025-05-19 23:05:52.927
10.0, 24373.77266571196, 21608.146620767908, 49198.24590662073, 32817.30059591539, 38977.5978300092, 2359.0031098131076, 10167.406221318988, 2433.1885496602717, 0.0, 0.0, 15085.50525730911, -16094.239484577118, 10733.710018838647, 2906.151462334569, -19479.791161989113, -32316.286243949682, 0.054, -0.01, 1.032, 192.0, 0.0, 0.0, 0.0, 0.0, 0.0, 0.0, 0.0, 0.0, 0.0, 1.747688752935866E9, 0.0, 2025-05-19 23:05:52.935
12.0, 24364.742560952018, 21596.590768884515, 49195.697807752826, 32786.097560655784, 38988.70664700349, 2374.828144887465, 10137.656049448973, 2449.9970614906624, 0.0, 0.0, 15056.157416839293, -16128.884688482845, 10719.851937276357, 2879.4187759660217, -19504.065156467575, -32326.389232443482, 0.054, -0.01, 1.032, 192.0, 0.0, 0.0, 0.0, 0.0, 0.0, 0.0, 0.0, 0.0, 0.0, 1.747688752944892E9, 0.0, 2025-05-19 23:05:52.944
14.0, 24387.630747274252, 21622.831716875044, 49213.042761450146, 32820.94393026161, 38998.6084697972, 2331.823388555454, 10169.529637042242, 2434.5743578165007, 0.0, 0.0, 15077.548036283022, -16106.175316116252, 10714.64398081827, 2885.47609871341, -19491.592883061516, -32336.469869192824, 0.054, -0.01, 1.032, 192.0, 0.0, 0.0, 0.0, 0.0, 0.0, 0.0, 0.0, 0.0, 0.0, 1.747688752951908E9, 0.0, 2025-05-19 23:05:52.951
16.0, 24365.122540607757, 21598.401260185394, 49209.35472361502, 32815.51245635896, 38995.702743018, 2358.891351090831, 10132.202223801878, 2444.9679189882186, 0.0, 0.0, 15077.190408371736, -16100.542676513514, 10742.538957898494, 2912.4323025265103, -19471.453961307285, -32300.01417398622, 0.054, -0.01, 1.032, 192.0, 0.0, 0.0, 0.0, 0.0, 0.0, 0.0, 0.0, 0.0, 0.0, 1.747688752960946E9, 0.0, 2025-05-19 23:05:52.960
18.0, 24383.138046638735, 21613.399280714904, 49206.71721776929, 32799.86623524025, 38989.69012375952, 2353.504580677102, 10155.135113613023, 2440.944604986263, 0.0, 0.0, 15058.996088385116, -16115.42893832075, 10711.805309272446, 2877.921209087516, -19496.66672905287, -32332.29009297968, 0.058, -0.002, 1.032, 192.0, 0.5, 104.0, 127.5, 120.0, 16.0, 32.0, 0.0, 0.0, 0.0, 1.747688752968958E9, 0.0, 2025-05-19 23:05:52.968
20.0, 24378.555939025395, 21610.359443468984, 49199.8105287326, 32812.942005746605, 38987.76787373637, 2361.2606360030936, 10167.450924807898, 2434.6861165387772, 0.0, 0.0, 15083.068917163482, -16097.90517066779, 10729.373780414317, 2903.022218110826, -19481.534598056627, -32319.907226551444, 0.058, -0.002, 1.032, 192.0, 0.0, 0.0, 0.0, 0.0, 0.0, 0.0, 0.0, 0.0, 0.0, 1.74768875297703E9, 0.0, 2025-05-19 23:05:52.977
22.0, 24375.292584334922, 21603.47510617675, 49212.84159575005, 32797.9439852171, 38986.627934769145, 2365.105136049406, 10119.215860273345, 2439.0000032186513, 0.0, 0.0, 15061.007745386094, -16122.827365735457, 10723.539975111482, 2882.503316700854, -19497.38198487544, -32325.58456964309, 0.058, -0.002, 1.032, 192.0, 0.0, 0.0, 0.0, 0.0, 0.0, 0.0, 0.0, 0.0, 0.0, 1.747688752984016E9, 0.0, 2025-05-19 23:05:52.984
24.0, 24392.34696535432, 21626.51975471017, 49215.83672950706, 32821.122744217246, 38991.43355982704, 2364.2557697601046, 10174.894055711515, 2433.2556048936376, 0.0, 0.0, 15085.393498586835, -16097.480487523138, 10718.935515753688, 2895.534383718298, -19480.059382922576, -32329.339662711584, 0.058, -0.002, 1.032, 192.0, 0.0, 0.0, 0.0, 0.0, 0.0, 0.0, 0.0, 0.0, 0.0, 1.747688752992075E9, 0.0, 2025-05-19 23:05:52.992
26.0, 24364.899023163205, 21592.5451031381, 49207.857156736514, 32812.76319179096, 38991.0535801713, 2367.7426418951322, 10136.918441881948, 2441.302232897548, 0.0, 0.0, 15081.79486772953, -16101.369691058362, 10740.773170086524, 2915.852119428172, -19474.22557761974, -32297.041391973664, 0.058, -0.002, 1.032, 192.0, 0.0, 0.0, 0.0, 0.0, 0.0, 0.0, 0.0, 0.0, 0.0, 1.747688753000117E9, 0.0, 2025-05-19 23:05:53.000
28.0, 24380.29937509291, 21607.11844052296, 49205.66668577989, 32795.172368904634, 38992.215870882974, 2387.7027496937217, 10134.839729647605, 2433.9708607162074, 0.0, 0.0, 15067.534454767045, -16119.787528489534, 10710.665370305225, 2877.47417419841, -19498.0525372091, -32334.659377891945, 0.058, -0.004, 1.03, 192.0, 0.5, 104.0, 127.5, 112.0, 16.0, 24.0, 0.0, 0.0, 0.0, 1.74768875300811E9, 0.0, 2025-05-19 23:05:53.008
30.0, 24376.29841283541, 21607.14079226742, 49203.99030494575, 32818.462886627065, 38993.78049299485, 2393.5812584854675, 10148.340183298611, 2428.7852560025763, 0.0, 0.0, 15081.88427470735, -16100.229752091142, 10726.244536190574, 2902.128148332614, -19481.959281201278, -32320.376613185002, 0.058, -0.004, 1.03, 192.0, 0.0, 0.0, 0.0, 0.0, 0.0, 0.0, 0.0, 0.0, 0.0, 1.747688753016128E9, 0.0, 2025-05-19 23:05:53.016
32.0, 24356.070084103358, 21585.146675723397, 49192.94854318482, 32779.10146464127, 38978.8495276987, 2356.6114731563894, 10126.591935943597, 2433.9261572272967, 0.0, 0.0, 15059.331364551947, -16127.029493693055, 10717.572059341916, 2880.5140114443316, -19499.52775234315, -32326.322177210117, 0.058, -0.004, 1.03, 192.0, 0.0, 0.0, 0.0, 0.0, 0.0, 0.0, 0.0, 0.0, 0.0, 1.747688753024157E9, 0.0, 2025-05-19 23:05:53.024
34.0, 24383.67448850566, 21621.93764709683, 49198.49177580974, 32807.82345626634, 39000.24014714243, 2359.606606913401, 10163.829942206137, 2424.0913896669617, 0.0, 0.0, 15068.540283267534, -16113.931371442244, 10701.098823678354, 2875.5295724307985, -19505.04863322361, -32347.422223975926, 0.058, -0.004, 1.03, 192.0, 0.0, 0.0, 0.0, 0.0, 0.0, 0.0, 0.0, 0.0, 0.0, 1.747688753033189E9, 0.0, 2025-05-19 23:05:53.033
36.0, 24358.43936901562, 21589.818190314556, 49191.18275537286, 32794.43476133761, 38983.78926322333, 2381.332502523959, 10122.076883563625, 2440.8775497528973, 0.0, 0.0, 15067.802675700508, -16110.243333607119, 10728.725579825114, 2898.19424130848, -19490.765868516668, -32316.375650927504, 0.058, -0.004, 1.03, 192.0, 0.0, 0.0, 0.0, 0.0, 0.0, 0.0, 0.0, 0.0, 0.0, 1.747688753039162E9, 0.0, 2025-05-19 23:05:53.039
38.0, 24370.06227613238, 21597.015452029165, 49194.73668274125, 32777.40273206267, 38973.842736940715, 2351.8729033318646, 10155.559796757674, 2437.1224566844057, 0.0, 0.0, 15051.463550503679, -16131.90217398431, 10695.197963142153, 2862.8337815801838, -19513.05055773861, -32349.903267610465, 0.062, -0.002, 1.032, 192.0, 0.5, 120.0, 127.5, 120.0, 16.0, 32.0, 0.0, 0.0, 0.0, 1.747688753048236E9, 0.0, 2025-05-19 23:05:53.048
40.0, 24365.59192724132, 21595.383774683927, 49196.97185718678, 32808.4940086, 38972.05459738429, 2379.9690461121854, 10158.286709581222, 2428.8970147248524, 0.0, 0.0, 15069.970794912673, -16110.33274058494, 10710.26303890503, 2888.76180514834, -19499.684214554338, -32335.35228197006, 0.062, -0.002, 1.032, 192.0, 0.0, 0.0, 0.0, 0.0, 0.0, 0.0, 0.0, 0.0, 0.0, 1.747688753056279E9, 0.0, 2025-05-19 23:05:53.056
42.0, 24355.377180025243, 21585.213730956762, 49196.055435664115, 32783.46005481006, 38986.13619639113, 2395.1235288528837, 10122.680380663918, 2434.6637647943217, 0.0, 0.0, 15051.664716203775, -16125.420168092272, 10712.766434284023, 2882.90564810105, -19499.57245583206, -32324.645796375968, 0.062, -0.002, 1.032, 192.0, 0.0, 0.0, 0.0, 0.0, 0.0, 0.0, 0.0, 0.0, 0.0, 1.747688753064285E9, 0.0, 2025-05-19 23:05:53.064
44.0, 24374.64438374572, 21609.934760324333, 49199.87758396597, 32804.31423238686, 38983.02930391184, 2407.171119114294, 10156.364459558066, 2428.248814135649, 0.0, 0.0, 15056.090361605928, -16122.46973782417, 10691.241704373564, 2877.2953602427674, -19501.919388999868, -32348.83038387661, 0.062, -0.002, 1.032, 192.0, 0.0, 0.0, 0.0, 0.0, 0.0, 0.0, 0.0, 0.0, 0.0, 1.747688753072322E9, 0.0, 2025-05-19 23:05:53.072
46.0, 24364.96607839657, 21596.791934584613, 49204.95142995733, 32810.75153478998, 38990.0030481819, 2392.5754299849787, 10127.128377810524, 2430.618099047911, 0.0, 0.0, 15076.072821148971, -16098.598074745903, 10735.386399672794, 2911.7170467039405, -19477.153656143386, -32304.43981938837, 0.062, -0.002, 1.032, 192.0, 0.0, 0.0, 0.0, 0.0, 0.0, 0.0, 0.0, 0.0, 0.0, 1.747688753080362E9, 0.0, 2025-05-19 23:05:53.080
48.0, 24377.125427380255, 21607.297254478606, 49201.79983398913, 32795.462941582555, 38975.47441428595, 2396.1293573533726, 10147.803741431682, 2434.462599094224, 0.0, 0.0, 15055.062181360983, -16118.848755222412, 10703.088128934876, 2872.1097555291362, -19507.306159413598, -32341.096680295075, 0.058, -0.002, 1.032, 192.0, 0.5, 104.0, 127.5, 120.0, 16.0, 32.0, 0.0, 0.0, 0.0, 1.7476887530884E9, 0.0, 2025-05-19 23:05:53.088
50.0, 24377.751276225004, 21610.582960913536, 49210.092331182044, 32830.421069910655, 38988.63959177012, 2416.33533434097, 10154.308099068177, 2443.1350759428833, 0.0, 0.0, 15082.621882274376, -16082.9965571161, 10730.69253333718, 2911.3594187926556, -19479.90292071139, -32311.190046213873, 0.058, -0.002, 1.032, 192.0, 0.0, 0.0, 0.0, 0.0, 0.0, 0.0, 0.0, 0.0, 0.0, 1.747688753095382E9, 0.0, 2025-05-19 23:05:53.095
52.0, 24352.136177079225, 21587.158332724375, 49190.55690652811, 32788.80212173487, 38966.04197812581, 2405.0253516465846, 10122.389807986, 2442.665689309322, 0.0, 0.0, 15058.325536051458, -16111.584438274436, 10723.137643711287, 2889.09708131517, -19500.24300816572, -32314.319290437616, 0.058, -0.002, 1.032, 192.0, 0.0, 0.0, 0.0, 0.0, 0.0, 0.0, 0.0, 0.0, 0.0, 1.74768875310445E9, 0.0, 2025-05-19 23:05:53.104
54.0, 24380.20996811509, 21612.393452214415, 49196.07778740857, 32808.78458127792, 38985.24212661292, 2393.76007244111, 10159.404296803987, 2432.227424648693, 0.0, 0.0, 15063.891120420829, -16103.04607189251, 10701.948189967656, 2880.7375288888848, -19505.696833812814, -32339.219133760827, 0.058, -0.002, 1.032, 192.0, 0.0, 0.0, 0.0, 0.0, 0.0, 0.0, 0.0, 0.0, 0.0, 1.747688753112483E9, 0.0, 2025-05-19 23:05:53.112
56.0, 24345.05067408689, 21577.189454697305, 49183.98549365825, 32794.50181657098, 38967.18191709303, 2387.859211904909, 10127.86598537755, 2433.1214944269054, 0.0, 0.0, 15060.068972118972, -16106.778813216546, 10723.40586464475, 2896.1602325630465, -19500.377118632452, -32315.526284638203, 0.058, -0.002, 1.032, 192.0, 0.0, 0.0, 0.0, 0.0, 0.0, 0.0, 0.0, 0.0, 0.0, 1.747688753120506E9, 0.0, 2025-05-19 23:05:53.120
58.0, 24360.562784738875, 21593.32741419404, 49199.67641826587, 32791.886662469704, 38971.38404505063, 2432.6968112822547, 10139.555947727675, 2433.0991426824503, 0.0, 0.0, 15041.807596898985, -16123.922601213766, 10693.990968941567, 2865.828915337195, -19519.06317699709, -32345.276456508218, 0.064, 0.008, 1.026, 192.0, 1.0, 0.0, 0.0, 32.0, 16.0, 8.0, 0.0, 0.0, 0.0, 1.747688753127531E9, 0.0, 2025-05-19 23:05:53.127
60.0, 24359.266383560465, 21594.020318272153, 49206.27018288019, 32818.06055522687, 38990.76300749338, 2413.787235473065, 10136.04672384819, 2426.684192023777, 0.0, 0.0, 15077.637443260843, -16089.076231607944, 10724.769321056525, 2906.017351867837, -19487.256644637186, -32319.057860262143, 0.064, 0.008, 1.026, 192.0, 0.0, 0.0, 0.0, 0.0, 0.0, 0.0, 0.0, 0.0, 0.0, 1.747688753136508E9, 0.0, 2025-05-19 23:05:53.136
62.0, 24349.05163634439, 21579.156408209376, 49180.47626977877, 32766.718598213032, 38974.6473997411, 2435.848407250453, 10095.590066384086, 2415.8435959629533, 0.0, 0.0, 15044.892137633818, -16123.341455857928, 10709.21250691563, 2872.668549140519, -19513.944627516823, -32335.26287499224, 0.064, 0.008, 1.026, 192.0, 0.0, 0.0, 0.0, 0.0, 0.0, 0.0, 0.0, 0.0, 0.0, 1.747688753144608E9, 0.0, 2025-05-19 23:05:53.144
64.0, 24359.691066705116, 21591.963957782264, 49189.79694721663, 32798.748648017485, 38968.85829792718, 2379.3208455229815, 10161.192436360412, 2416.8717762078973, 0.0, 0.0, 15045.31682077847, -16119.698121511714, 10684.625588014793, 2860.2409792233684, -19521.745386331724, -32362.755520672268, 0.064, 0.008, 1.026, 192.0, 0.0, 0.0, 0.0, 0.0, 0.0, 0.0, 0.0, 0.0, 0.0, 1.747688753151647E9, 0.0, 2025-05-19 23:05:53.151
66.0, 24360.406322527688, 21594.623815372448, 49195.45193856382, 32809.63394756722, 38981.174109122054, 2422.750284999643, 10110.230459002312, 2434.753171772143, 0.0, 0.0, 15070.641347246332, -16093.054842120988, 10734.089998494388, 2899.6918081869853, -19494.409202862884, -32312.173522969908, 0.064, 0.008, 1.026, 192.0, 0.0, 0.0, 0.0, 0.0, 0.0, 0.0, 0.0, 0.0, 0.0, 1.747688753160663E9, 0.0, 2025-05-19 23:05:53.160
68.0, 24384.389744328233, 21623.390510486428, 49201.442206077845, 32803.62132830874, 38968.65713222708, 2419.531633798079, 10156.543273513707, 2444.498532354657, 0.0, 0.0, 15054.905719149796, -16103.80603120399, 10708.31843713742, 2870.9474648174605, -19514.034034494645, -32336.939255826386, 0.06, 0.002, 1.03, 192.0, 0.5, 112.0, 0.0, 8.0, 16.0, 24.0, 0.0, 0.0, 0.0, 1.747688753168711E9, 0.0, 2025-05-19 23:05:53.168
70.0, 24395.945596211626, 21639.014379860688, 49207.723046269784, 32838.177125236645, 38959.82819316723, 2453.014546992129, 10174.402317333499, 2442.330413142492, 0.0, 0.0, 15087.047527676526, -16065.517492952049, 10740.16967298623, 2911.918212404038, -19484.261510880177, -32306.496179878257, 0.06, 0.002, 1.03, 192.0, 0.0, 0.0, 0.0, 0.0, 0.0, 0.0, 0.0, 0.0, 0.0, 1.747688753175751E9, 0.0, 2025-05-19 23:05:53.175
72.0, 24393.241035132534, 21638.835565905043, 49208.37124685899, 32809.097505700294, 38960.16346933407, 2444.431477121291, 10129.654124933973, 2444.72204979921, 0.0, 0.0, 15064.852245432407, -16087.265740307063, 10740.594356130881, 2890.4605377269436, -19506.702662313302, -32310.452438646847, 0.06, 0.002, 1.03, 192.0, 0.0, 0.0, 0.0, 0.0, 0.0, 0.0, 0.0, 0.0, 0.0, 1.747688753183795E9, 0.0, 2025-05-19 23:05:53.183
74.0, 24439.73266359957, 21691.272758397194, 49235.50626462773, 32846.69313987412, 38979.27421084335, 2445.6384713218777, 10176.883360968037, 2451.405221391347, 0.0, 0.0, 15095.116507424893, -16058.186120770708, 10741.823702075924, 2907.1572908350577, -19478.606519532983, -32313.20170321485, 0.06, 0.002, 1.03, 192.0, 0.0, 0.0, 0.0, 0.0, 0.0, 0.0, 0.0, 0.0, 0.0, 1.747688753191809E9, 0.0, 2025-05-19 23:05:53.191
76.0, 24425.874582037282, 21676.788827990156, 49220.441188864854, 32831.51630538896, 38968.321856060255, 2463.6986808417655, 10127.307191766167, 2437.2789188955926, 0.0, 0.0, 15098.737490026653, -16055.056876546965, 10771.059783823464, 2925.2622038438567, -19472.75036248569, -32287.564252324613, 0.06, 0.002, 1.03, 192.0, 0.0, 0.0, 0.0, 0.0, 0.0, 0.0, 0.0, 0.0, 0.0, 1.74768875320088E9, 0.0, 2025-05-19 23:05:53.200
78.0, 24460.966820832113, 21715.34558717556, 49235.93094777238, 32829.68346234363, 38986.80674872479, 2469.666596611333, 10152.095276367101, 2445.951395744252, 0.0, 0.0, 15088.36628059939, -16066.948004597189, 10749.088019023899, 2896.316694774234, -19484.52973181364, -32314.542807882168, 0.058, -0.002, 1.028, 192.0, 0.5, 104.0, 127.5, 120.0, 16.0, 16.0, 0.0, 0.0, 0.0, 1.747688753207869E9, 0.0, 2025-05-19 23:05:53.207
80.0, 24468.36524824682, 21729.941276304875, 49233.18168320438, 32859.16541328018, 38977.888402687124, 2483.7928991070867, 10172.323605099155, 2451.1593522023386, 0.0, 0.0, 15121.402158904333, -16030.894640790779, 10778.592321704904, 2930.6042707686747, -19465.061362393066, -32289.508854092226, 0.058, -0.002, 1.028, 192.0, 0.0, 0.0, 0.0, 0.0, 0.0, 0.0, 0.0, 0.0, 0.0, 1.747688753215889E9, 0.0, 2025-05-19 23:05:53.215
82.0, 24450.148576515745, 21711.16581096242, 49215.23323240677, 32817.92644476014, 38956.654245454585, 2505.1835185508157, 10134.057418591668, 2462.9387215302854, 0.0, 0.0, 15093.216609146191, -16057.090885292399, 10772.534998957515, 2905.2573925563565, -19489.894150482913, -32295.521473350702, 0.058, -0.002, 1.028, 192.0, 0.0, 0.0, 0.0, 0.0, 0.0, 0.0, 0.0, 0.0, 0.0, 1.747688753224923E9, 0.0, 2025-05-19 23:05:53.224
84.0, 24482.31273678693, 21745.05105555666, 49223.50337785523, 32844.748538106505, 38974.91562067457, 2460.3906226623803, 10175.072869667158, 2448.141866700872, 0.0, 0.0, 15095.876466736374, -16050.966507311645, 10750.183254502208, 2897.4119302525437, -19495.727955785747, -32318.58847362858, 0.058, -0.002, 1.028, 192.0, 0.0, 0.0, 0.0, 0.0, 0.0, 0.0, 0.0, 0.0, 0.0, 1.747688753231945E9, 0.0, 2025-05-19 23:05:53.231
86.0, 24463.000829577548, 21723.50397390175, 49219.7706365312, 32839.719395604065, 38972.83690844022, 2473.578151891011, 10128.67064817794, 2446.6442998223665, 0.0, 0.0, 15108.684016309264, -16038.561289138948, 10786.348377030896, 2927.4303230560213, -19472.169217129853, -32282.043371444153, 0.058, -0.002, 1.028, 192.0, 0.0, 0.0, 0.0, 0.0, 0.0, 0.0, 0.0, 0.0, 0.0, 1.747688753239939E9, 0.0, 2025-05-19 23:05:53.239
88.0, 24476.456579739643, 21737.87614558651, 49224.93388950037, 32826.844790797804, 38968.947704905004, 2461.0611749960394, 10142.372267529043, 2449.460619623735, 0.0, 0.0, 15085.438202075746, -16065.763362141057, 10747.74691435658, 2884.6714359130187, -19500.198304676807, -32322.410621930438, 0.057, -0.004, 1.0270000000000001, 192.0, 0.5, 96.0, 127.5, 104.0, 16.0, 8.0, 0.0, 0.0, 0.0, 1.747688753247967E9, 0.0, 2025-05-19 23:05:53.247
90.0, 24478.84821639636, 21741.273610743716, 49231.10297097004, 32855.32091323387, 38968.47831827144, 2494.3429224899915, 10156.744439213806, 2442.598634075956, 0.0, 0.0, 15119.23403969217, -16027.832451800401, 10776.670071681747, 2928.81613121225, -19465.1954728598, -32291.00642097073, 0.057, -0.004, 1.0270000000000001, 192.0, 0.0, 0.0, 0.0, 0.0, 0.0, 0.0, 0.0, 0.0, 0.0, 1.747688753257001E9, 0.0, 2025-05-19 23:05:53.257
92.0, 24454.820091106903, 21718.877162799497, 49209.42177884839, 32811.42208712365, 38950.86514364066, 2491.9512858332737, 10127.977744099826, 2436.049572950551, 0.0, 0.0, 15083.426545074768, -16065.159865040765, 10762.387306974806, 2889.9687993489265, -19507.23910418023, -32313.53697938168, 0.057, -0.004, 1.0270000000000001, 192.0, 0.0, 0.0, 0.0, 0.0, 0.0, 0.0, 0.0, 0.0, 0.0, 1.747688753264024E9, 0.0, 2025-05-19 23:05:53.264
94.0, 24494.136809603788, 21756.875128373522, 49240.84833155255, 32850.85056434281, 38995.56863255127, 2514.906527388874, 10154.732782212828, 2431.0651339370174, 0.0, 0.0, 15107.477022108678, -16041.17644324022, 10758.095772039387, 2897.3001715302676, -19487.36840335946, -32323.103526008552, 0.057, -0.004, 1.0270000000000001, 192.0, 0.0, 0.0, 0.0, 0.0, 0.0, 0.0, 0.0, 0.0, 0.0, 1.747688753272071E9, 0.0, 2025-05-19 23:05:53.272
96.0, 24471.293326770465, 21731.12591876101, 49234.433380893875, 32846.715491618575, 38980.45885329948, 2502.590716194, 10119.10410155107, 2447.136038200383, 0.0, 0.0, 15121.55862111552, -16030.000571012566, 10794.059728867976, 2927.251509100379, -19468.43647580582, -32284.099731934042, 0.057, -0.004, 1.0270000000000001, 192.0, 0.0, 0.0, 0.0, 0.0, 0.0, 0.0, 0.0, 0.0, 0.0, 1.747688753280094E9, 0.0, 2025-05-19 23:05:53.280
98.0, 24478.155312318246, 21740.245430498773, 49226.811436034615, 32832.00804376698, 38959.73878618942, 2506.077588329028, 10140.695886694895, 2445.258491666137, 0.0, 0.0, 15093.261312635103, -16056.17446376973, 10757.536978428005, 2885.2972847577676, -19505.652130323902, -32319.840171318076, 0.0565, -0.005, 1.0295, 192.0, 0.5, 96.0, 127.5, 104.0, 16.0, 32.0, 0.0, 0.0, 0.0, 1.747688753288116E9, 0.0, 2025-05-19 23:05:53.288
100.0, 24483.653841454252, 21747.01800906873, 49240.60246236354, 32870.81067214139, 38981.84466145571, 2507.68691392981, 10145.3450495416, 2436.138979928372, 0.0, 0.0, 15125.201955461736, -16016.723634806114, 10783.979092118632, 2930.0007736683815, -19466.62598450494, -32290.469979103804, 0.0565, -0.005, 1.0295, 192.0, 0.0, 0.0, 0.0, 0.0, 0.0, 0.0, 0.0, 0.0, 0.0, 1.747688753296208E9, 0.0, 2025-05-19 23:05:53.296
102.0, 24464.431341222687, 21727.460232670335, 49228.51016861322, 32834.28792170143, 38959.80584142278, 2493.2700387561367, 10131.330505768121, 2444.5432358435673, 0.0, 0.0, 15102.961969728705, -16039.723579850624, 10782.012138606566, 2908.8113199247505, -19487.52486557065, -32292.951022738343, 0.0565, -0.005, 1.0295, 192.0, 0.0, 0.0, 0.0, 0.0, 0.0, 0.0, 0.0, 0.0, 0.0, 1.747688753304187E9, 0.0, 2025-05-19 23:05:53.304
104.0, 24508.821905710927, 21774.376544282026, 49248.93966304537, 32870.25187853001, 38980.123577132654, 2521.008553625173, 10154.218692090357, 2448.0077562341403, 0.0, 0.0, 15121.826842048984, -16020.054044729954, 10773.496123969093, 2910.9794391369155, -19479.366478844462, -32307.05497348964, 0.0565, -0.005, 1.0295, 192.0, 0.0, 0.0, 0.0, 0.0, 0.0, 0.0, 0.0, 0.0, 0.0, 1.747688753312277E9, 0.0, 2025-05-19 23:05:53.312
106.0, 24487.2301205671, 21750.46017771485, 49240.244834452256, 32866.18386103915, 38987.18672838053, 2547.808295227086, 10111.683322391907, 2443.2244829207043, 0.0, 0.0, 15130.208746219725, -16004.765451522524, 10811.538793032027, 2938.1368086501134, -19462.557967014072, -32269.928725949376, 0.0565, -0.005, 1.0295, 192.0, 0.0, 0.0, 0.0, 0.0, 0.0, 0.0, 0.0, 0.0, 0.0, 1.747688753319301E9, 0.0, 2025-05-19 23:05:53.319
108.0, 24495.47791427111, 21757.322163262626, 49230.83475003657, 32834.08675600133, 38984.124539390155, 2526.618841483455, 10122.881546364015, 2431.4451135927575, 0.0, 0.0, 15102.045548206039, -16032.45926290265, 10774.680766425225, 2894.7073691734518, -19491.078792939043, -32310.787714813676, 0.05425000000000001, -0.0025, 1.0277500000000002, 192.0, 0.5, 80.0, 0.0, 0.0, 16.0, 8.0, 0.0, 0.0, 0.0, 1.747688753328334E9, 0.0, 2025-05-19 23:05:53.328
110.0, 24484.637318210283, 21745.855718357056, 49223.235156921764, 32851.56582016538, 38972.12165261766, 2525.4789025162345, 10138.10308433808, 2421.364476843414, 0.0, 0.0, 15121.670379837798, -16018.467070873628, 10784.157906074275, 2916.343857806189, -19480.28290036713, -32304.5739298551, 0.05425000000000001, -0.0025, 1.0277500000000002, 192.0, 0.0, 0.0, 0.0, 0.0, 0.0, 0.0, 0.0, 0.0, 0.0, 1.747688753336418E9, 0.0, 2025-05-19 23:05:53.336
112.0, 24449.70154162664, 21715.032662753187, 49206.40429334692, 32807.82345626634, 38948.249989539385, 2529.0775333735387, 10118.835880617606, 2428.7852560025763, 0.0, 0.0, 15082.979510185662, -16056.688553892203, 10765.829475620923, 2891.4887179718876, -19505.897999512912, -32313.358165426038, 0.05425000000000001, -0.0025, 1.0277500000000002, 192.0, 0.0, 0.0, 0.0, 0.0, 0.0, 0.0, 0.0, 0.0, 0.0, 1.74768875334434E9, 0.0, 2025-05-19 23:05:53.344
114.0, 24473.863777382827, 21743.19586076687, 49215.54615682914, 32825.97307276405, 38962.28688505732, 2499.953210348274, 10159.940738670915, 2425.633660034378, 0.0, 0.0, 15090.713213767198, -16053.671068390737, 10742.583661387403, 2888.1359563035917, -19499.415993620874, -32334.234694747294, 0.05425000000000001, -0.0025, 1.0277500000000002, 192.0, 0.0, 0.0, 0.0, 0.0, 0.0, 0.0, 0.0, 0.0, 0.0, 1.747688753351375E9, 0.0, 2025-05-19 23:05:53.351
116.0, 24454.238945751065, 21723.414566923926, 49214.3168108841, 32831.2480844555, 38963.650341469096, 2559.654719788399, 10114.209069515357, 2439.7376107856767, 0.0, 0.0, 15086.801658487519, -16055.816835858446, 10763.70605989767, 2903.759825677851, -19497.583150575538, -32310.09481073556, 0.05425000000000001, -0.0025, 1.0277500000000002, 192.0, 0.0, 0.0, 0.0, 0.0, 0.0, 0.0, 0.0, 0.0, 0.0, 1.747688753360404E9, 0.0, 2025-05-19 23:05:53.360
118.0, 24474.46727448312, 21741.564183421637, 49214.093293439546, 32818.887569771716, 38959.40351002258, 2509.4079982528688, 10119.2382120178, 2423.018505933107, 0.0, 0.0, 15082.063088662993, -16054.185158513208, 10748.261004479053, 2880.312845744234, -19503.908694256388, -32326.880970821498, 0.054125000000000006, -0.0022500000000000003, 1.026875, 192.0, 0.5, 88.0, 127.5, 120.0, 16.0, 8.0, 0.0, 0.0, 0.0, 1.747688753368432E9, 0.0, 2025-05-19 23:05:53.368
120.0, 24479.719934430115, 21749.901384103465, 49227.19141569036, 32858.69602664662, 38970.71349271697, 2528.8316641845304, 10143.758075685273, 2433.456770593735, 0.0, 0.0, 15112.148536699837, -16023.585620353893, 10770.635100678814, 2908.6772094580188, -19486.96607195927, -32310.11716248002, 0.054125000000000006, -0.0022500000000000003, 1.026875, 192.0, 0.0, 0.0, 0.0, 0.0, 0.0, 0.0, 0.0, 0.0, 0.0, 1.747688753375608E9, 0.0, 2025-05-19 23:05:53.375
122.0, 24450.550907915942, 21721.849944812053, 49206.62781079148, 32820.02750873894, 38949.725204673436, 2534.196082853804, 10118.969991084337, 2432.3391833709697, 0.0, 0.0, 15088.500391066122, -16038.717751350136, 10772.780868146523, 2893.7462441618736, -19503.260493667185, -32304.708040321835, 0.054125000000000006, -0.0022500000000000003, 1.026875, 192.0, 0.0, 0.0, 0.0, 0.0, 0.0, 0.0, 0.0, 0.0, 0.0, 1.747688753384559E9, 0.0, 2025-05-19 23:05:53.384
124.0, 24473.483797727087, 21748.40381722496, 49209.84646199304, 32834.824363568354, 38963.18095483553, 2539.1581701228824, 10159.359593315077, 2431.3557066149365, 0.0, 0.0, 15084.924111953273, -16037.711922849647, 10743.678896865715, 2881.0728050557145, -19506.792069291125, -32333.20651450235, 0.054125000000000006, -0.0022500000000000003, 1.026875, 192.0, 0.0, 0.0, 0.0, 0.0, 0.0, 0.0, 0.0, 0.0, 0.0, 1.747688753392589E9, 0.0, 2025-05-19 23:05:53.392
126.0, 24446.438186936164, 21720.374729678006, 49205.420816590886, 32828.677633843145, 38955.51430648736, 2552.2115888847816, 10121.294572507688, 2439.2011689187493, 0.0, 0.0, 15084.946463697728, -16041.779940340513, 10763.16961803074, 2901.435244254499, -19500.53358084364, -32303.992784499264, 0.054125000000000006, -0.0022500000000000003, 1.026875, 192.0, 0.0, 0.0, 0.0, 0.0, 0.0, 0.0, 0.0, 0.0, 0.0, 1.747688753399614E9, 0.0, 2025-05-19 23:05:53.399
128.0, 24450.528556171485, 21720.307674444637, 49202.67155202288, 32806.34824113229, 38955.111975087166, 2525.5683094940555, 10133.81154940266, 2437.882415995886, 0.0, 0.0, 15065.902777421807, -16066.70213540818, 10730.133739725798, 2873.0038253073485, -19514.123441472464, -32331.887761579488, 0.0560625, -0.005125, 1.0274375, 192.0, 0.5, 104.0, 127.5, 96.0, 16.0, 16.0, 0.0, 0.0, 0.0, 1.747688753407626E9, 0.0, 2025-05-19 23:05:53.407
130.0, 24466.599460434853, 21731.26002922774, 49219.390656875454, 32843.250971228, 38962.08571935722, 2539.2475771007034, 10132.559851713164, 2436.496607839657, 0.0, 0.0, 15099.788022016051, -16036.706094349158, 10754.720658626635, 2911.471177514932, -19485.71437426977, -32309.625424102003, 0.0560625, -0.005125, 1.0274375, 192.0, 0.0, 0.0, 0.0, 0.0, 0.0, 0.0, 0.0, 0.0, 0.0, 1.747688753416675E9, 0.0, 2025-05-19 23:05:53.416
132.0, 24444.89591656875, 21707.81304929412, 49206.3148863691, 32808.4940086, 38955.581361720724, 2557.8218767430635, 10118.120624795036, 2433.456770593735, 0.0, 0.0, 15076.229283360159, -16062.947042339689, 10753.714830126148, 2894.215630795435, -19503.796935534112, -32307.88198803449, 0.0560625, -0.005125, 1.0274375, 192.0, 0.0, 0.0, 0.0, 0.0, 0.0, 0.0, 0.0, 0.0, 0.0, 1.747688753424693E9, 0.0, 2025-05-19 23:05:53.424
134.0, 24474.109646571833, 21741.742997377278, 49212.618078305495, 32831.672767600154, 38951.75921341887, 2548.5011993052008, 10163.941700928415, 2432.227424648693, 0.0, 0.0, 15087.181638143258, -16047.881966576811, 10739.36501018584, 2884.2914562572787, -19507.820249536067, -32332.91594182443, 0.0560625, -0.005125, 1.0274375, 192.0, 0.0, 0.0, 0.0, 0.0, 0.0, 0.0, 0.0, 0.0, 0.0, 1.747688753431705E9, 0.0, 2025-05-19 23:05:53.431
136.0, 24457.591707419364, 21728.06372977063, 49210.807587004616, 32828.252950698494, 38948.83113489523, 2552.5245133071558, 10131.732837168318, 2437.3459741289585, 0.0, 0.0, 15097.686958037253, -16033.97918152561, 10776.535961215015, 2907.3361047907, -19493.313967384573, -32299.656546074933, 0.0560625, -0.005125, 1.0274375, 192.0, 0.0, 0.0, 0.0, 0.0, 0.0, 0.0, 0.0, 0.0, 0.0, 1.747688753439799E9, 0.0, 2025-05-19 23:05:53.439
138.0, 24473.1261698158, 21753.96940159433, 49213.19922366134, 32816.63004358173, 38954.86610589816, 2548.3000336051027, 10124.535575453709, 2436.9436427287633, 0.0, 0.0, 15074.150571125814, -16064.444609218195, 10741.622536375826, 2858.788115833773, -19527.936819545845, -32346.12582279752, 0.057031250000000006, -0.0075625, 1.02971875, 192.0, 0.5, 104.0, 127.5, 88.0, 16.0, 32.0, 0.0, 0.0, 0.0, 1.747688753448791E9, 0.0, 2025-05-19 23:05:53.448
140.0, 24475.964841361623, 21750.124901548017, 49214.87560449548, 32848.41422419718, 38958.95647513348, 2576.753804296709, 10139.555947727675, 2423.443189077758, 0.0, 0.0, 15114.361359400913, -16012.856783015346, 10774.904283869779, 2904.922116389527, -19488.351880115497, -32309.938348524374, 0.057031250000000006, -0.0075625, 1.02971875, 192.0, 0.0, 0.0, 0.0, 0.0, 0.0, 0.0, 0.0, 0.0, 0.0, 1.747688753455872E9, 0.0, 2025-05-19 23:05:53.455
142.0, 24454.194242262154, 21727.706101859345, 49201.37515084448, 32811.93617724612, 38947.87000988365, 2554.692632519321, 10109.492851435287, 2432.495645582157, 0.0, 0.0, 15074.485847292644, -16048.776036355024, 10758.922786584233, 2877.988264320882, -19515.375139161963, -32319.482543406793, 0.057031250000000006, -0.0075625, 1.02971875, 192.0, 0.0, 0.0, 0.0, 0.0, 0.0, 0.0, 0.0, 0.0, 0.0, 1.747688753463859E9, 0.0, 2025-05-19 23:05:53.463
144.0, 24477.015373351023, 21754.63995392799, 49208.97474395928, 32834.3996804237, 38948.540562217306, 2566.1814291693486, 10151.178854844435, 2434.3061368830367, 0.0, 0.0, 15079.22441711717, -16038.382475183307, 10737.778036329513, 2876.8483253536615, -19512.335301916042, -32335.68755813689, 0.057031250000000006, -0.0075625, 1.02971875, 192.0, 0.0, 0.0, 0.0, 0.0, 0.0, 0.0, 0.0, 0.0, 0.0, 1.747688753471859E9, 0.0, 2025-05-19 23:05:53.471
146.0, 24457.748169630548, 21732.511726917237, 49212.84159575005, 32835.20434322409, 38955.55900997627, 2579.9948072427283, 10115.52782243822, 2437.2789188955926, 0.0, 0.0, 15093.060146935004, -16025.820794799423, 10774.636062936313, 2915.0027531388705, -19485.51320856967, -32293.263947160718, 0.057031250000000006, -0.0075625, 1.02971875, 192.0, 0.0, 0.0, 0.0, 0.0, 0.0, 0.0, 0.0, 0.0, 0.0, 1.747688753480877E9, 0.0, 2025-05-19 23:05:53.480
148.0, 24458.21755626411, 21731.05886352764, 49193.30617109611, 32796.40171484968, 38931.486181197906, 2560.83936224453, 10141.835825662116, 2428.919366469308, 0.0, 0.0, 15067.668565233776, -16059.41546671575, 10734.782902572502, 2869.919284572516, -19519.44315665283, -32335.7322616258, 0.057515625, -0.00778125, 1.030859375, 192.0, 0.5, 104.0, 127.5, 96.0, 16.0, 32.0, 0.0, 0.0, 0.0, 1.747688753487896E9, 0.0, 2025-05-19 23:05:53.487
150.0, 24467.94056510217, 21742.704122388855, 49203.655028778914, 32828.610578609776, 38959.98465537842, 2556.7713447536644, 10126.1896045434, 2413.273145350593, 0.0, 0.0, 15083.135972396849, -16047.524338665527, 10741.801350331469, 2882.7268341454073, -19519.01847350818, -32336.134593025996, 0.057515625, -0.00778125, 1.030859375, 192.0, 0.0, 0.0, 0.0, 0.0, 0.0, 0.0, 0.0, 0.0, 0.0, 1.74768875349595E9, 0.0, 2025-05-19 23:05:53.495
152.0, 24452.003771305535, 21722.095814001063, 49200.30226711062, 32799.4415520956, 38960.208172822975, 2562.113411678483, 10091.320883193122, 2425.8124739900204, 0.0, 0.0, 15073.211797858692, -16057.828492859424, 10751.993745803089, 2872.9367700739826, -19518.39262466343, -32330.25608423425, 0.057515625, -0.00778125, 1.030859375, 192.0, 0.0, 0.0, 0.0, 0.0, 0.0, 0.0, 0.0, 0.0, 0.0, 1.747688753503956E9, 0.0, 2025-05-19 23:05:53.503
154.0, 24478.80351290745, 21751.130730048506, 49205.73374101326, 32818.37347964924, 38955.13432683162, 2571.545847838622, 10139.734761683318, 2419.755151242632, 0.0, 0.0, 15084.74529799763, -16047.949021810178, 10736.213414217642, 2863.4819821693877, -19523.444118910327, -32354.910058368452, 0.057515625, -0.00778125, 1.030859375, 192.0, 0.0, 0.0, 0.0, 0.0, 0.0, 0.0, 0.0, 0.0, 0.0, 1.747688753511998E9, 0.0, 2025-05-19 23:05:53.511
156.0, 24460.69859989865, 21733.91988681792, 49199.20703163231, 32814.70779355858, 38957.77183267735, 2602.3018482091247, 10101.04389203118, 2425.3207356120033, 0.0, 0.0, 15092.344891112434, -16040.483539162105, 10770.456286723173, 2882.3915579785776, -19517.990293263232, -32327.10448826605, 0.057515625, -0.00778125, 1.030859375, 192.0, 0.0, 0.0, 0.0, 0.0, 0.0, 0.0, 0.0, 0.0, 0.0, 1.747688753520046E9, 0.0, 2025-05-19 23:05:53.520
158.0, 24465.101893556344, 21741.072445043617, 49188.09821463803, 32790.27733686892, 38949.97107386244, 2574.138650195438, 10120.33344749611, 2413.8095872175204, 0.0, 0.0, 15065.478094277156, -16062.56706268395, 10737.062780506943, 2843.477170881888, -19543.471281942282, -32360.162718315452, 0.057757812500000005, -0.004890625, 1.0284296875, 192.0, 0.5, 104.0, 127.5, 120.0, 16.0, 8.0, 0.0, 0.0, 0.0, 1.747688753528032E9, 0.0, 2025-05-19 23:05:53.528
160.0, 24466.1747772902, 21744.961648578843, 49190.02046466118, 32818.328776160335, 38944.204323792976, 2585.60509510101, 10135.376171514532, 2425.790122245565, 0.0, 0.0, 15084.678242764265, -16040.08120776191, 10747.165769000741, 2873.6296741520973, -19523.175897976864, -32346.25993326425, 0.057757812500000005, -0.004890625, 1.0284296875, 192.0, 0.0, 0.0, 0.0, 0.0, 0.0, 0.0, 0.0, 0.0, 0.0, 1.747688753537082E9, 0.0, 2025-05-19 23:05:53.537
162.0, 24454.84244285136, 21727.59434313707, 49188.4111390604, 32793.5406915594, 38945.23250403792, 2596.915077795396, 10119.506432951264, 2440.989308475174, 0.0, 0.0, 15062.572367497965, -16062.455303961671, 10746.361106200351, 2864.957197303438, -19535.44700568283, -32337.296883737672, 0.057757812500000005, -0.004890625, 1.0284296875, 192.0, 0.0, 0.0, 0.0, 0.0, 0.0, 0.0, 0.0, 0.0, 0.0, 1.747688753543139E9, 0.0, 2025-05-19 23:05:53.543
164.0, 24473.21557679362, 21747.286230002195, 49194.15553738541, 32812.13734294622, 38951.33453027422, 2567.075498947561, 10144.20511057438, 2427.310040868526, 0.0, 0.0, 15074.396440314824, -16050.564175911448, 10729.55259436996, 2869.47224968341, -19522.14771773192, -32347.5339826982, 0.057757812500000005, -0.004890625, 1.0284296875, 192.0, 0.0, 0.0, 0.0, 0.0, 0.0, 0.0, 0.0, 0.0, 0.0, 1.747688753552186E9, 0.0, 2025-05-19 23:05:53.552
166.0, 24454.75303587354, 21724.509802402237, 49195.49664205273, 32813.366688891256, 38953.86027739767, 2584.711025322798, 10119.841709118095, 2434.9766892166963, 0.0, 0.0, 15076.430449060255, -16047.233765987608, 10752.8878155813, 2893.5227267173204, -19511.15065945991, -32316.06272650513, 0.057757812500000005, -0.004890625, 1.0284296875, 192.0, 0.0, 0.0, 0.0, 0.0, 0.0, 0.0, 0.0, 0.0, 0.0, 1.747688753560189E9, 0.0, 2025-05-19 23:05:53.560
168.0, 24457.189376019167, 21726.186183236383, 49183.27023783568, 32786.29872635588, 38938.951663845975, 2569.6683013043767, 10126.770749899239, 2424.7395902561657, 0.0, 0.0, 15049.965983625172, -16073.877045378335, 10716.45447211915, 2852.4849238973766, -19537.92804931737, -32352.27255252273, 0.05987890625, -4.4531249999999996E-4, 1.02821484375, 192.0, 0.5, 120.0, 0.0, 16.0, 16.0, 16.0, 0.0, 0.0, 0.0, 1.747688753569199E9, 0.0, 2025-05-19 23:05:53.569
170.0, 24459.93864058717, 21732.176450750405, 49188.25467684921, 32816.56298834836, 38947.80295465028, 2590.1201474809823, 10139.108912838568, 2433.076790937995, 0.0, 0.0, 15073.010632158594, -16046.74202760959, 10733.531204883004, 2877.7870986207845, -19524.33818868854, -32338.05684304915, 0.05987890625, -4.4531249999999996E-4, 1.02821484375, 192.0, 0.0, 0.0, 0.0, 0.0, 0.0, 0.0, 0.0, 0.0, 0.0, 1.747688753576263E9, 0.0, 2025-05-19 23:05:53.576
172.0, 24436.782233331473, 21707.164848704917, 49179.42573778937, 32784.04120016589, 38939.376346990626, 2580.061862476094, 10105.357778711055, 2430.975726959196, 0.0, 0.0, 15053.162283082282, -16069.786676143012, 10737.107483995853, 2861.4926769128656, -19536.05050278312, -32338.526229682713, 0.05987890625, -4.4531249999999996E-4, 1.02821484375, 192.0, 0.0, 0.0, 0.0, 0.0, 0.0, 0.0, 0.0, 0.0, 0.0, 1.747688753584275E9, 0.0, 2025-05-19 23:05:53.584
174.0, 24463.492567955564, 21737.429110697405, 49191.47332805077, 32806.90703474367, 38944.85252438218, 2603.0618075206053, 10141.366439028554, 2424.6054797894335, 0.0, 0.0, 15064.986355899138, -16054.118103279843, 10721.97535299961, 2854.474229153899, -19537.995104550733, -32358.6875031814, 0.05987890625, -4.4531249999999996E-4, 1.02821484375, 192.0, 0.0, 0.0, 0.0, 0.0, 0.0, 0.0, 0.0, 0.0, 0.0, 1.747688753592336E9, 0.0, 2025-05-19 23:05:53.592
176.0, 24441.990189789558, 21712.708081329834, 49187.025330904165, 32805.49887484299, 38945.18780054901, 2628.3639822440127, 10107.794118856684, 2425.0301629340843, 0.0, 0.0, 15077.011594416093, -16048.530167166016, 10751.613766147348, 2881.989226578382, -19519.711377586293, -32326.59039814358, 0.05987890625, -4.4531249999999996E-4, 1.02821484375, 192.0, 0.0, 0.0, 0.0, 0.0, 0.0, 0.0, 0.0, 0.0, 0.0, 1.747688753599306E9, 0.0, 2025-05-19 23:05:53.599
178.0, 24449.388617204266, 21717.938389532377, 49177.21291508829, 32782.70009549858, 38944.47254472644, 2602.3689034424906, 10127.217784788345, 2418.8387297199642, 0.0, 0.0, 15049.563652224977, -16070.099600565387, 10718.60023958686, 2844.5500546157427, -19545.795863365634, -32358.553392714668, 0.060939453125, -0.00222265625, 1.029107421875, 192.0, 0.5, 120.0, 127.5, 112.0, 16.0, 24.0, 0.0, 0.0, 0.0, 1.747688753608343E9, 0.0, 2025-05-19 23:05:53.608
180.0, 24456.69763764115, 21723.973360535307, 49177.525839510665, 32809.790409778405, 38935.50949519986, 2624.8324066200744, 10132.001058101781, 2423.1973198887495, 0.0, 0.0, 15069.769629212575, -16047.054952031966, 10731.564251370937, 2869.9416363169717, -19530.9096015584, -32347.48927920929, 0.060939453125, -0.00222265625, 1.029107421875, 192.0, 0.0, 0.0, 0.0, 0.0, 0.0, 0.0, 0.0, 0.0, 0.0, 1.747688753616379E9, 0.0, 2025-05-19 23:05:53.616
182.0, 24447.019332292002, 21708.93063651689, 49186.01950240368, 32786.522243800435, 38950.485163984915, 2612.4048367029236, 10085.08474649009, 2418.548157042045, 0.0, 0.0, 15050.524777236555, -16065.003402829578, 10734.022943261021, 2857.46936291091, -19541.124348774476, -32341.878991351008, 0.060939453125, -0.00222265625, 1.029107421875, 192.0, 0.0, 0.0, 0.0, 0.0, 0.0, 0.0, 0.0, 0.0, 0.0, 1.747688753623418E9, 0.0, 2025-05-19 23:05:53.623
184.0, 24475.875434383805, 21742.078273544106, 49200.34697059953, 32813.92548250264, 38959.649379211594, 2575.144478695927, 10148.183721087424, 2418.6822675087774, 0.0, 0.0, 15071.982451913651, -16049.491292177594, 10723.338809411385, 2858.475191411399, -19530.86489806949, -32357.949895614376, 0.060939453125, -0.00222265625, 1.029107421875, 192.0, 0.0, 0.0, 0.0, 0.0, 0.0, 0.0, 0.0, 0.0, 0.0, 1.747688753631476E9, 0.0, 2025-05-19 23:05:53.631
186.0, 24451.08734978287, 21714.183296463885, 49195.25077286372, 32811.35503189028, 38943.10908831467, 2600.84898481953, 10095.14303149498, 2420.7162762542102, 0.0, 0.0, 15091.5625800565, -16032.436911158195, 10763.974280831133, 2891.8463458831725, -19508.736671058738, -32317.87321780601, 0.060939453125, -0.00222265625, 1.029107421875, 192.0, 0.0, 0.0, 0.0, 0.0, 0.0, 0.0, 0.0, 0.0, 0.0, 1.747688753640511E9, 0.0, 2025-05-19 23:05:53.640
188.0, 24450.774425360494, 21718.430127910393, 49180.655083734404, 32783.70592399906, 38919.19272174749, 2575.5691618405776, 10127.128377810524, 2415.262450607115, 0.0, 0.0, 15055.956251139194, -16069.697269165192, 10722.735312311092, 2840.9737755028937, -19552.277869257676, -32365.281267795715, 0.059469726562500005, -0.005111328125, 1.0285537109375, 192.0, 0.5, 104.0, 127.5, 96.0, 16.0, 16.0, 0.0, 0.0, 0.0, 1.747688753648519E9, 0.0, 2025-05-19 23:05:53.648
190.0, 24460.028047564992, 21728.86839257102, 49196.88245020896, 32827.8506192983, 38948.83113489523, 2615.131749526471, 10123.2391742753, 2409.2945348375483, 0.0, 0.0, 15081.303129351512, -16033.97918152561, 10741.823702075924, 2875.6860346419853, -19529.255572468708, -32341.767232628732, 0.059469726562500005, -0.005111328125, 1.0285537109375, 192.0, 0.0, 0.0, 0.0, 0.0, 0.0, 0.0, 0.0, 0.0, 0.0, 1.747688753656538E9, 0.0, 2025-05-19 23:05:53.656
192.0, 24436.111680997812, 21699.38644163447, 49191.49567979523, 32787.706886256565, 38948.4958587284, 2620.8984995959404, 10079.697976076362, 2409.6074592599225, 0.0, 0.0, 15062.214739586681, -16056.487388192105, 10740.057914263954, 2867.1029647711475, -19526.77452883417, -32336.15694477045, 0.059469726562500005, -0.005111328125, 1.0285537109375, 192.0, 0.0, 0.0, 0.0, 0.0, 0.0, 0.0, 0.0, 0.0, 0.0, 1.747688753664544E9, 0.0, 2025-05-19 23:05:53.664
194.0, 24458.396370219754, 21726.007369280742, 49189.70754023881, 32806.080020198824, 38933.65430041007, 2607.9121360674067, 10144.741552441306, 2406.880546436375, 0.0, 0.0, 15070.79780945752, -16051.45824568966, 10719.874289020812, 2855.0553745097372, -19537.168090005885, -32361.74969217178, 0.059469726562500005, -0.005111328125, 1.0285537109375, 192.0, 0.0, 0.0, 0.0, 0.0, 0.0, 0.0, 0.0, 0.0, 0.0, 1.747688753672589E9, 0.0, 2025-05-19 23:05:53.672
196.0, 24435.910515297714, 21701.599264335546, 49187.29355183763, 32801.16263641866, 38943.287902270305, 2650.71572669932, 10108.576429912619, 2424.694886767255, 0.0, 0.0, 15074.374088570368, -16047.323172965429, 10746.964603300645, 2876.2895317422785, -19528.741482346235, -32336.291055237183, 0.059469726562500005, -0.005111328125, 1.0285537109375, 192.0, 0.0, 0.0, 0.0, 0.0, 0.0, 0.0, 0.0, 0.0, 0.0, 1.747688753679614E9, 0.0, 2025-05-19 23:05:53.679
198.0, 24447.198146247643, 21711.746956318257, 49185.68422623685, 32788.556252545866, 38931.262663753354, 2604.5146709102, 10116.086616049603, 2412.759055228121, 0.0, 0.0, 15053.631669715844, -16069.294937764997, 10717.281486663996, 2844.930034271483, -19548.276907000174, -32364.16368057295, 0.06073486328125, -0.0055556640625, 1.02927685546875, 192.0, 0.5, 120.0, 127.5, 104.0, 16.0, 24.0, 0.0, 0.0, 0.0, 1.747688753687668E9, 0.0, 2025-05-19 23:05:53.687
200.0, 24462.3749807328, 21727.907267559443, 49206.13607241346, 32832.0527472559, 38958.24121931091, 2628.1181130550044, 10123.976781842326, 2410.9932674161514, 0.0, 0.0, 15086.779306743063, -16024.45733838765, 10743.231861976608, 2883.6879591569855, -19517.2079822073, -32338.01213956024, 0.06073486328125, -0.0055556640625, 1.02927685546875, 192.0, 0.0, 0.0, 0.0, 0.0, 0.0, 0.0, 0.0, 0.0, 0.0, 1.747688753695665E9, 0.0, 2025-05-19 23:05:53.695
202.0, 24433.675340852184, 21699.34173814556, 49184.790156458635, 32783.25888910996, 38943.578474948226, 2621.3455344850463, 10075.875827774506, 2409.473348793191, 0.0, 0.0, 15063.287623320535, -16050.854748589367, 10742.851882320867, 2866.544171159765, -19531.602505636514, -32339.196782016374, 0.06073486328125, -0.0055556640625, 1.02927685546875, 192.0, 0.0, 0.0, 0.0, 0.0, 0.0, 0.0, 0.0, 0.0, 0.0, 1.747688753703735E9, 0.0, 2025-05-19 23:05:53.703
204.0, 24463.671381911205, 21727.862564070532, 49188.09821463803, 32803.375459119736, 38942.237370280905, 2602.547717398133, 10139.913575638959, 2405.830014446976, 0.0, 0.0, 15064.964004154685, -16047.345524709885, 10718.108501208842, 2852.7754965752956, -19540.56555516309, -32367.583497474614, 0.06073486328125, -0.0055556640625, 1.02927685546875, 192.0, 0.0, 0.0, 0.0, 0.0, 0.0, 0.0, 0.0, 0.0, 0.0, 1.747688753711817E9, 0.0, 2025-05-19 23:05:53.711
206.0, 24444.538288657463, 21710.607017351034, 49186.64535124843, 32803.86719749775, 38938.683442912516, 2635.3377265140684, 10103.234362987801, 2409.2274796041825, 0.0, 0.0, 15077.436277560744, -16036.437873415694, 10750.876158580322, 2877.09419454267, -19528.29444745713, -32336.894552337475, 0.06073486328125, -0.0055556640625, 1.02927685546875, 192.0, 0.0, 0.0, 0.0, 0.0, 0.0, 0.0, 0.0, 0.0, 0.0, 1.747688753719785E9, 0.0, 2025-05-19 23:05:53.719
208.0, 24446.259372980523, 21707.67893882739, 49185.63952274794, 32785.09173215529, 38931.73205038691, 2629.3027555111357, 10108.464671190342, 2411.306191838526, 0.0, 0.0, 15052.469379004167, -16059.884853349311, 10717.370893641817, 2839.7220778133965, -19556.63645942646, -32362.286134038706, 0.06073486328125, -0.0055556640625, 1.02927685546875, 192.0, 0.0, 0.0, 0.0, 0.0, 0.0, 0.0, 0.0, 0.0, 0.0, 1.747688753727915E9, 0.0, 2025-05-19 23:05:53.727
210.0, 24449.20980324862, 21708.751822561244, 49183.06907213558, 32802.43668585261, 38946.97594010543, 2661.131639615493, 10121.00399982977, 2396.6434474758444, 0.0, 0.0, 15078.643271761332, -16040.595297884382, 10729.97727751461, 2869.025214794304, -19532.38481669245, -32350.01502633274, 0.058, -0.004, 1.036, 192.0, 0.5, 104.0, 127.5, 112.0, 16.0, 48.0, 0.0, 0.0, 0.0, 1.747688753735877E9, 0.0, 2025-05-19 23:05:53.735
212.0, 24430.277875694977, 21689.126990929486, 49182.04089189063, 32778.967354174536, 38936.33650974471, 2623.5583571861216, 10071.740755050274, 2406.589973758456, 0.0, 0.0, 15054.07870460495, -16064.556367940471, 10729.55259436996, 2850.2721011963013, -19549.506252945215, -32350.55146819967, 0.058, -0.004, 1.036, 192.0, 0.0, 0.0, 0.0, 0.0, 0.0, 0.0, 0.0, 0.0, 0.0, 1.747688753743913E9, 0.0, 2025-05-19 23:05:53.743
214.0, 24450.439149193666, 21709.556485361634, 49181.102118623516, 32794.121836915234, 38933.25196900988, 2606.3698656999904, 10109.135223524001, 2395.6152672309004, 0.0, 0.0, 15059.59958548541, -16050.921803822734, 10711.380626127795, 2839.543263857754, -19553.551918691628, -32375.138387100505, 0.058, -0.004, 1.036, 192.0, 0.0, 0.0, 0.0, 0.0, 0.0, 0.0, 0.0, 0.0, 0.0, 1.747688753751931E9, 0.0, 2025-05-19 23:05:53.751
216.0, 24429.540268127952, 21686.780057761676, 49175.31301680959, 32791.618441536244, 38929.586282919205, 2618.126883283482, 10089.041005258681, 2402.946639412241, 0.0, 0.0, 15064.718134965675, -16048.150187510275, 10740.437893919694, 2867.28177872679, -19540.38674120745, -32343.801241374167, 0.058, -0.004, 1.036, 192.0, 0.0, 0.0, 0.0, 0.0, 0.0, 0.0, 0.0, 0.0, 0.0, 1.747688753759965E9, 0.0, 2025-05-19 23:05:53.759
218.0, 24442.973666545593, 21702.314520158117, 49184.723101225274, 32783.84003446579, 38946.998291849886, 2649.3075667986354, 10071.830162028094, 2391.56960148449, 0.0, 0.0, 15052.245861559613, -16063.908167351266, 10717.236783175085, 2836.5928335896533, -19555.7647413927, -32369.59515447559, 0.058, -0.004, 1.036, 192.0, 0.0, 0.0, 0.0, 0.0, 0.0, 0.0, 0.0, 0.0, 0.0, 1.747688753767998E9, 0.0, 2025-05-19 23:05:53.767
220.0, 24445.1194340133, 21704.706156814835, 49183.29258958013, 32812.85259876878, 38937.498800456386, 2636.723534670298, 10130.727008667829, 2409.1604243708166, 0.0, 0.0, 15079.827914217463, -16031.788710568992, 10733.777074072013, 2868.824049094206, -19534.64234288244, -32349.12095655453, 0.054, -0.012, 1.03, 192.0, 0.5, 88.0, 127.5, 80.0, 16.0, 24.0, 0.0, 0.0, 0.0, 1.747688753775952E9, 0.0, 2025-05-19 23:05:53.775
222.0, 24428.355625671822, 21684.969566460797, 49179.85042093402, 32779.8390722083, 38944.98663484891, 2644.881921396485, 10082.111964477535, 2410.8815086938753, 0.0, 0.0, 15052.245861559613, -16057.917899837244, 10731.497196137572, 2854.7871535762733, -19548.96981107829, -32346.461098964348, 0.054, -0.012, 1.03, 192.0, 0.0, 0.0, 0.0, 0.0, 0.0, 0.0, 0.0, 0.0, 0.0, 1.747688753784057E9, 0.0, 2025-05-19 23:05:53.784
224.0, 24446.684056125174, 21705.01908123721, 49178.9563511558, 32790.03146767992, 38930.81562886425, 2679.616532280032, 10119.059398062158, 2403.1254533678834, 0.0, 0.0, 15056.671506961764, -16055.03452480251, 10709.436024360184, 2842.314880170212, -19551.093226801542, -32373.953744644376, 0.054, -0.012, 1.03, 192.0, 0.0, 0.0, 0.0, 0.0, 0.0, 0.0, 0.0, 0.0, 0.0, 1.747688753791014E9, 0.0, 2025-05-19 23:05:53.791
226.0, 24429.093233238847, 21682.935557715366, 49186.28772333715, 32799.77682826243, 38944.18197204852, 2651.81096217763, 10087.409327913443, 2406.7687877140984, 0.0, 0.0, 15073.278853092057, -16045.915013064745, 10741.957812542656, 2871.841534595673, -19529.143813746432, -32339.12972678301, 0.054, -0.012, 1.03, 192.0, 0.0, 0.0, 0.0, 0.0, 0.0, 0.0, 0.0, 0.0, 0.0, 1.747688753800105E9, 0.0, 2025-05-19 23:05:53.800
228.0, 24427.26039019351, 21685.416601349905, 49165.232380060246, 32768.484386025, 38915.258814723355, 2612.4495401918343, 10098.786365841195, 2410.8815086938753, 0.0, 0.0, 15044.221585300158, -16067.596205186393, 10709.45837610464, 2828.6132608191087, -19566.560633964615, -32373.93139289992, 0.054, -0.012, 1.03, 192.0, 0.0, 0.0, 0.0, 0.0, 0.0, 0.0, 0.0, 0.0, 0.0, 1.747688753808127E9, 0.0, 2025-05-19 23:05:53.808
230.0, 24439.464442666107, 21701.688671313368, 49183.180830857855, 32810.17038943415, 38936.73884114491, 2668.619474008021, 10100.976836797814, 2401.493776022646, 0.0, 0.0, 15069.166132112281, -16041.310553706951, 10724.992838501077, 2857.6258251220975, -19546.265249999196, -32359.64862819298, 0.054, -0.012, 1.034, 192.0, 0.5, 88.0, 127.5, 80.0, 16.0, 40.0, 0.0, 0.0, 0.0, 1.747688753815087E9, 0.0, 2025-05-19 23:05:53.815
232.0, 24409.222532418076, 21670.28447035366, 49162.25959804769, 32767.612667991245, 38905.200529718466, 2658.516485514222, 10073.730060306796, 2403.3489708124366, 0.0, 0.0, 15048.557823724488, -16060.667164405248, 10728.233841447096, 2845.8464557941506, -19556.994087337745, -32353.099567067573, 0.054, -0.012, 1.034, 192.0, 0.0, 0.0, 0.0, 0.0, 0.0, 0.0, 0.0, 0.0, 0.0, 1.747688753823163E9, 0.0, 2025-05-19 23:05:53.823
234.0, 24442.906611312224, 21704.34852890355, 49179.135165111446, 32796.938156716606, 38933.31902424324, 2642.6914504398646, 10093.757223338751, 2397.313999809504, 0.0, 0.0, 15055.93389939474, -16053.17933001272, 10709.391320871273, 2836.1681504450025, -19560.10097981703, -32376.904174912477, 0.054, -0.012, 1.034, 192.0, 0.0, 0.0, 0.0, 0.0, 0.0, 0.0, 0.0, 0.0, 0.0, 1.747688753832192E9, 0.0, 2025-05-19 23:05:53.832
236.0, 24416.866829021794, 21676.989993690255, 49170.73090919625, 32791.484331069514, 38916.33169845721, 2662.830372194096, 10089.890371547983, 2398.945677154741, 0.0, 0.0, 15066.483922777645, -16040.327076950918, 10740.259079964051, 2867.594703149164, -19542.644267397438, -32340.31436923914, 0.054, -0.012, 1.034, 192.0, 0.0, 0.0, 0.0, 0.0, 0.0, 0.0, 0.0, 0.0, 0.0, 1.747688753840175E9, 0.0, 2025-05-19 23:05:53.840
238.0, 24420.487811623552, 21679.67220302489, 49164.673586448866, 32765.601010990267, 38917.22576823542, 2626.933470598873, 10088.750432580762, 2402.3878458008585, 0.0, 0.0, 15035.146777051305, -16073.072382577942, 10702.529335323494, 2821.952440971427, -19577.06595385861, -32381.41922729245, 0.054, -0.012, 1.034, 192.0, 0.0, 0.0, 0.0, 0.0, 0.0, 0.0, 0.0, 0.0, 0.0, 1.747688753847192E9, 0.0, 2025-05-19 23:05:53.847
240.0, 24430.635503606263, 21692.837380509067, 49180.07393837857, 32809.1422091892, 38941.253893524874, 2676.19671537837, 10102.362644954044, 2401.3820173003696, 0.0, 0.0, 15062.952347153707, -16041.377608940318, 10720.544841354471, 2861.313862957223, -19538.57624990657, -32358.64279969249, 0.054, -0.01, 1.034, 192.0, 0.5, 88.0, 127.5, 88.0, 16.0, 40.0, 0.0, 0.0, 0.0, 1.747688753855216E9, 0.0, 2025-05-19 23:05:53.855
242.0, 24409.1107736958, 21664.316554584093, 49164.89710389342, 32773.82645294982, 38911.637832121596, 2709.5902215945985, 10081.3296534216, 2410.300363338037, 0.0, 0.0, 15042.992239355117, -16059.147245782287, 10723.852899533857, 2853.535455886776, -19552.411979724406, -32345.656436163958, 0.054, -0.01, 1.034, 192.0, 0.0, 0.0, 0.0, 0.0, 0.0, 0.0, 0.0, 0.0, 0.0, 1.747688753864248E9, 0.0, 2025-05-19 23:05:53.864
244.0, 24441.185526989168, 21697.37478463349, 49191.227458861766, 32799.15097941768, 38947.11005057216, 2664.6632152394313, 10104.888392077493, 2403.4160260458025, 0.0, 0.0, 15058.683163962742, -16053.17933001272, 10706.843222003368, 2846.092324983159, -19551.003819823723, -32370.064541109154, 0.054, -0.01, 1.034, 192.0, 0.0, 0.0, 0.0, 0.0, 0.0, 0.0, 0.0, 0.0, 0.0, 1.747688753871282E9, 0.0, 2025-05-19 23:05:53.871
246.0, 24426.679244837673, 21681.99678444824, 49190.48985129474, 32804.85067425379, 38932.42495446503, 2673.223933365814, 10091.276179704211, 2410.345066826948, 0.0, 0.0, 15075.782248471052, -16040.036504272999, 10741.488425909094, 2873.9425985744715, -19533.34594170403, -32337.274531993215, 0.054, -0.01, 1.034, 192.0, 0.0, 0.0, 0.0, 0.0, 0.0, 0.0, 0.0, 0.0, 0.0, 1.747688753879282E9, 0.0, 2025-05-19 23:05:53.879
248.0, 24432.937733285158, 21688.38938336246, 49184.387825058446, 32785.38230483321, 38919.79621884778, 2675.123831644515, 10099.076938519114, 2408.735741226166, 0.0, 0.0, 15061.566538997477, -16049.692457877693, 10722.534146610993, 2845.8464557941506, -19549.148625033933, -32356.318218269138, 0.054, -0.01, 1.034, 192.0, 0.0, 0.0, 0.0, 0.0, 0.0, 0.0, 0.0, 0.0, 0.0, 1.747688753888341E9, 0.0, 2025-05-19 23:05:53.888
250.0, 24432.80362281843, 21691.76449677521, 49183.13612736895, 32811.80206677938, 38916.46580892394, 2668.3736048190126, 10107.19062175639, 2409.1827761152717, 0.0, 0.0, 15077.436277560744, -16027.452472144661, 10730.781940315002, 2869.963988061427, -19533.971790548778, -32348.338645498592, 0.052000000000000005, -0.01, 1.03, 192.0, 0.5, 80.0, 127.5, 88.0, 16.0, 24.0, 0.0, 0.0, 0.0, 1.747688753896339E9, 0.0, 2025-05-19 23:05:53.896
252.0, 24416.576256343873, 21668.228109863772, 49181.48209827925, 32782.3871710762, 38923.685422383, 2667.7254042298086, 10057.636804298974, 2404.623020246389, 0.0, 0.0, 15054.97277438316, -16055.146283524786, 10730.670181592724, 2855.9494442879495, -19549.215680267298, -32346.036415819697, 0.052000000000000005, -0.01, 1.03, 192.0, 0.0, 0.0, 0.0, 0.0, 0.0, 0.0, 0.0, 0.0, 0.0, 1.74768875390342E9, 0.0, 2025-05-19 23:05:53.903
254.0, 24436.64812286474, 21690.937482230365, 49179.24692383372, 32798.323964872834, 38921.047916537274, 2668.2394943522804, 10119.886412607004, 2401.493776022646, 0.0, 0.0, 15063.086457620439, -16042.428140929716, 10710.553611582949, 2848.2380924508684, -19551.160282034907, -32366.108282340563, 0.052000000000000005, -0.01, 1.03, 192.0, 0.0, 0.0, 0.0, 0.0, 0.0, 0.0, 0.0, 0.0, 0.0, 1.747688753911457E9, 0.0, 2025-05-19 23:05:53.911
0.0, 24419.705500567616, 21674.799522733632, 49179.31397906709, 32800.11210442926, 38918.835093836205, 2694.994532465283, 10082.268426688723, 2405.6735522357885, 0.0, 0.0, 15067.355640811402, -16036.773149582525, 10738.470940407627, 2876.602456164653, -19534.19530799333, -32336.15694477045, 0.052000000000000005, -0.01, 1.03, 192.0, 0.0, 0.0, 0.0, 0.0, 0.0, 0.0, 0.0, 0.0, 0.0, 1.747688753920469E9, 0.0, 2025-05-19 23:05:53.920
2.0, 24424.265256436498, 21679.001650691232, 49176.49765926572, 32781.828377464815, 38916.309346712755, 2718.77678856573, 10087.878714547005, 2405.137110368861, 0.0, 0.0, 15042.12052132136, -16061.583585927916, 10706.150317925254, 2840.929072013983, -19556.05531407062, -32364.767177673242, 0.052000000000000005, -0.01, 1.03, 192.0, 0.0, 0.0, 0.0, 0.0, 0.0, 0.0, 0.0, 0.0, 0.0, 1.747688753927496E9, 0.0, 2025-05-19 23:05:53.927
4.0, 24419.303169167422, 21677.034697179162, 49170.23917081823, 32803.88954924221, 38910.40848617655, 2677.4707648123226, 10109.00111305727, 2395.168232341794, 0.0, 0.0, 15067.31093732249, -16031.900469291268, 10719.516661109526, 2870.768650861818, -19536.43048243886, -32348.137479798497, 0.058, -0.008, 1.034, 192.0, 0.5, 104.0, 127.5, 96.0, 16.0, 40.0, 0.0, 0.0, 0.0, 1.74768875393556E9, 0.0, 2025-05-19 23:05:53.935
6.0, 24396.437334589642, 21651.419598033382, 49167.668720205875, 32772.66416223814, 38896.14807321406, 2692.5581923196546, 10063.314147390622, 2410.389770315858, 0.0, 0.0, 15036.085550318427, -16060.51070219406, 10714.755739540547, 2851.4567436524326, -19555.138892547955, -32352.27255252273, 0.058, -0.008, 1.034, 192.0, 0.0, 0.0, 0.0, 0.0, 0.0, 0.0, 0.0, 0.0, 0.0, 1.747688753943539E9, 0.0, 2025-05-19 23:05:53.943
8.0, 24426.41102390421, 21681.013307692207, 49177.92817091086, 32795.21707239355, 38908.821512320224, 2680.287084613691, 10108.308208979155, 2394.072996863484, 0.0, 0.0, 15046.277945790047, -16058.163769026252, 10694.505059064039, 2837.308089412223, -19564.77249440819, -32376.88182316802, 0.058, -0.008, 1.034, 192.0, 0.0, 0.0, 0.0, 0.0, 0.0, 0.0, 0.0, 0.0, 0.0, 1.747688753952592E9, 0.0, 2025-05-19 23:05:53.952
10.0, 24414.899875509727, 21668.228109863772, 49190.28868559464, 32809.27631965594, 38928.669861396535, 2713.479425129822, 10074.288853918179, 2410.300363338037, 0.0, 0.0, 15076.408097315802, -16026.200774455165, 10742.606013131859, 2883.889124857083, -19523.77939507716, -32326.568046399123, 0.058, -0.008, 1.034, 192.0, 0.0, 0.0, 0.0, 0.0, 0.0, 0.0, 0.0, 0.0, 0.0, 1.747688753959646E9, 0.0, 2025-05-19 23:05:53.959
12.0, 24415.637483076753, 21666.864653451998, 49177.88346742195, 32774.407598305654, 38919.0362595363, 2684.802136993663, 10070.89138876097, 2398.2527730766265, 0.0, 0.0, 15047.954326624194, -16057.22499575913, 10708.586658070883, 2842.605452848131, -19552.68020065787, -32364.02957010622, 0.058, -0.008, 1.034, 192.0, 0.0, 0.0, 0.0, 0.0, 0.0, 0.0, 0.0, 0.0, 0.0, 1.747688753967652E9, 0.0, 2025-05-19 23:05:53.967
14.0, 24427.97564601608, 21679.135761157962, 49187.360607071, 32813.433744124624, 38907.86038730865, 2688.289009128691, 10112.71150263685, 2409.2498313486376, 0.0, 0.0, 15074.08351589245, -16030.067626245933, 10723.852899533857, 2864.219589736413, -19543.71715113129, -32355.379445002014, 0.056, -0.01, 1.034, 192.0, 0.5, 96.0, 127.5, 88.0, 16.0, 40.0, 0.0, 0.0, 0.0, 1.747688753976704E9, 0.0, 2025-05-19 23:05:53.976
16.0, 24402.896988737226, 21652.693647467335, 49182.46557503528, 32784.912918199654, 38903.54650062877, 2726.868120058551, 10054.507560075232, 2410.5238807825904, 0.0, 0.0, 15063.175864598259, -16042.361085696351, 10737.26394620704, 2865.3595287036337, -19543.739502875746, -32338.570933171624, 0.056, -0.01, 1.034, 192.0, 0.0, 0.0, 0.0, 0.0, 0.0, 0.0, 0.0, 0.0, 0.0, 1.747688753983693E9, 0.0, 2025-05-19 23:05:53.983
18.0, 24415.2127999321, 21670.6644500094, 49170.48504000724, 32788.98093569052, 38898.047971492764, 2715.4016751529784, 10105.067206033136, 2397.2469445761376, 0.0, 0.0, 15050.927108636752, -16047.949021810178, 10701.657617289737, 2845.5558831162316, -19558.022267582688, -32369.17047133094, 0.056, -0.01, 1.034, 192.0, 0.0, 0.0, 0.0, 0.0, 0.0, 0.0, 0.0, 0.0, 0.0, 1.747688753991782E9, 0.0, 2025-05-19 23:05:53.991
20.0, 24401.39942185872, 21651.12902535546, 49176.318845310074, 32803.241348653006, 38907.72627684192, 2712.1159687180484, 10064.901121246949, 2405.852366191431, 0.0, 0.0, 15056.000954628105, -16036.393169926783, 10728.658524591747, 2873.786136363284, -19542.57721216407, -32337.609808160047, 0.056, -0.01, 1.034, 192.0, 0.0, 0.0, 0.0, 0.0, 0.0, 0.0, 0.0, 0.0, 0.0, 1.747688753999757E9, 0.0, 2025-05-19 23:05:53.999
22.0, 24408.73079404006, 21657.09694112503, 49172.38493828594, 32780.59903151978, 38899.47848313791, 2681.8293549811074, 10073.774763795705, 2404.8018342020314, 0.0, 0.0, 15034.431521228735, -16056.643850403292, 10701.277637633997, 2844.438295893466, -19558.715171660802, -32358.21811654784, 0.056, -0.01, 1.034, 192.0, 0.0, 0.0, 0.0, 0.0, 0.0, 0.0, 0.0, 0.0, 0.0, 1.74768875400774E9, 0.0, 2025-05-19 23:05:54.007
24.0, 24422.633579091264, 21673.301955855128, 49195.60840077501, 32818.10525871578, 38916.39875369058, 2717.5697943651435, 10084.704766834351, 2403.3713225568918, 0.0, 0.0, 15070.574292012965, -16024.345579665374, 10724.769321056525, 2876.4906974423766, -19531.937781803346, -32344.315331496637, 0.054, -0.004, 1.028, 192.0, 0.5, 88.0, 127.5, 112.0, 16.0, 16.0, 0.0, 0.0, 0.0, 1.747688754014783E9, 0.0, 2025-05-19 23:05:54.014
26.0, 24396.16911365618, 21645.652847963913, 49178.06228137759, 32784.01884842144, 38894.04700923527, 2721.123721733537, 10057.726211276795, 2409.8309767044757, 0.0, 0.0, 15055.062181360983, -16045.199757242175, 10732.435969404694, 2868.3770142051, -19538.240973739743, -32336.894552337475, 0.054, -0.004, 1.028, 192.0, 0.0, 0.0, 0.0, 0.0, 0.0, 0.0, 0.0, 0.0, 0.0, 1.747688754023879E9, 0.0, 2025-05-19 23:05:54.023
28.0, 24425.516954125997, 21674.799522733632, 49188.79111871614, 32801.09558118529, 38907.25689020835, 2725.325849691135, 10080.346176665566, 2399.7726916995875, 0.0, 0.0, 15053.765780182575, -16039.231841472609, 10707.31260863693, 2846.3605459166224, -19557.48582571576, -32367.605849219068, 0.054, -0.004, 1.028, 192.0, 0.0, 0.0, 0.0, 0.0, 0.0, 0.0, 0.0, 0.0, 0.0, 1.747688754031916E9, 0.0, 2025-05-19 23:05:54.031
30.0, 24410.58598882985, 21657.43221729186, 49189.618133260985, 32807.35406963278, 38906.49693089687, 2727.7845415812185, 10063.80588576864, 2406.0311801470734, 0.0, 0.0, 15077.346870582924, -16024.882021532301, 10745.243518977586, 2884.559677190742, -19523.71233984379, -32329.563180156136, 0.054, -0.004, 1.028, 192.0, 0.0, 0.0, 0.0, 0.0, 0.0, 0.0, 0.0, 0.0, 0.0, 1.74768875403988E9, 0.0, 2025-05-19 23:05:54.039
32.0, 24403.992224215537, 21649.117368354484, 49165.701766693805, 32770.361932559244, 38877.730235782896, 2708.58439309411, 10090.605627370553, 2400.2197265886934, 0.0, 0.0, 15046.83673940143, -16054.341620724395, 10709.324265637906, 2837.2410341788573, -19564.079590330075, -32367.538793985703, 0.054, -0.004, 1.028, 192.0, 0.0, 0.0, 0.0, 0.0, 0.0, 0.0, 0.0, 0.0, 0.0, 1.747688754046893E9, 0.0, 2025-05-19 23:05:54.046
34.0, 24418.1632302002, 21665.09886564003, 49189.39461581643, 32814.283110413926, 38910.8331693212, 2704.0246372252273, 10084.347138923065, 2395.3246945529813, 0.0, 0.0, 15070.261367590592, -16029.017094256533, 10720.790710543479, 2862.722022857907, -19549.930936089866, -32356.608790947055, 0.054, -0.002, 1.028, 192.0, 0.5, 88.0, 127.5, 120.0, 16.0, 16.0, 0.0, 0.0, 0.0, 1.747688754055981E9, 0.0, 2025-05-19 23:05:54.055
36.0, 24390.536474053442, 21634.56638271408, 49176.54236275463, 32779.07911289681, 38892.97412550141, 2716.541614120199, 10031.731132475274, 2399.1021393659285, 0.0, 0.0, 15057.766742440075, -16043.389265941296, 10730.893699037279, 2863.124354258103, -19544.700627887327, -32343.26479950724, 0.054, -0.002, 1.028, 192.0, 0.0, 0.0, 0.0, 0.0, 0.0, 0.0, 0.0, 0.0, 0.0, 1.747688754063998E9, 0.0, 2025-05-19 23:05:54.063
38.0, 24419.481983123063, 21664.47301679528, 49189.14874662743, 32802.816665508355, 38909.71558209843, 2735.719410862853, 10078.692147575874, 2402.589011500956, 0.0, 0.0, 15058.303184307002, -16035.566155381937, 10706.954980725644, 2851.546150630254, -19549.103921545022, -32365.191860817897, 0.054, -0.002, 1.028, 192.0, 0.0, 0.0, 0.0, 0.0, 0.0, 0.0, 0.0, 0.0, 0.0, 1.747688754071004E9, 0.0, 2025-05-19 23:05:54.071
40.0, 24391.54230255393, 21639.684932194345, 49181.6609122349, 32802.12376143024, 38893.868195279625, 2743.900149333495, 10063.18003692389, 2404.466558035202, 0.0, 0.0, 15069.568463512476, -16022.64684708677, 10736.191062473186, 2885.498450457865, -19527.57919163456, -32328.15502025545, 0.054, -0.002, 1.028, 192.0, 0.0, 0.0, 0.0, 0.0, 0.0, 0.0, 0.0, 0.0, 0.0, 1.747688754080019E9, 0.0, 2025-05-19 23:05:54.080
42.0, 24385.887311206738, 21634.342865269526, 49169.07688010656, 32771.546575015374, 38879.13839568358, 2713.881756530018, 10068.455048615342, 2396.822261431487, 0.0, 0.0, 15031.726960149643, -16059.303707993473, 10696.896695720756, 2841.666679581008, -19559.430427483374, -32366.577668974125, 0.054, -0.002, 1.028, 192.0, 0.0, 0.0, 0.0, 0.0, 0.0, 0.0, 0.0, 0.0, 0.0, 1.74768875408808E9, 0.0, 2025-05-19 23:05:54.088
44.0, 24392.816351987884, 21642.925935140363, 49164.89710389342, 32796.78169450542, 38877.48436659388, 2761.5580274531876, 10088.236342458289, 2390.116738094895, 0.0, 0.0, 15045.875614389852, -16039.41065542825, 10700.003588200045, 2858.6093018781307, -19557.0164390822, -32362.777872416722, 0.058, -0.002, 1.028, 192.0, 0.5, 104.0, 127.5, 120.0, 16.0, 16.0, 0.0, 0.0, 0.0, 1.7476887540951E9, 0.0, 2025-05-19 23:05:54.095
46.0, 24378.891215192227, 21627.547934955113, 49178.88929592244, 32780.77784547542, 38895.58927960268, 2737.0828672746266, 10022.902193415428, 2408.847499948442, 0.0, 0.0, 15038.320724763958, -16052.709943379157, 10713.034655217489, 2856.4635344104213, -19549.930936089866, -32350.64087517749, 0.058, -0.002, 1.028, 192.0, 0.0, 0.0, 0.0, 0.0, 0.0, 0.0, 0.0, 0.0, 0.0, 1.747688754103116E9, 0.0, 2025-05-19 23:05:54.103
48.0, 24398.02430844597, 21647.23982182024, 49172.78726968614, 32786.70105775607, 38865.52618331029, 2733.752457350786, 10090.829144815105, 2399.0574358770177, 0.0, 0.0, 15044.579213211444, -16044.909184564256, 10692.739271252069, 2845.511179627321, -19556.569404193095, -32371.226831820826, 0.058, -0.002, 1.028, 192.0, 0.0, 0.0, 0.0, 0.0, 0.0, 0.0, 0.0, 0.0, 0.0, 1.74768875411214E9, 0.0, 2025-05-19 23:05:54.112
50.0, 24387.36252634079, 21633.359388513494, 49182.26440933519, 32798.56983406184, 38903.70296283996, 2731.6960968608973, 10042.12469364699, 2401.1137963669057, 0.0, 0.0, 15055.285698805536, -16034.69443734818, 10720.164861698731, 2871.841534595673, -19539.1126917735, -32341.901343095466, 0.058, -0.002, 1.028, 192.0, 0.0, 0.0, 0.0, 0.0, 0.0, 0.0, 0.0, 0.0, 0.0, 1.747688754120164E9, 0.0, 2025-05-19 23:05:54.120
52.0, 24393.196331643623, 21632.934705368843, 49174.26248482019, 32775.36872331723, 38885.01690447532, 2735.697059118397, 10057.65915604343, 2396.2187643311936, 0.0, 0.0, 15040.019457342562, -16054.296917235484, 10697.813117243424, 2837.6210138345973, -19561.218567039796, -32367.82936666362, 0.058, -0.002, 1.028, 192.0, 0.0, 0.0, 0.0, 0.0, 0.0, 0.0, 0.0, 0.0, 0.0, 1.747688754127286E9, 0.0, 2025-05-19 23:05:54.127
54.0, 24405.556846327407, 21651.799577689122, 49176.49765926572, 32809.097505700294, 38894.98578250239, 2753.4443442159113, 10082.067260988624, 2398.8562701769197, 0.0, 0.0, 15068.428524545256, -16021.037521485989, 10716.275658163508, 2863.2137612359243, -19545.39353196544, -32356.11705256904, 0.06, -0.002, 1.026, 192.0, 0.5, 112.0, 127.5, 120.0, 16.0, 8.0, 0.0, 0.0, 0.0, 1.747688754136241E9, 0.0, 2025-05-19 23:05:54.136
56.0, 24381.036982659934, 21625.826850632056, 49166.23820856073, 32776.64277275119, 38877.17144217151, 2749.421030213956, 10034.994487165748, 2408.378113314881, 0.0, 0.0, 15045.428579500745, -16039.902393806267, 10720.768358799025, 2853.960139031427, -19559.229261783275, -32348.15983154295, 0.06, -0.002, 1.026, 192.0, 0.0, 0.0, 0.0, 0.0, 0.0, 0.0, 0.0, 0.0, 0.0, 1.747688754144275E9, 0.0, 2025-05-19 23:05:54.144
58.0, 24412.64234931974, 21661.455531293814, 49184.18665935835, 32802.74961027499, 38898.3832476596, 2783.0827573636484, 10066.71161254783, 2400.4879475221574, 0.0, 0.0, 15049.250727802602, -16034.515623392539, 10700.092995177865, 2847.388726161567, -19556.34588674854, -32369.68456145341, 0.06, -0.002, 1.026, 192.0, 0.0, 0.0, 0.0, 0.0, 0.0, 0.0, 0.0, 0.0, 0.0, 1.747688754151333E9, 0.0, 2025-05-19 23:05:54.151
60.0, 24397.21964564558, 21642.456548506805, 49179.135165111446, 32804.91772948715, 38888.7272940549, 2774.9690741263717, 10030.74765571924, 2397.023427131585, 0.0, 0.0, 15068.227358845159, -16011.225105670108, 10740.303783452962, 2885.118470802125, -19529.792014335635, -32327.484467921793, 0.06, -0.002, 1.026, 192.0, 0.0, 0.0, 0.0, 0.0, 0.0, 0.0, 0.0, 0.0, 0.0, 1.747688754160414E9, 0.0, 2025-05-19 23:05:54.160
62.0, 24388.681279263652, 21631.101862323507, 49159.845609646516, 32763.29878131137, 38867.11315716662, 2738.4463236864, 10022.097530615036, 2388.7309299386657, 0.0, 0.0, 15024.775567624041, -16057.9402515817, 10694.952093953145, 2828.769723030296, -19578.49646550375, -32376.278326067728, 0.06, -0.002, 1.026, 192.0, 0.0, 0.0, 0.0, 0.0, 0.0, 0.0, 0.0, 0.0, 0.0, 1.747688754167339E9, 0.0, 2025-05-19 23:05:54.167
64.0, 24387.58604378534, 21635.885135636945, 49169.36745278448, 32796.669935783146, 38880.25598290634, 2768.7552891677965, 10059.916682233415, 2396.755206198121, 0.0, 0.0, 15052.290565048525, -16031.051103001966, 10705.345655124862, 2855.837685565673, -19556.01061058171, -32366.331799785115, 0.06, -0.01, 1.036, 192.0, 0.5, 112.0, 127.5, 88.0, 16.0, 48.0, 0.0, 0.0, 0.0, 1.747688754176432E9, 0.0, 2025-05-19 23:05:54.176
66.0, 24374.800845956906, 21623.18934478633, 49162.974853870255, 32775.97222041753, 38873.01401770282, 2780.6911207069306, 10032.781664464674, 2397.8727934208864, 0.0, 0.0, 15035.88438461833, -16045.758550853558, 10713.951076740155, 2855.413002421022, -19559.519834461193, -32348.025721076217, 0.06, -0.01, 1.036, 192.0, 0.0, 0.0, 0.0, 0.0, 0.0, 0.0, 0.0, 0.0, 0.0, 1.747688754183434E9, 0.0, 2025-05-19 23:05:54.183
68.0, 24390.603529286807, 21635.035769347644, 49163.37718527045, 32781.35899083126, 38867.716654266915, 2748.9739953248495, 10073.126563206502, 2384.9087816368083, 0.0, 0.0, 15043.21575679967, -16037.0860740049, 10693.58863754137, 2837.062220223215, -19567.074724087088, -32379.049942380185, 0.06, -0.01, 1.036, 192.0, 0.0, 0.0, 0.0, 0.0, 0.0, 0.0, 0.0, 0.0, 0.0, 1.747688754191466E9, 0.0, 2025-05-19 23:05:54.191
70.0, 24342.837851385815, 21577.301213419585, 49159.10800207949, 32777.82741520732, 38875.137433426076, 2742.6484516439978, 10029.808882452116, 2390.0049793726184, 0.0, 0.0, 15045.607393456388, -16043.277507219018, 10710.665370305225, 2855.547112887754, -19559.005744338723, -32358.911020625954, 0.06, -0.01, 1.036, 192.0, 0.0, 0.0, 0.0, 0.0, 0.0, 0.0, 0.0, 0.0, 0.0, 1.747688754200498E9, 0.0, 2025-05-19 23:05:54.200
72.0, 24315.546371405886, 21545.02529442612, 49145.02640307265, 32747.92078112612, 38855.423194816496, 2736.4570184298777, 10037.229661611278, 2383.075938591473, 0.0, 0.0, 15014.896096574796, -16074.212321545163, 10676.936587922168, 2815.5821938016647, -19588.51004701973, -32391.052829152686, 0.06, -0.01, 1.036, 192.0, 0.0, 0.0, 0.0, 0.0, 0.0, 0.0, 0.0, 0.0, 0.0, 1.747688754207514E9, 0.0, 2025-05-19 23:05:54.207
74.0, 24296.055650240858, 21518.8290499245, 49152.64834793191, 32778.94500243008, 38874.64569504806, 2757.221789028858, 10045.589214037564, 2386.629865959867, 0.0, 0.0, 15039.125387564349, -16050.452417189172, 10686.078451404388, 2843.0301359927817, -19562.649078684935, -32382.156834859474, 0.06, -0.009000000000000001, 1.034, 192.0, 0.5, 112.0, 127.5, 96.0, 16.0, 32.0, 0.0, 0.0, 0.0, 1.747688754215556E9, 0.0, 2025-05-19 23:05:54.215
76.0, 24227.07816685178, 21439.837985019447, 49131.43654244382, 32743.785708401887, 38851.13165988107, 2756.417126228467, 9997.398852991922, 2375.9680838546856, 0.0, 0.0, 15002.35676793537, -16080.806086159479, 10676.288387332963, 2822.7124002829078, -19590.611110998525, -32380.45810228087, 0.06, -0.009000000000000001, 1.034, 192.0, 0.0, 0.0, 0.0, 0.0, 0.0, 0.0, 0.0, 0.0, 0.0, 1.747688754223588E9, 0.0, 2025-05-19 23:05:54.223
78.0, 24199.384355471655, 21400.208342100184, 49136.979775068736, 32751.899391639163, 38874.69039853697, 2708.360875649557, 10022.432806781866, 2369.351967495915, 0.0, 0.0, 15000.658035356766, -16079.375574514339, 10644.548910206428, 2811.9835629443605, -19585.35845105153, -32407.12373341605, 0.06, -0.009000000000000001, 1.034, 192.0, 0.0, 0.0, 0.0, 0.0, 0.0, 0.0, 0.0, 0.0, 0.0, 1.747688754232605E9, 0.0, 2025-05-19 23:05:54.232
80.0, 24119.365110321654, 21313.237704424588, 49115.76796958065, 32737.638978676678, 38845.67783423398, 2729.3491636930903, 10003.07619608357, 2364.3004732490153, 0.0, 0.0, 14996.277093443525, -16088.003347874088, 10654.294270788942, 2831.787208531762, -19579.167017837408, -32386.135445372518, 0.06, -0.009000000000000001, 1.034, 192.0, 0.0, 0.0, 0.0, 0.0, 0.0, 0.0, 0.0, 0.0, 0.0, 1.747688754239632E9, 0.0, 2025-05-19 23:05:54.239
82.0, 24082.32826975921, 21268.60127074734, 49110.47060614474, 32710.123981252193, 38846.84012494566, 2717.793311809696, 9995.767175646684, 2362.244112759127, 0.0, 0.0, 14951.640659766277, -16134.517328085582, 10607.310903943886, 2782.5016120078103, -19620.718910779826, -32426.435640625437, 0.06, -0.009000000000000001, 1.034, 192.0, 0.0, 0.0, 0.0, 0.0, 0.0, 0.0, 0.0, 0.0, 0.0, 1.747688754247678E9, 0.0, 2025-05-19 23:05:54.247
84.0, 24056.28848746878, 21246.048360591933, 49109.151853221876, 32731.4251937181, 38835.150162595535, 2708.8526140275735, 10037.229661611278, 2361.7523743811103, 0.0, 0.0, 14968.002136707562, -16118.602886033403, 10607.020331265967, 2806.6191442750865, -19601.049375659153, -32418.880750999542, 0.061, -0.007500000000000001, 1.032, 192.0, 0.5, 120.0, 127.5, 104.0, 16.0, 24.0, 0.0, 0.0, 0.0, 1.747688754256716E9, 0.0, 2025-05-19 23:05:54.256
86.0, 24031.165126701013, 21205.27877870545, 49113.37633292393, 32710.19103648556, 38844.76141271131, 2750.382155225534, 9976.097640526013, 2365.239246516138, 0.0, 0.0, 14950.545424287966, -16138.00420022061, 10612.049473768411, 2806.373275086078, -19600.84820995906, -32403.301585114194, 0.061, -0.007500000000000001, 1.032, 192.0, 0.0, 0.0, 0.0, 0.0, 0.0, 0.0, 0.0, 0.0, 0.0, 1.747688754263737E9, 0.0, 2025-05-19 23:05:54.263
88.0, 24066.503234684853, 21242.15915705671, 49109.17420496634, 32715.354289454735, 38826.63414795806, 2675.749680489264, 10014.676751455874, 2357.326728978959, 0.0, 0.0, 14956.356877846347, -16135.791377519534, 10588.736604301526, 2789.9670946558826, -19605.40796582794, -32433.208219195396, 0.061, -0.007500000000000001, 1.032, 192.0, 0.0, 0.0, 0.0, 0.0, 0.0, 0.0, 0.0, 0.0, 0.0, 1.747688754271747E9, 0.0, 2025-05-19 23:05:54.271
90.0, 24070.258327753345, 21251.077503094377, 49111.9905247677, 32730.86640010672, 38840.98396789837, 2707.1762331934256, 9991.900323855916, 2365.798040127521, 0.0, 0.0, 14969.030316952505, -16122.00035119061, 10619.023218038466, 2812.4976530668323, -19600.8258582146, -32403.41334383647, 0.061, -0.007500000000000001, 1.032, 192.0, 0.0, 0.0, 0.0, 0.0, 0.0, 0.0, 0.0, 0.0, 0.0, 1.74768875427979E9, 0.0, 2025-05-19 23:05:54.279
92.0, 24104.925883403528, 21273.49630278305, 49111.5434898786, 32711.6215481307, 38834.70312770642, 2701.744759290786, 9993.710815156795, 2373.1070605644063, 0.0, 0.0, 14959.374363347813, -16132.058636195497, 10606.796813821413, 2787.9777893993605, -19614.79569849917, -32419.84187601112, 0.061, -0.007500000000000001, 1.032, 192.0, 0.0, 0.0, 0.0, 0.0, 0.0, 0.0, 0.0, 0.0, 0.0, 1.747688754287866E9, 0.0, 2025-05-19 23:05:54.287
94.0, 24144.622581556152, 21318.64682658277, 49123.03228652862, 32744.61272294673, 38849.745851724845, 2748.415201713467, 10011.905135143415, 2360.947711580719, 0.0, 0.0, 14983.134267703805, -16106.197667860708, 10618.48677617154, 2808.4743390648773, -19604.53624779418, -32414.343346875114, 0.0595, -0.006750000000000001, 1.03, 192.0, 0.5, 104.0, 127.5, 104.0, 16.0, 16.0, 0.0, 0.0, 0.0, 1.747688754296864E9, 0.0, 2025-05-19 23:05:54.296
96.0, 24147.26008740188, 21318.915047516235, 49118.71839984875, 32714.549626654345, 38853.88092444908, 2709.8807942725175, 9972.141381757425, 2354.7786301110546, 0.0, 0.0, 14981.323776402925, -16117.99938893311, 10639.072732814877, 2813.6822955229636, -19594.902645933944, -32398.09362865611, 0.0595, -0.006750000000000001, 1.03, 192.0, 0.0, 0.0, 0.0, 0.0, 0.0, 0.0, 0.0, 0.0, 0.0, 1.747688754303827E9, 0.0, 2025-05-19 23:05:54.303
98.0, 24194.80224785832, 21367.016001584056, 49118.874862059936, 32722.05981279133, 38851.10930813662, 2691.9770469638165, 10000.036358837648, 2335.3773159238476, 0.0, 0.0, 14973.254796654559, -16126.336589614939, 10604.762805075981, 2781.1828590849473, -19622.9317334809, -32440.42783265446, 0.0595, -0.006750000000000001, 1.03, 192.0, 0.0, 0.0, 0.0, 0.0, 0.0, 0.0, 0.0, 0.0, 0.0, 1.747688754311893E9, 0.0, 2025-05-19 23:05:54.311
100.0, 24203.60883517371, 21377.409562755773, 49130.900100576895, 32739.315359510823, 38870.46591883492, 2752.0808878041375, 9964.608843875987, 2348.3413277079258, 0.0, 0.0, 14999.048709755984, -16102.353167814395, 10646.761732907502, 2819.2478798923353, -19591.438125543373, -32402.563977547168, 0.0595, -0.006750000000000001, 1.03, 192.0, 0.0, 0.0, 0.0, 0.0, 0.0, 0.0, 0.0, 0.0, 0.0, 1.747688754318886E9, 0.0, 2025-05-19 23:05:54.318
102.0, 24220.193829559546, 21395.0003856421, 49119.97009753825, 32715.153123754637, 38848.24828484634, 2709.7913872946965, 9978.064594038082, 2351.8058480984987, 0.0, 0.0, 14985.72707006062, -16120.033397678542, 10629.193261765631, 2792.4928417793326, -19610.0794804191, -32419.394841122015, 0.0595, -0.006750000000000001, 1.03, 192.0, 0.0, 0.0, 0.0, 0.0, 0.0, 0.0, 0.0, 0.0, 0.0, 1.747688754328923E9, 0.0, 2025-05-19 23:05:54.328
104.0, 24246.904164183637, 21426.85162149091, 49134.72224887875, 32753.128737584204, 38854.68558724947, 2706.103349459571, 10020.868184669995, 2359.7854208690433, 0.0, 0.0, 14999.987483023106, -16095.714699711169, 10635.809378124402, 2806.8203099751845, -19609.744204252267, -32414.52216083076, 0.05975, -0.004375, 1.03, 192.0, 0.5, 112.0, 127.5, 120.0, 16.0, 24.0, 0.0, 0.0, 0.0, 1.747688754335956E9, 0.0, 2025-05-19 23:05:54.335
106.0, 24245.585411260774, 21423.700025522714, 49151.12842930895, 32735.6273216757, 38883.452282363454, 2727.7621898367634, 9961.099619996503, 2370.626016929867, 0.0, 0.0, 15011.096300017394, -16101.19087710272, 10665.313680805408, 2823.025324705282, -19580.284605060173, -32392.036305908718, 0.05975, -0.004375, 1.03, 192.0, 0.0, 0.0, 0.0, 0.0, 0.0, 0.0, 0.0, 0.0, 0.0, 1.747688754342983E9, 0.0, 2025-05-19 23:05:54.342
108.0, 24267.735990015983, 21451.796168303033, 49140.53370243713, 32740.09767056676, 38863.13454665358, 2759.814591385674, 10002.137422816448, 2352.9457870657193, 0.0, 0.0, 15020.059349543972, -16089.344452541407, 10648.840445141846, 2808.004952431316, -19590.11937262051, -32416.109134687085, 0.05975, -0.004375, 1.03, 192.0, 0.0, 0.0, 0.0, 0.0, 0.0, 0.0, 0.0, 0.0, 0.0, 1.747688754351013E9, 0.0, 2025-05-19 23:05:54.351
110.0, 24254.101425898247, 21439.703874552713, 49133.91758607836, 32747.406691003645, 38859.31239835172, 2718.9332507769172, 9980.992672561726, 2357.7067086346997, 0.0, 0.0, 15020.282866988526, -16087.243388562607, 10669.11347736281, 2826.221624162391, -19588.174770852896, -32392.572747775645, 0.05975, -0.004375, 1.03, 192.0, 0.0, 0.0, 0.0, 0.0, 0.0, 0.0, 0.0, 0.0, 0.0, 1.747688754360048E9, 0.0, 2025-05-19 23:05:54.360
112.0, 24253.341466586768, 21437.871031507377, 49127.27911797514, 32719.15408601214, 38850.77403196979, 2720.9896112668052, 9968.766268344674, 2361.4170982142805, 0.0, 0.0, 14995.718299832142, -16104.09660388191, 10643.878357872767, 2787.3742922990673, -19616.427375844407, -32422.457030112393, 0.05975, -0.004375, 1.03, 192.0, 0.0, 0.0, 0.0, 0.0, 0.0, 0.0, 0.0, 0.0, 0.0, 1.747688754368079E9, 0.0, 2025-05-19 23:05:54.368
114.0, 24262.55038530235, 21461.988563774656, 49126.36269645247, 32744.992702602474, 38851.35517732563, 2741.262643487769, 9994.493126212732, 2352.5881591544344, 0.0, 0.0, 15016.63953264231, -16082.057783848977, 10650.338012020351, 2807.155586142014, -19600.78115472569, -32414.812733508676, 0.058875, -0.0041875, 1.03, 192.0, 0.5, 104.0, 127.5, 112.0, 16.0, 24.0, 0.0, 0.0, 0.0, 1.747688754375109E9, 0.0, 2025-05-19 23:05:54.375
116.0, 24249.161690373625, 21430.852583748412, 49120.86416731646, 32720.58459765728, 38840.73809870936, 2761.6027309420983, 9951.3989629029, 2354.599816155412, 0.0, 0.0, 14994.265436442547, -16103.403699803794, 10657.378811523773, 2798.1478331265253, -19615.063919432632, -32407.481361327336, 0.058875, -0.0041875, 1.03, 192.0, 0.0, 0.0, 0.0, 0.0, 0.0, 0.0, 0.0, 0.0, 0.0, 1.74768875438306E9, 0.0, 2025-05-19 23:05:54.383
118.0, 24266.640754537675, 21453.42784564827, 49120.126559749435, 32728.899446594653, 38836.93830215196, 2735.093562018104, 10010.049940353625, 2354.8903888333307, 0.0, 0.0, 15000.568628378944, -16101.883781180833, 10633.998886823521, 2787.821327188173, -19611.420585086416, -32430.481306371847, 0.058875, -0.0041875, 1.03, 192.0, 0.0, 0.0, 0.0, 0.0, 0.0, 0.0, 0.0, 0.0, 0.0, 1.747688754393135E9, 0.0, 2025-05-19 23:05:54.393
120.0, 24268.831225494294, 21452.109092725408, 49146.278100762145, 32757.15205158616, 38881.73119804039, 2762.094469320115, 9942.435913376321, 2356.27619698956, 0.0, 0.0, 15013.622047140843, -16081.811914659967, 10666.453619772628, 2818.063237436204, -19598.478925046795, -32395.769047232756, 0.058875, -0.0041875, 1.03, 192.0, 0.0, 0.0, 0.0, 0.0, 0.0, 0.0, 0.0, 0.0, 0.0, 1.747688754400149E9, 0.0, 2025-05-19 23:05:54.400
122.0, 24275.447341853065, 21458.211118961706, 49146.38985948442, 32735.96259784253, 38876.36677937112, 2730.712620104864, 9949.744933813206, 2357.4384877012358, 0.0, 0.0, 15010.895134317296, -16089.255045563585, 10656.77531442348, 2799.22071686038, -19601.58581752608, -32411.45997184038, 0.058875, -0.0041875, 1.03, 192.0, 0.0, 0.0, 0.0, 0.0, 0.0, 0.0, 0.0, 0.0, 0.0, 1.747688754407191E9, 0.0, 2025-05-19 23:05:54.407
124.0, 24294.267510684433, 21480.20523550573, 49157.185752056335, 32771.09954012627, 38877.46201484943, 2766.2071902998914, 9986.111222041991, 2365.1945430272276, 0.0, 0.0, 15036.30906776298, -16060.823626616435, 10670.655747730225, 2831.6307463205753, -19578.988203881767, -32394.830273965632, 0.0604375, -0.00509375, 1.032, 192.0, 0.5, 120.0, 127.5, 104.0, 16.0, 40.0, 0.0, 0.0, 0.0, 1.747688754415186E9, 0.0, 2025-05-19 23:05:54.415
126.0, 24271.915766229125, 21447.772854301078, 49144.44525771681, 32737.974254843506, 38858.39597682905, 2767.7941641562184, 9941.698305809297, 2363.7416796376324, 0.0, 0.0, 15018.78530011002, -16083.488295494117, 10676.44484954415, 2825.059333450715, -19591.7734017102, -32386.6942389839, 0.0604375, -0.00509375, 1.032, 192.0, 0.0, 0.0, 0.0, 0.0, 0.0, 0.0, 0.0, 0.0, 0.0, 1.74768875442428E9, 0.0, 2025-05-19 23:05:54.424
128.0, 24294.580435106807, 21482.976851818188, 49146.81454262907, 32746.49026948098, 38867.20256414444, 2723.6941723458976, 9977.349338215512, 2353.8398568439316, 0.0, 0.0, 15024.216774012659, -16082.124839082342, 10652.573186465883, 2812.162376900003, -19594.768535467214, -32411.63878579602, 0.0604375, -0.00509375, 1.032, 192.0, 0.0, 0.0, 0.0, 0.0, 0.0, 0.0, 0.0, 0.0, 0.0, 1.747688754431254E9, 0.0, 2025-05-19 23:05:54.431
130.0, 24263.62326903621, 21442.251973420618, 49121.937051050314, 32737.90719961014, 38845.29785457824, 2757.6688239179643, 9943.3970383879, 2342.9322055497414, 0.0, 0.0, 15020.752253622086, -16081.208417559674, 10668.912311662712, 2823.4053043610224, -19597.54015177967, -32396.707820499876, 0.0604375, -0.00509375, 1.032, 192.0, 0.0, 0.0, 0.0, 0.0, 0.0, 0.0, 0.0, 0.0, 0.0, 1.747688754439299E9, 0.0, 2025-05-19 23:05:54.439
132.0, 24269.926460972605, 21451.885575280856, 49130.16249300987, 32721.05398429084, 38844.716709222404, 2747.118800535059, 9933.4952155942, 2345.9943945401187, 0.0, 0.0, 14992.745517819587, -16106.197667860708, 10641.620831682781, 2785.0050073868047, -19626.21743991583, -32425.47451561386, 0.0604375, -0.00509375, 1.032, 192.0, 0.0, 0.0, 0.0, 0.0, 0.0, 0.0, 0.0, 0.0, 0.0, 1.747688754447344E9, 0.0, 2025-05-19 23:05:54.447
134.0, 24285.79619953587, 21468.80584583352, 49144.75818213919, 32762.270601066426, 38864.140375154064, 2777.9418561389275, 9976.87995158195, 2360.858304602898, 0.0, 0.0, 15025.602582168887, -16070.300766265485, 10658.496398746538, 2823.0700281941927, -19588.040660386167, -32404.240358381317, 0.06121875, -0.005546875, 1.036, 192.0, 0.5, 120.0, 127.5, 104.0, 16.0, 64.0, 0.0, 0.0, 0.0, 1.747688754456376E9, 0.0, 2025-05-19 23:05:54.456
136.0, 24256.023675921402, 21440.374426886374, 49131.928280821834, 32735.090879808773, 38842.21331384341, 2750.0468790587042, 9964.854713064995, 2367.854400617409, 0.0, 0.0, 15009.241105227604, -16085.857580406378, 10667.39239303975, 2822.8465107496395, -19593.136858121976, -32387.498901784293, 0.06121875, -0.005546875, 1.036, 192.0, 0.0, 0.0, 0.0, 0.0, 0.0, 0.0, 0.0, 0.0, 0.0, 1.747688754463407E9, 0.0, 2025-05-19 23:05:54.463
138.0, 24272.161635418135, 21458.635802106357, 49130.07308603205, 32737.080185065293, 38842.03449988777, 2745.3083092341794, 9977.751669615707, 2361.8417813589313, 0.0, 0.0, 15002.53558189101, -16088.606844974382, 10636.546985691428, 2799.3771790715673, -19610.012425185734, -32418.65723355499, 0.06121875, -0.005546875, 1.036, 192.0, 0.0, 0.0, 0.0, 0.0, 0.0, 0.0, 0.0, 0.0, 0.0, 1.747688754471437E9, 0.0, 2025-05-19 23:05:54.471
140.0, 24257.40948407763, 21448.53281361256, 49130.67658313234, 32744.903295624652, 38844.582598755675, 2766.8553908890954, 9949.342602413011, 2362.512333692591, 0.0, 0.0, 15011.476279673134, -16080.113182081364, 10660.955090636622, 2826.668659051497, -19587.235997585776, -32392.036305908718, 0.06121875, -0.005546875, 1.036, 192.0, 0.0, 0.0, 0.0, 0.0, 0.0, 0.0, 0.0, 0.0, 0.0, 1.747688754479475E9, 0.0, 2025-05-19 23:05:54.479
142.0, 24264.740856258974, 21447.169357200786, 49123.52402490664, 32714.19199874306, 38833.20556082792, 2752.5279226932435, 9953.768247815162, 2367.072089561473, 0.0, 0.0, 14986.598788094378, -16106.488240538627, 10633.641258912237, 2787.5307545102546, -19619.802489257156, -32422.14410569002, 0.06121875, -0.005546875, 1.036, 192.0, 0.0, 0.0, 0.0, 0.0, 0.0, 0.0, 0.0, 0.0, 0.0, 1.747688754486509E9, 0.0, 2025-05-19 23:05:54.486
144.0, 24280.565891333332, 21461.988563774656, 49139.23730125872, 32747.451394492557, 38855.69141574996, 2784.0885858641373, 9965.279396209646, 2363.0934790484284, 0.0, 0.0, 15017.555954164978, -16082.258949549074, 10644.325392761873, 2811.3577140996117, -19597.36133782403, -32414.723326530857, 0.060609375, -0.0057734375, 1.038, 192.0, 0.5, 112.0, 127.5, 104.0, 16.0, 64.0, 0.0, 0.0, 0.0, 1.747688754495518E9, 0.0, 2025-05-19 23:05:54.495
146.0, 24275.55910057534, 21449.53864211305, 49132.75529536668, 32722.90917908063, 38860.40763383003, 2771.0575188466933, 9919.883003220917, 2351.202350998205, 0.0, 0.0, 15012.21388724016, -16089.702080452691, 10662.273843559486, 2810.6871617659526, -19598.657739002436, -32398.87593971204, 0.060609375, -0.0057734375, 1.038, 192.0, 0.0, 0.0, 0.0, 0.0, 0.0, 0.0, 0.0, 0.0, 0.0, 1.747688754503511E9, 0.0, 2025-05-19 23:05:54.503
148.0, 24288.2325396815, 21470.951613301233, 49130.00603079868, 32730.66523440662, 38844.94022666696, 2762.2509315313023, 9966.039355521127, 2344.98856603963, 0.0, 0.0, 15006.670654615244, -16092.965435143165, 10633.171872278675, 2779.5064782507993, -19624.74222478178, -32439.064376242684, 0.060609375, -0.0057734375, 1.038, 192.0, 0.0, 0.0, 0.0, 0.0, 0.0, 0.0, 0.0, 0.0, 0.0, 1.747688754511595E9, 0.0, 2025-05-19 23:05:54.511
150.0, 24258.5270713004, 21439.458005363704, 49130.408362198876, 32746.646731692166, 38839.195828341944, 2766.050728088704, 9946.72744831174, 2359.7407173801325, 0.0, 0.0, 15019.768776866053, -16069.920786609744, 10668.264111073508, 2820.5442810707427, -19595.528494778693, -32396.08197165513, 0.060609375, -0.0057734375, 1.038, 192.0, 0.0, 0.0, 0.0, 0.0, 0.0, 0.0, 0.0, 0.0, 0.0, 1.747688754520566E9, 0.0, 2025-05-19 23:05:54.520
152.0, 24249.072283395803, 21435.591153572936, 49129.96132730977, 32722.775068613897, 38837.87707541908, 2781.942818396428, 9932.332924882523, 2355.8962173338195, 0.0, 0.0, 14989.459811384657, -16095.915865411267, 10639.787988637447, 2784.960303897894, -19622.998788714267, -32422.99347197932, 0.060609375, -0.0057734375, 1.038, 192.0, 0.0, 0.0, 0.0, 0.0, 0.0, 0.0, 0.0, 0.0, 0.0, 1.747688754527653E9, 0.0, 2025-05-19 23:05:54.527
154.0, 24250.48044329649, 21447.638743834348, 49135.01282155667, 32756.52620274141, 38835.93247365147, 2798.483109293355, 9969.570931145065, 2364.0546040600066, 0.0, 0.0, 15011.275113973035, -16068.93730985371, 10648.527520719472, 2812.0953216666367, -19600.02119541421, -32412.89048348552, 0.061304687499999996, -0.00488671875, 1.0350000000000001, 192.0, 0.5, 120.0, 127.5, 112.0, 16.0, 32.0, 0.0, 0.0, 0.0, 1.747688754535693E9, 0.0, 2025-05-19 23:05:54.535
156.0, 24227.23462906297, 21422.51538306658, 49135.638670401415, 32737.48251646549, 38841.34159580965, 2783.7086062083968, 9928.466073091755, 2361.1265255363614, 0.0, 0.0, 15003.094375502395, -16074.458190734173, 10666.028936627978, 2820.343115370645, -19595.796715712157, -32390.31522158566, 0.061304687499999996, -0.00488671875, 1.0350000000000001, 192.0, 0.0, 0.0, 0.0, 0.0, 0.0, 0.0, 0.0, 0.0, 0.0, 1.747688754542729E9, 0.0, 2025-05-19 23:05:54.542
158.0, 24249.541670029364, 21441.939048998243, 49130.22954824323, 32737.41546123212, 38825.74007817985, 2759.3228530076567, 9973.951873058304, 2357.4608394456914, 0.0, 0.0, 14994.01956725354, -16083.153019327287, 10633.529500189961, 2796.3373418256456, -19614.035739187686, -32424.647501069012, 0.061304687499999996, -0.00488671875, 1.0350000000000001, 192.0, 0.0, 0.0, 0.0, 0.0, 0.0, 0.0, 0.0, 0.0, 0.0, 1.747688754551724E9, 0.0, 2025-05-19 23:05:54.551
160.0, 24242.210297848025, 21431.970170971177, 49139.39376346991, 32759.72250219852, 38839.061717875215, 2831.5860428316646, 9941.20656743128, 2368.1673250397835, 0.0, 0.0, 15008.056462771472, -16066.769190641546, 10663.458486015617, 2828.3226881411897, -19593.360375566528, -32392.148064630994, 0.061304687499999996, -0.00488671875, 1.0350000000000001, 192.0, 0.0, 0.0, 0.0, 0.0, 0.0, 0.0, 0.0, 0.0, 0.0, 1.747688754559787E9, 0.0, 2025-05-19 23:05:54.559
162.0, 24237.851707679238, 21429.28796163654, 49122.02645802814, 32724.585559914776, 38806.51757794828, 2763.2344082873356, 9939.01609647466, 2357.9972813126187, 0.0, 0.0, 14992.499648630579, -16084.292958294507, 10646.806436396413, 2801.4335395614553, -19610.995901941766, -32408.93422471693, 0.061304687499999996, -0.00488671875, 1.0350000000000001, 192.0, 0.0, 0.0, 0.0, 0.0, 0.0, 0.0, 0.0, 0.0, 0.0, 1.747688754567801E9, 0.0, 2025-05-19 23:05:54.567
164.0, 24258.348257344755, 21454.43367414876, 49142.47830420474, 32763.410540033645, 38837.27357831879, 2812.0059146888157, 9951.957756514283, 2356.052679545007, 0.0, 0.0, 15000.658035356766, -16069.786676143012, 10642.760770650002, 2810.553051299221, -19610.347701352563, -32413.359870119082, 0.05865234375, -0.007443359375, 1.0335, 192.0, 0.5, 96.0, 127.5, 88.0, 16.0, 32.0, 0.0, 0.0, 0.0, 1.747688754574823E9, 0.0, 2025-05-19 23:05:54.574
166.0, 24237.98581814597, 21431.120804681876, 49131.07891453253, 32736.85666762074, 38830.88097940457, 2793.901001680017, 9901.040482645092, 2362.0652988034844, 0.0, 0.0, 15006.916523804251, -16073.362955255861, 10668.957015151622, 2821.9747927158824, -19593.718003477814, -32387.811826206667, 0.05865234375, -0.007443359375, 1.0335, 192.0, 0.0, 0.0, 0.0, 0.0, 0.0, 0.0, 0.0, 0.0, 0.0, 1.747688754583865E9, 0.0, 2025-05-19 23:05:54.583
168.0, 24263.958545203037, 21454.880709037865, 49144.98169958374, 32749.664217193633, 38847.510677279315, 2807.0438274197377, 9955.958718771783, 2357.013804556585, 0.0, 0.0, 15000.903904545774, -16070.9936703436, 10641.732590405058, 2796.1361761255475, -19613.34283510957, -32421.674719056457, 0.05865234375, -0.007443359375, 1.0335, 192.0, 0.0, 0.0, 0.0, 0.0, 0.0, 0.0, 0.0, 0.0, 0.0, 1.74768875459191E9, 0.0, 2025-05-19 23:05:54.591
170.0, 24254.682571254085, 21446.722322311678, 49138.946728580806, 32756.95088588606, 38842.414479543506, 2800.517118038788, 9940.625422075442, 2358.7348888796437, 0.0, 0.0, 15020.01464605506, -16054.9898213136, 10674.67906173218, 2830.2896416532567, -19586.945424907855, -32389.488207040813, 0.05865234375, -0.007443359375, 1.0335, 192.0, 0.0, 0.0, 0.0, 0.0, 0.0, 0.0, 0.0, 0.0, 0.0, 1.747688754598939E9, 0.0, 2025-05-19 23:05:54.598
172.0, 24240.288047824866, 21433.9594762277, 49119.12073124895, 32714.348460954247, 38826.79061016925, 2771.482201991344, 9922.431102088822, 2347.3131474629818, 0.0, 0.0, 14986.978767750117, -16088.673900207747, 10641.643183427237, 2782.3898532855337, -19626.865640505035, -32427.597931337114, 0.05865234375, -0.007443359375, 1.0335, 192.0, 0.0, 0.0, 0.0, 0.0, 0.0, 0.0, 0.0, 0.0, 0.0, 1.747688754606904E9, 0.0, 2025-05-19 23:05:54.606
174.0, 24258.5270713004, 21447.728150812167, 49129.82721684304, 32752.346426528267, 38826.902368891526, 2820.7901502597515, 9950.281375680135, 2347.89429281882, 0.0, 0.0, 15004.256666214069, -16071.261891277063, 10641.509072960505, 2797.253763348313, -19615.622713044013, -32427.70969005939, 0.059326171875, -0.0077216796875, 1.03075, 192.0, 0.5, 112.0, 127.5, 96.0, 16.0, 16.0, 0.0, 0.0, 0.0, 1.747688754615907E9, 0.0, 2025-05-19 23:05:54.615
176.0, 24243.685512982072, 21431.63489480435, 49125.42392318534, 32734.599141430754, 38824.4660287459, 2801.813519217196, 9905.108500135959, 2346.620243384867, 0.0, 0.0, 14995.673596343231, -16075.620481445847, 10662.340898792852, 2800.226545360869, -19620.674207290915, -32405.55911130418, 0.059326171875, -0.0077216796875, 1.03075, 192.0, 0.0, 0.0, 0.0, 0.0, 0.0, 0.0, 0.0, 0.0, 0.0, 1.747688754622937E9, 0.0, 2025-05-19 23:05:54.622
178.0, 24267.110141171237, 21461.228604463173, 49138.07501054704, 32748.77014741542, 38837.45239227443, 2799.7571587273073, 9930.656544048376, 2342.015784027074, 0.0, 0.0, 14998.042881255495, -16072.468885477649, 10640.726761904569, 2788.2013068439137, -19624.116375937032, -32429.18490519344, 0.059326171875, -0.0077216796875, 1.03075, 192.0, 0.0, 0.0, 0.0, 0.0, 0.0, 0.0, 0.0, 0.0, 0.0, 1.747688754631001E9, 0.0, 2025-05-19 23:05:54.631
180.0, 24253.006190419936, 21446.096473466932, 49143.417077471866, 32765.668066223632, 38837.92177890799, 2803.6016587736203, 9929.047218447593, 2358.265502246082, 0.0, 0.0, 15019.902887332784, -16048.373704954829, 10678.367099567307, 2834.1788451884804, -19589.672337731405, -32385.844872694597, 0.059326171875, -0.0077216796875, 1.03075, 192.0, 0.0, 0.0, 0.0, 0.0, 0.0, 0.0, 0.0, 0.0, 0.0, 1.747688754639002E9, 0.0, 2025-05-19 23:05:54.639
182.0, 24248.446434551053, 21439.0109704746, 49132.42001919985, 32736.18611528708, 38814.944185607936, 2789.0506731332152, 9925.940325968306, 2358.0643365459846, 0.0, 0.0, 14990.689157329698, -16077.296862279996, 10653.780180666468, 2801.7464639838295, -19619.467213090327, -32410.632957295533, 0.059326171875, -0.0077216796875, 1.03075, 192.0, 0.0, 0.0, 0.0, 0.0, 0.0, 0.0, 0.0, 0.0, 0.0, 1.747688754648072E9, 0.0, 2025-05-19 23:05:54.648
184.0, 24262.75155100245, 21455.171281715786, 49149.20617928579, 32771.077188381816, 38840.916912665, 2841.4208103919996, 9938.68082030783, 2350.487095175635, 0.0, 0.0, 15014.225544241137, -16050.273603233529, 10660.575110980883, 2823.0476764497375, -19601.16113438143, -32403.770971747756, 0.059326171875, -0.0077216796875, 1.03075, 192.0, 0.0, 0.0, 0.0, 0.0, 0.0, 0.0, 0.0, 0.0, 0.0, 1.747688754655111E9, 0.0, 2025-05-19 23:05:54.655
186.0, 24241.02565539189, 21431.970170971177, 49133.91758607836, 32742.5787142013, 38818.229892042866, 2812.989391444849, 9910.316456594046, 2355.113906277884, 0.0, 0.0, 15008.369387193847, -16060.8906818498, 10678.68002398968, 2827.450970107433, -19599.84238145857, -32385.621355250045, 0.06, -0.006, 1.028, 192.0, 0.5, 112.0, 127.5, 104.0, 16.0, 16.0, 0.0, 0.0, 0.0, 1.74768875466309E9, 0.0, 2025-05-19 23:05:54.663
188.0, 24256.917745699615, 21448.353999656916, 49128.82138834255, 32739.225952533005, 38819.03455484326, 2783.55214399721, 9949.722582068753, 2348.922473063764, 0.0, 0.0, 14995.003044009572, -16072.670051177747, 10641.889052616245, 2795.59973425862, -19625.390425370984, -32425.161591191485, 0.06, -0.006, 1.028, 192.0, 0.0, 0.0, 0.0, 0.0, 0.0, 0.0, 0.0, 0.0, 0.0, 1.747688754672147E9, 0.0, 2025-05-19 23:05:54.672
190.0, 24237.918762912603, 21431.277266893063, 49124.82042608505, 32745.5291444694, 38813.49132221834, 2821.125426426581, 9921.91701196635, 2354.6445196443224, 0.0, 0.0, 15004.346073191891, -16062.254138261575, 10665.984233139066, 2824.254670650324, -19605.206800127842, -32397.423076322448, 0.06, -0.006, 1.028, 192.0, 0.0, 0.0, 0.0, 0.0, 0.0, 0.0, 0.0, 0.0, 0.0, 1.747688754679191E9, 0.0, 2025-05-19 23:05:54.679
192.0, 24246.814757205815, 21436.239354162142, 49132.24120524421, 32727.915969838617, 38832.490305005354, 2856.955272788438, 9911.72461649473, 2350.6435573868225, 0.0, 0.0, 14983.536599104, -16086.863408906867, 10643.721895661582, 2795.1974028584245, -19622.9317334809, -32418.32195738816, 0.06, -0.006, 1.028, 192.0, 0.0, 0.0, 0.0, 0.0, 0.0, 0.0, 0.0, 0.0, 0.0, 1.74768875468723E9, 0.0, 2025-05-19 23:05:54.687
194.0, 24247.12768162819, 21446.074121722475, 49133.02351630015, 32755.833298663296, 38830.54570323774, 2797.4102255595003, 9945.654564577886, 2346.866112573876, 0.0, 0.0, 15005.687177859209, -16062.812931872957, 10648.236948041553, 2818.9349554699606, -19601.65287275945, -32409.157742161486, 0.06, -0.006, 1.028, 192.0, 0.0, 0.0, 0.0, 0.0, 0.0, 0.0, 0.0, 0.0, 0.0, 1.747688754695273E9, 0.0, 2025-05-19 23:05:54.695
196.0, 24227.815774418807, 21419.006159187098, 49125.17805399634, 32730.62053091771, 38822.208502555906, 2810.3965890880336, 9897.821831443529, 2348.2519207301048, 0.0, 0.0, 14991.225599196625, -16077.095696579898, 10657.423515012684, 2816.6103740466087, -19607.21845712882, -32396.439599566413, 0.052000000000000005, -0.006, 1.032, 192.0, 0.5, 80.0, 127.5, 104.0, 16.0, 32.0, 0.0, 0.0, 0.0, 1.74768875470428E9, 0.0, 2025-05-19 23:05:54.704
198.0, 24250.368684574212, 21437.7592727851, 49122.093513261505, 32729.90527509514, 38809.78093263876, 2785.4967457648213, 9943.911128510372, 2348.6542521303004, 0.0, 0.0, 14985.458849127157, -16082.884798393823, 10629.193261765631, 2785.6308562315535, -19629.190221928387, -32435.398690152015, 0.052000000000000005, -0.006, 1.032, 192.0, 0.0, 0.0, 0.0, 0.0, 0.0, 0.0, 0.0, 0.0, 0.0, 1.747688754711332E9, 0.0, 2025-05-19 23:05:54.711
200.0, 24235.169498344603, 21424.86231623439, 49117.62316437044, 32740.589408944776, 38813.29015651824, 2815.8504147351287, 9928.957811469772, 2352.99049055463, 0.0, 0.0, 14998.44521265569, -16063.148208039787, 10660.73157319207, 2817.9738304583825, -19609.25246587425, -32401.31227985767, 0.052000000000000005, -0.006, 1.032, 192.0, 0.0, 0.0, 0.0, 0.0, 0.0, 0.0, 0.0, 0.0, 0.0, 1.747688754719348E9, 0.0, 2025-05-19 23:05:54.719
202.0, 24236.823527434295, 21427.52217382457, 49126.67562087484, 32715.398992943647, 38822.18615081145, 2813.905812967517, 9900.4369855448, 2353.7728016105657, 0.0, 0.0, 14973.075982698916, -16097.18991484522, 10630.042628054933, 2783.5297922527543, -19632.140652196485, -32430.391899394024, 0.052000000000000005, -0.006, 1.032, 192.0, 0.0, 0.0, 0.0, 0.0, 0.0, 0.0, 0.0, 0.0, 0.0, 1.747688754727368E9, 0.0, 2025-05-19 23:05:54.727
204.0, 24247.708826984028, 21438.161604185298, 49135.079876790034, 32752.771109672918, 38826.23181655786, 2840.6832028249746, 9953.947061770805, 2358.667833646278, 0.0, 0.0, 15000.5909801234, -16064.355202240373, 10642.53725320545, 2810.9777344438717, -19603.172791382407, -32414.27629164175, 0.052000000000000005, -0.006, 1.032, 192.0, 0.0, 0.0, 0.0, 0.0, 0.0, 0.0, 0.0, 0.0, 0.0, 1.747688754735421E9, 0.0, 2025-05-19 23:05:54.735
206.0, 24241.22682109199, 21429.7573482701, 49125.60273714099, 32729.324129739303, 38811.412609984, 2837.4645516234104, 9905.711997236253, 2355.985624311641, 0.0, 0.0, 14992.946683519684, -16069.630213931825, 10663.570244737894, 2815.157510657014, -19607.084346662086, -32396.21608212186, 0.052000000000000005, 0.0, 1.03, 192.0, 0.5, 80.0, 0.0, 0.0, 16.0, 24.0, 0.0, 0.0, 0.0, 1.747688754743431E9, 0.0, 2025-05-19 23:05:54.743
208.0, 24263.109178913735, 21456.646496849837, 49132.66588838886, 32735.828487375795, 38817.55933970921, 2826.311031140212, 9939.68664880832, 2359.4054412133028, 0.0, 0.0, 14989.549218362477, -16078.503856480582, 10635.138825790742, 2788.804803944207, -19626.150384682463, -32432.6047220951, 0.052000000000000005, 0.0, 1.03, 192.0, 0.0, 0.0, 0.0, 0.0, 0.0, 0.0, 0.0, 0.0, 0.0, 1.747688754751446E9, 0.0, 2025-05-19 23:05:54.751
210.0, 24246.658294994628, 21436.373464628872, 49129.60369939848, 32753.44166200658, 38819.77216241028, 2854.608339620631, 9918.67600902033, 2347.3578509518925, 0.0, 0.0, 15006.916523804251, -16056.018001558543, 10669.24758782954, 2824.8805194950723, -19596.802544212645, -32394.629108265533, 0.052000000000000005, 0.0, 1.03, 192.0, 0.0, 0.0, 0.0, 0.0, 0.0, 0.0, 0.0, 0.0, 0.0, 1.747688754759517E9, 0.0, 2025-05-19 23:05:54.759
212.0, 24244.31136182682, 21425.04113019003, 49126.51915866365, 32723.400917458646, 38816.08412457516, 2785.3626352980896, 9907.544840281587, 2343.5580543944902, 0.0, 0.0, 14988.901017773274, -16074.122914567342, 10646.381753251762, 2792.2246208458687, -19629.234925417295, -32419.953634733396, 0.052000000000000005, 0.0, 1.03, 192.0, 0.0, 0.0, 0.0, 0.0, 0.0, 0.0, 0.0, 0.0, 0.0, 1.747688754766529E9, 0.0, 2025-05-19 23:05:54.766
214.0, 24247.440606050564, 21428.99738895862, 49120.21596672726, 32739.024786832906, 38817.514636220294, 2791.777585956763, 9949.387305901922, 2353.7728016105657, 0.0, 0.0, 15000.143945234293, -16069.473751720638, 10644.0124683395, 2803.5569552847096, -19612.828744987102, -32424.6027975801, 0.052000000000000005, 0.0, 1.03, 192.0, 0.0, 0.0, 0.0, 0.0, 0.0, 0.0, 0.0, 0.0, 0.0, 1.747688754775545E9, 0.0, 2025-05-19 23:05:54.775
216.0, 24241.80796644783, 21418.648531275812, 49122.294678961596, 32726.239589004468, 38836.73713645186, 2818.2644031363016, 9877.884075389395, 2339.668850859267, 0.0, 0.0, 14988.901017773274, -16079.643795447802, 10655.277747544975, 2804.898059952028, -19621.54592532467, -32408.50954157228, 0.06, -0.004, 1.034, 192.0, 0.5, 112.0, 127.5, 112.0, 16.0, 40.0, 0.0, 0.0, 0.0, 1.747688754783568E9, 0.0, 2025-05-19 23:05:54.783
218.0, 24250.547498529853, 21419.184973142743, 49118.47253065974, 32717.209484244526, 38829.07048810369, 2784.155641097503, 9920.195927643292, 2334.147969978806, 0.0, 0.0, 14988.901017773274, -16088.338624040918, 10626.399293708719, 2781.898114907517, -19630.665437062435, -32440.89721928802, 0.06, -0.004, 1.034, 192.0, 0.0, 0.0, 0.0, 0.0, 0.0, 0.0, 0.0, 0.0, 0.0, 1.747688754791584E9, 0.0, 2025-05-19 23:05:54.791
220.0, 24241.293876325355, 21407.874990448356, 49111.92346953434, 32726.19488551556, 38822.47672348937, 2824.925222983983, 9907.746005981686, 2340.048830515007, 0.0, 0.0, 14990.420936396235, -16089.813839174967, 10643.140750305743, 2802.2605541063017, -19622.21647765833, -32418.500771343803, 0.06, -0.004, 1.034, 192.0, 0.0, 0.0, 0.0, 0.0, 0.0, 0.0, 0.0, 0.0, 0.0, 1.747688754799614E9, 0.0, 2025-05-19 23:05:54.799
222.0, 24251.93330668608, 21416.748632997114, 49115.723266091736, 32702.256167203926, 38829.3163572927, 2811.0447896772375, 9874.374851509912, 2330.4822838881355, 0.0, 0.0, 14979.021546724029, -16107.069385894465, 10626.846328597823, 2772.7115479363856, -19646.758693070256, -32441.94775127742, 0.06, -0.004, 1.034, 192.0, 0.0, 0.0, 0.0, 0.0, 0.0, 0.0, 0.0, 0.0, 0.0, 1.747688754806587E9, 0.0, 2025-05-19 23:05:54.806
224.0, 24270.37349586171, 21438.98861873014, 49125.06629527406, 32731.514600695922, 38838.74879345284, 2810.575403043676, 9930.880061492928, 2343.692164861222, 0.0, 0.0, 15000.725090590131, -16085.075269350442, 10634.82590136837, 2792.1352138680477, -19626.75388178276, -32437.11977447507, 0.06, -0.004, 1.034, 192.0, 0.0, 0.0, 0.0, 0.0, 0.0, 0.0, 0.0, 0.0, 0.0, 1.747688754815633E9, 0.0, 2025-05-19 23:05:54.815
226.0, 24257.85651896674, 21429.220906403174, 49123.121693506444, 32721.90335058014, 38835.664252718, 2820.3654671151003, 9882.823810914018, 2332.471589144658, 0.0, 0.0, 14997.797012066487, -16089.411507774772, 10656.663555701203, 2799.4218825604776, -19621.881201491502, -32416.84674225411, 0.06, -0.004, 1.032, 192.0, 0.5, 112.0, 127.5, 112.0, 16.0, 32.0, 0.0, 0.0, 0.0, 1.747688754823632E9, 0.0, 2025-05-19 23:05:54.823
228.0, 24275.737914530982, 21447.90696476781, 49117.98079228173, 32721.702184880043, 38815.54768270823, 2779.2159055728803, 9926.789692257607, 2334.6397083568227, 0.0, 0.0, 14994.511305631555, -16080.426106503739, 10635.943488591134, 2778.187725327936, -19639.293210422184, -32443.400614667014, 0.06, -0.004, 1.032, 192.0, 0.0, 0.0, 0.0, 0.0, 0.0, 0.0, 0.0, 0.0, 0.0, 1.747688754831721E9, 0.0, 2025-05-19 23:05:54.831
230.0, 24265.970202204015, 21438.34041814094, 49124.753370851686, 32741.77405140091, 38830.053964859726, 2836.4810748673767, 9903.342712323989, 2339.4900369036245, 0.0, 0.0, 15006.44713717069, -16070.725449410136, 10661.670346459192, 2809.189594887447, -19617.902590978454, -32416.13148643154, 0.06, -0.004, 1.032, 192.0, 0.0, 0.0, 0.0, 0.0, 0.0, 0.0, 0.0, 0.0, 0.0, 1.747688754838756E9, 0.0, 2025-05-19 23:05:54.838
232.0, 24269.56883306132, 21440.396778630828, 49127.97202205325, 32718.75175461194, 38838.078241119176, 2821.125426426581, 9887.67413946082, 2332.538644378024, 0.0, 0.0, 14987.649320083776, -16086.885760651323, 10644.101875317321, 2782.903943408006, -19635.672227820425, -32432.8058877952, 0.06, -0.004, 1.032, 192.0, 0.0, 0.0, 0.0, 0.0, 0.0, 0.0, 0.0, 0.0, 0.0, 1.747688754847754E9, 0.0, 2025-05-19 23:05:54.847
234.0, 24278.46482735453, 21451.617354347392, 49122.96523129526, 32740.14237405567, 38831.73034569387, 2803.5346035402545, 9925.716808523752, 2336.0925717464174, 0.0, 0.0, 15010.671616872743, -16060.443646960694, 10650.785046909457, 2805.479205307866, -19616.472079333314, -32424.22281792436, 0.06, -0.004, 1.032, 192.0, 0.0, 0.0, 0.0, 0.0, 0.0, 0.0, 0.0, 0.0, 0.0, 1.747688754855852E9, 0.0, 2025-05-19 23:05:54.855
236.0, 24258.08003641129, 21431.120804681876, 49123.07699001754, 32722.171571513605, 38840.49222952035, 2844.058316237726, 9874.754831165652, 2333.835045556432, 0.0, 0.0, 14991.717337574642, -16083.465943749661, 10657.937605135156, 2796.627914503564, -19626.865640505035, -32419.730117288844, 0.056, -0.004, 1.032, 192.0, 0.5, 96.0, 127.5, 112.0, 16.0, 32.0, 0.0, 0.0, 0.0, 1.747688754863976E9, 0.0, 2025-05-19 23:05:54.863
238.0, 24266.439588837577, 21441.1120344534, 49112.72813233473, 32713.744963853955, 38817.26876703129, 2816.1409874130472, 9920.82177648804, 2328.4259233982475, 0.0, 0.0, 14989.951549762673, -16083.465943749661, 10632.34485773383, 2773.0691758476705, -19640.813129045146, -32447.200411224418, 0.056, -0.004, 1.032, 192.0, 0.0, 0.0, 0.0, 0.0, 0.0, 0.0, 0.0, 0.0, 0.0, 1.74768875487083E9, 0.0, 2025-05-19 23:05:54.870
240.0, 24260.963411446028, 21431.903115737812, 49116.90790854787, 32726.95484482704, 38830.34453753764, 2819.2255281478797, 9889.082299361504, 2323.665001829267, 0.0, 0.0, 14997.662901599753, -16079.129705325331, 10651.120323076288, 2791.285847578746, -19635.068730720133, -32430.816582538675, 0.056, -0.004, 1.032, 192.0, 0.0, 0.0, 0.0, 0.0, 0.0, 0.0, 0.0, 0.0, 0.0, 1.747688754879887E9, 0.0, 2025-05-19 23:05:54.879
242.0, 24272.85453949625, 21438.608639074402, 49120.10420800498, 32710.32514695229, 38826.65649970251, 2805.79212973024, 9877.504095733655, 2328.962365265175, 0.0, 0.0, 14988.5880933509, -16095.312368310973, 10641.218500282586, 2766.7212804223636, -19650.960821027857, -32449.055606014208, 0.056, -0.004, 1.032, 192.0, 0.0, 0.0, 0.0, 0.0, 0.0, 0.0, 0.0, 0.0, 0.0, 1.747688754887911E9, 0.0, 2025-05-19 23:05:54.887
244.0, 24284.075115212814, 21453.137272970354, 49134.4987314342, 32750.20065906056, 38849.07529939119, 2851.2108744634243, 9912.283410106113, 2329.990545510119, 0.0, 0.0, 15014.918448319251, -16059.482521949116, 10654.58484346686, 2799.4665860493883, -19621.79179451368, -32428.670815070967, 0.056, -0.004, 1.032, 192.0, 0.0, 0.0, 0.0, 0.0, 0.0, 0.0, 0.0, 0.0, 0.0, 1.747688754894954E9, 0.0, 2025-05-19 23:05:54.894
246.0, 24261.61161203523, 21432.640723304838, 49125.60273714099, 32729.65940590613, 38829.80809567071, 2816.833891491162, 9879.269883545623, 2323.7767605515432, 0.0, 0.0, 15005.01662552555, -16069.406696487273, 10670.342823307852, 2814.0846269231592, -19613.700463020858, -32404.061544425673, 0.054, 0.002, 1.028, 192.0, 0.5, 88.0, 0.0, 8.0, 16.0, 16.0, 0.0, 0.0, 0.0, 1.747688754903924E9, 0.0, 2025-05-19 23:05:54.903
248.0, 24284.499798357465, 21453.539604370548, 49131.48124593273, 32732.09574605176, 38837.87707541908, 2803.668714006986, 9916.82081423054, 2330.07995248794, 0.0, 0.0, 14996.657073099266, -16073.050030833487, 10640.749113649024, 2791.777585956763, -19631.872431263022, -32437.387995408535, 0.054, 0.002, 1.028, 192.0, 0.0, 0.0, 0.0, 0.0, 0.0, 0.0, 0.0, 0.0, 0.0, 1.747688754911958E9, 0.0, 2025-05-19 23:05:54.911
250.0, 24267.534824315888, 21434.76413902809, 49124.21692898476, 32737.68368216559, 38834.658424217516, 2836.5257783562874, 9892.770337196629, 2324.3579059073813, 0.0, 0.0, 15012.437404684712, -16063.125856295332, 10665.917177905701, 2823.7182287833966, -19607.84430597357, -32408.241320638816, 0.054, 0.002, 1.028, 192.0, 0.0, 0.0, 0.0, 0.0, 0.0, 0.0, 0.0, 0.0, 0.0, 1.747688754919007E9, 0.0, 2025-05-19 23:05:54.919
252.0, 24258.996457933958, 21426.04695869052, 49112.61637361245, 32704.983080027472, 38806.04819131472, 2815.962173457405, 9908.10363389297, 2318.859376771376, 0.0, 0.0, 14984.877703771319, -16093.61363573237, 10636.502282202517, 2785.3626352980896, -19639.919059266933, -32435.801021552208, 0.054, 0.002, 1.028, 192.0, 0.0, 0.0, 0.0, 0.0, 0.0, 0.0, 0.0, 0.0, 0.0, 1.747688754927008E9, 0.0, 2025-05-19 23:05:54.927
254.0, 24268.920632472116, 21437.267534407085, 49122.58525163952, 32734.263865263925, 38833.87611316158, 2815.2692693792906, 9923.861613733961, 2324.536719863024, 0.0, 0.0, 14994.958340520661, -16080.694327437202, 10631.875471100268, 2797.0973011371257, -19628.519669594727, -32437.097422730618, 0.054, 0.002, 1.028, 192.0, 0.0, 0.0, 0.0, 0.0, 0.0, 0.0, 0.0, 0.0, 0.0, 1.747688754935086E9, 0.0, 2025-05-19 23:05:54.935
0.0, 24253.430873564586, 21422.314217366486, 49117.2431847147, 32715.197827243548, 38828.0646596032, 2828.3003363967346, 9878.28640678959, 2327.9118332757753, 0.0, 0.0, 14994.06427074245, -16086.908112395779, 10652.48377948806, 2803.2663826067906, -19619.243695645775, -32420.13244868904, 0.058, 0.0, 1.032, 192.0, 0.5, 104.0, 0.0, 0.0, 16.0, 32.0, 0.0, 0.0, 0.0, 1.747688754943138E9, 0.0, 2025-05-19 23:05:54.943
2.0, 24264.60674579224, 21432.797185516025, 49115.365638180454, 32712.828542331285, 38833.183209083465, 2828.4344468634663, 9919.301857865079, 2320.1334262053283, 0.0, 0.0, 14985.481200871613, -16090.394984530805, 10623.024180295966, 2777.2489520608133, -19637.527422610216, -32450.553172892713, 0.058, 0.0, 1.032, 192.0, 0.0, 0.0, 0.0, 0.0, 0.0, 0.0, 0.0, 0.0, 0.0, 1.74768875495114E9, 0.0, 2025-05-19 23:05:54.951
4.0, 24248.4240828066, 21418.49206906463, 49108.48130088822, 32722.66330989162, 38826.1647613245, 2867.5276479157983, 9903.990912913194, 2333.3209554339596, 0.0, 0.0, 14992.20907595266, -16081.9460251267, 10644.839482884347, 2803.713417495897, -19618.707253778848, -32423.060527212685, 0.058, 0.0, 1.032, 192.0, 0.0, 0.0, 0.0, 0.0, 0.0, 0.0, 0.0, 0.0, 0.0, 1.747688754959224E9, 0.0, 2025-05-19 23:05:54.959
6.0, 24247.887640939673, 21419.43084233175, 49101.14992870688, 32694.298946177834, 38797.956859821905, 2810.7542169993185, 9905.19790711378, 2330.281118188038, 0.0, 0.0, 14968.516226830034, -16102.822554447957, 10620.409026194695, 2767.704757178397, -19655.922908296932, -32448.116832747084, 0.058, 0.0, 1.032, 192.0, 0.0, 0.0, 0.0, 0.0, 0.0, 0.0, 0.0, 0.0, 0.0, 1.747688754968182E9, 0.0, 2025-05-19 23:05:54.968
8.0, 24263.55621380284, 21434.51826983908, 49113.39868466839, 32725.166705270614, 38833.674947461484, 2810.8436239771395, 9932.802311516085, 2336.2266822131496, 0.0, 0.0, 14990.599750351877, -16081.9460251267, 10629.10385478781, 2786.5919812431316, -19630.508974851247, -32445.412271667992, 0.058, 0.0, 1.032, 192.0, 0.0, 0.0, 0.0, 0.0, 0.0, 0.0, 0.0, 0.0, 0.0, 1.747688754975218E9, 0.0, 2025-05-19 23:05:54.975
10.0, 24242.970257159504, 21418.00033068661, 49101.462853129255, 32700.110399736215, 38818.721630420885, 2840.124409213592, 9874.24074104318, 2324.98375475213, 0.0, 0.0, 14979.759154291054, -16093.725394454646, 10641.39731423823, 2786.4355190319443, -19637.929754010413, -32432.828239539653, 0.06, -0.004, 1.032, 192.0, 0.5, 112.0, 127.5, 112.0, 16.0, 32.0, 0.0, 0.0, 0.0, 1.747688754983225E9, 0.0, 2025-05-19 23:05:54.983
12.0, 24257.767111988916, 21429.9585139702, 49101.82048104054, 32701.451504403536, 38819.95097636592, 2804.540432040743, 9920.4417968323, 2326.660135586278, 0.0, 0.0, 14973.902997243762, -16097.636949734326, 10612.80943307989, 2767.257722289291, -19648.211556459853, -32459.024484041274, 0.06, -0.004, 1.032, 192.0, 0.0, 0.0, 0.0, 0.0, 0.0, 0.0, 0.0, 0.0, 0.0, 1.747688754991314E9, 0.0, 2025-05-19 23:05:54.991
14.0, 24255.509585798933, 21418.648531275812, 49098.13244320541, 32714.728440609986, 38816.21823504189, 2841.9796040033825, 9908.01422691515, 2320.9827924946303, 0.0, 0.0, 14975.467619355633, -16091.646682220304, 10631.29432574443, 2789.3635975555894, -19636.54394585418, -32436.404518652504, 0.06, -0.004, 1.032, 192.0, 0.0, 0.0, 0.0, 0.0, 0.0, 0.0, 0.0, 0.0, 0.0, 1.747688754999283E9, 0.0, 2025-05-19 23:05:54.999
16.0, 24255.643696265663, 21412.77002248407, 49106.916678776346, 32693.918966522095, 38824.04134560125, 2803.2663826067906, 9884.56724698153, 2323.4191326402583, 0.0, 0.0, 14970.706697786654, -16106.912923683278, 10618.419720938173, 2765.938969366428, -19655.006486774266, -32456.319922962182, 0.06, -0.004, 1.032, 192.0, 0.0, 0.0, 0.0, 0.0, 0.0, 0.0, 0.0, 0.0, 0.0, 1.747688755007289E9, 0.0, 2025-05-19 23:05:55.007
18.0, 24273.70390578555, 21439.0109704746, 49109.46477764425, 32725.14435352616, 38829.36106078161, 2863.1467060025584, 9922.185232899814, 2327.308336175482, 0.0, 0.0, 14988.051651483973, -16085.119972839353, 10626.1087210308, 2778.4335945169446, -19638.577954599616, -32454.129452005564, 0.06, -0.004, 1.032, 192.0, 0.0, 0.0, 0.0, 0.0, 0.0, 0.0, 0.0, 0.0, 0.0, 1.7476887550153E9, 0.0, 2025-05-19 23:05:55.015
20.0, 24273.055705196348, 21438.8098047745, 49117.35494343698, 32718.75175461194, 38838.3688137971, 2862.5208571578096, 9860.09208680297, 2318.2558796710828, 0.0, 0.0, 14992.946683519684, -16077.587434957915, 10652.461427743607, 2795.0856441361484, -19631.60421032956, -32425.60862608059, 0.056, -0.004, 1.034, 192.0, 0.5, 96.0, 127.5, 112.0, 16.0, 40.0, 0.0, 0.0, 0.0, 1.7476887550243E9, 0.0, 2025-05-19 23:05:55.024
22.0, 24282.08580995629, 21451.662057836304, 49121.020629527644, 32716.09189702176, 38838.05588937472, 2842.7842668037733, 9900.749909967173, 2323.597946595901, 0.0, 0.0, 14991.717337574642, -16079.822609403445, 10629.014447809988, 2774.097356092615, -19644.23294594681, -32454.80000433922, 0.056, -0.004, 1.034, 192.0, 0.0, 0.0, 0.0, 0.0, 0.0, 0.0, 0.0, 0.0, 0.0, 1.747688755030356E9, 0.0, 2025-05-19 23:05:55.030
24.0, 24272.452208096052, 21445.604735088913, 49113.0410567571, 32729.100612294747, 38826.52238923578, 2852.6860895974746, 9896.4360232873, 2322.502711117591, 0.0, 0.0, 15002.803802824475, -16066.70213540818, 10656.39533476774, 2803.512251795799, -19618.997826456765, -32425.318053402672, 0.056, -0.004, 1.034, 192.0, 0.0, 0.0, 0.0, 0.0, 0.0, 0.0, 0.0, 0.0, 0.0, 1.747688755039393E9, 0.0, 2025-05-19 23:05:55.039
26.0, 24268.026562693904, 21435.881726250856, 49107.609582854464, 32703.060830004317, 38801.42138021247, 2873.0708805407144, 9881.303892291056, 2315.976001736641, 0.0, 0.0, 14976.719317045132, -16087.645719962804, 10631.048456555422, 2766.296597277713, -19661.332030455116, -32453.36949269408, 0.056, -0.004, 1.034, 192.0, 0.0, 0.0, 0.0, 0.0, 0.0, 0.0, 0.0, 0.0, 0.0, 1.747688755047419E9, 0.0, 2025-05-19 23:05:55.047
28.0, 24271.111103428735, 21440.86616526439, 49122.00410628368, 32731.939283840573, 38837.47474401889, 2851.344984930156, 9899.095880877481, 2323.6202983403564, 0.0, 0.0, 14997.39468066629, -16067.216225530652, 10638.91627060369, 2791.866992934584, -19625.6809980489, -32440.22666695436, 0.056, -0.004, 1.034, 192.0, 0.0, 0.0, 0.0, 0.0, 0.0, 0.0, 0.0, 0.0, 0.0, 1.747688755055466E9, 0.0, 2025-05-19 23:05:55.055
30.0, 24248.80406246234, 21423.588266800438, 49099.38414089491, 32704.401934671634, 38808.19395878243, 2838.4033248905334, 9866.752906650652, 2314.8807662583313, 0.0, 0.0, 14983.357785148357, -16082.28130129353, 10646.940546863145, 2789.765928955785, -19638.60030634407, -32430.637768583034, 0.06, -0.008, 1.03, 192.0, 0.5, 112.0, 127.5, 96.0, 16.0, 24.0, 0.0, 0.0, 0.0, 1.747688755062434E9, 0.0, 2025-05-19 23:05:55.062
32.0, 24267.244251637967, 21437.20047917372, 49114.315106191054, 32711.263920219415, 38833.317319550195, 2837.2633859233124, 9910.003532171671, 2331.5104641330795, 0.0, 0.0, 14972.53954083199, -16092.227827576142, 10614.15053774721, 2763.614387943076, -19656.168777485942, -32463.18190850996, 0.06, -0.008, 1.03, 192.0, 0.0, 0.0, 0.0, 0.0, 0.0, 0.0, 0.0, 0.0, 0.0, 1.747688755072451E9, 0.0, 2025-05-19 23:05:55.072
34.0, 24268.272431882913, 21439.212136174698, 49115.097417246994, 32732.4757257075, 38836.55832249622, 2905.950296634471, 9889.551685995066, 2327.7777228090436, 0.0, 0.0, 14991.516171874544, -16071.507760466071, 10648.371058508284, 2804.831004718662, -19617.27674213371, -32422.07705045665, 0.06, -0.008, 1.03, 192.0, 0.0, 0.0, 0.0, 0.0, 0.0, 0.0, 0.0, 0.0, 0.0, 1.747688755079528E9, 0.0, 2025-05-19 23:05:55.079
36.0, 24259.3764375897, 21428.237429647143, 49105.240297942204, 32701.65267010363, 38817.179360053466, 2832.122484698592, 9869.636281685387, 2318.300583159993, 0.0, 0.0, 14978.90978800175, -16084.605882716882, 10630.668476899682, 2772.733899680841, -19651.206690216863, -32445.926361790465, 0.06, -0.008, 1.03, 192.0, 0.0, 0.0, 0.0, 0.0, 0.0, 0.0, 0.0, 0.0, 0.0, 1.747688755086558E9, 0.0, 2025-05-19 23:05:55.086
38.0, 24262.013943435424, 21434.85354600591, 49099.04886472808, 32721.210446502027, 38804.39416222503, 2824.0758566946815, 9940.960698242272, 2331.7786850665434, 0.0, 0.0, 14988.5880933509, -16073.809990144968, 10628.947392576623, 2782.83688817464, -19639.047341233178, -32449.167364736484, 0.06, -0.008, 1.03, 192.0, 0.0, 0.0, 0.0, 0.0, 0.0, 0.0, 0.0, 0.0, 0.0, 1.747688755095594E9, 0.0, 2025-05-19 23:05:55.095
40.0, 24260.225803879002, 21431.925467482266, 49115.522100391645, 32718.036498789374, 38825.53891247975, 2874.2778747413013, 9858.885092602384, 2322.502711117591, 0.0, 0.0, 14976.138171689294, -16083.33183328293, 10640.39148573774, 2786.83785043214, -19649.30679193816, -32434.07993722915, 0.058, -0.01, 1.03, 192.0, 0.5, 104.0, 127.5, 88.0, 16.0, 24.0, 0.0, 0.0, 0.0, 1.747688755103625E9, 0.0, 2025-05-19 23:05:55.103
