%OpenBCI Raw EXG Data
%Number of channels = 16
%Sample Rate = 125 Hz
%Board = OpenBCI_GUI$BoardCytonSerialDaisy
Sample Index, EXG Channel 0, EXG Channel 1, EXG Channel 2, EXG Channel 3, EXG Channel 4, EXG Channel 5, EXG Channel 6, EXG Channel 7, EXG Channel 8, EXG Channel 9, EXG Channel 10, EXG Channel 11, EXG Channel 12, EXG Channel 13, EXG Channel 14, EXG Channel 15, Accel Channel 0, Accel Channel 1, Accel Channel 2, Not Used, Digital Channel 0 (D11), Digital Channel 1 (D12), Digital Channel 2 (D13), Digital Channel 3 (D17), Not Used, Digital Channel 4 (D18), Analog Channel 0, Analog Channel 1, Analog Channel 2, Timestamp, Marker Channel, Timestamp (Formatted)
190.0, 23720.699396216798, 20201.640749173253, 48879.73354813261, 33139.18806781627, 48475.45754616947, 9849.184435508781, 10597.364377661273, 4018.5083768973805, 0.0, 0.0, 12017.28129592911, -20052.77813110091, 12566.888340340656, 3584.5269065531384, -17298.260903151146, -33137.44463174875, 0.0, 0.0, 0.0, 192.0, 0.0, 0.0, 0.0, 0.0, 0.0, 0.0, 0.0, 0.0, 0.0, 1.747689988480808E9, 0.0, 2025-05-19 23:26:28.480
192.0, 23713.7480036912, 20185.212216998603, 48874.749109119075, 33115.1152390379, 48457.15146746057, 9830.073693999493, 10587.842534523314, 4009.254754692883, 0.0, 0.0, 12008.720577802727, -20060.377724215716, 12571.895131098645, 3583.655188519381, -17308.252132922666, -33124.97235834269, 0.0, 0.0, 0.0, 192.0, 0.0, 0.0, 0.0, 0.0, 0.0, 0.0, 0.0, 0.0, 0.0, 1.747689988481475E9, 0.0, 2025-05-19 23:26:28.481
0.0, 12081.833133916038, 10202.498460113819, 24506.698489987673, 16885.066555150337, 24308.036185268902, 3374.576970884439, 4863.426669052443, 2091.9444670610987, 0.0, 0.0, 6000.862240894108, -10033.876899942983, 6274.380537793701, 1784.362111611618, -8654.371935650342, -16574.220845010383, 0.06, -0.008, 1.032, 192.0, 0.5, 112.0, 127.5, 96.0, 16.0, 32.0, 0.0, 0.0, 0.0, 1.747689988571424E9, 0.0, 2025-05-19 23:26:28.571
2.0, 24166.728456822453, 20411.121298208393, 49015.76626488761, 33785.98049711949, 48622.040286307376, 6763.4590582202745, 9747.439294748223, 4199.602210474278, 0.0, 0.0, 11470.021184685373, -20995.48530524794, 14287.726794210292, 4594.177555343814, -13812.953390235114, -32267.76060673721, 0.06, -0.008, 1.032, 192.0, 0.0, 0.0, 0.0, 0.0, 0.0, 0.0, 0.0, 0.0, 0.0, 1.74768998857843E9, 0.0, 2025-05-19 23:26:28.578
4.0, 24164.44857888801, 20411.03189123057, 49020.39307598986, 33798.43041878109, 48616.89938508265, 6801.009988905191, 9718.851413589886, 4193.120204582239, 0.0, 0.0, 11480.861780746196, -20984.309433020288, 14321.209707404341, 4619.166805644847, -13797.06129992739, -32241.6090657245, 0.06, -0.008, 1.032, 192.0, 0.0, 0.0, 0.0, 0.0, 0.0, 0.0, 0.0, 0.0, 0.0, 1.747689988585522E9, 0.0, 2025-05-19 23:26:28.585
6.0, 24167.26489868938, 20417.022158744592, 49022.807064391025, 33784.92996513009, 48609.41155069012, 6771.013947846169, 9735.861091120374, 4196.87529765073, 0.0, 0.0, 11475.542065565833, -20984.622357442662, 14300.668454249913, 4592.389415787389, -13819.480099616063, -32263.737292735255, 0.06, -0.008, 1.032, 192.0, 0.0, 0.0, 0.0, 0.0, 0.0, 0.0, 0.0, 0.0, 0.0, 1.747689988593511E9, 0.0, 2025-05-19 23:26:28.593
8.0, 24169.29890743481, 20422.00659775813, 49029.0208493496, 33815.84242771178, 48620.36390547323, 6794.125651612956, 9738.900928366296, 4206.6430099777, 0.0, 0.0, 11490.98712098445, -20970.697220647005, 14322.081425438098, 4623.6595062803635, -13788.902913201204, -32239.351539534517, 0.056, -0.002, 1.028, 192.0, 0.5, 96.0, 127.5, 120.0, 16.0, 16.0, 0.0, 0.0, 0.0, 1.747689988601546E9, 0.0, 2025-05-19 23:26:28.601
10.0, 24168.091913234224, 20415.144612210348, 49018.13554979987, 33787.83569190928, 48612.160815258125, 6781.29575029561, 9699.718320336142, 4192.270838292938, 0.0, 0.0, 11481.37587086867, -20977.4027439836, 14319.823899248113, 4614.29412535359, -13804.169154664178, -32241.117327346485, 0.056, -0.002, 1.028, 192.0, 0.0, 0.0, 0.0, 0.0, 0.0, 0.0, 0.0, 0.0, 0.0, 1.747689988608579E9, 0.0, 2025-05-19 23:26:28.608
12.0, 24171.77995106935, 20422.5206878806, 49013.03935206406, 33793.80360767885, 48615.13359727068, 6773.897322880903, 9749.719172682664, 4207.112396611261, 0.0, 0.0, 11477.55372256681, -20979.39204924012, 14300.579047272093, 4601.91125892535, -13806.605494809806, -32259.57986826657, 0.056, -0.002, 1.028, 192.0, 0.0, 0.0, 0.0, 0.0, 0.0, 0.0, 0.0, 0.0, 0.0, 1.7476899886176E9, 0.0, 2025-05-19 23:26:28.617
14.0, 24165.610869599685, 20415.256370932624, 49018.58258468898, 33791.14375008867, 48611.51261466892, 6801.278209838654, 9719.656076390276, 4199.311637796359, 0.0, 0.0, 11469.574149796266, -20988.422154000065, 14315.197088145864, 4617.691590510797, -13800.838744740338, -32241.966693635786, 0.056, -0.002, 1.028, 192.0, 0.0, 0.0, 0.0, 0.0, 0.0, 0.0, 0.0, 0.0, 0.0, 1.747689988627648E9, 0.0, 2025-05-19 23:26:28.627
16.0, 24176.362058682687, 20417.64800758934, 49024.39403824735, 33782.98536336248, 48619.26866999491, 6756.440610461308, 9724.148777025794, 4197.143518584195, 0.0, 0.0, 11479.051289445317, -20985.4046684986, 14301.607227517037, 4597.3067995675565, -13810.248829156022, -32263.223202612786, 0.056, -0.002, 1.028, 192.0, 0.0, 0.0, 0.0, 0.0, 0.0, 0.0, 0.0, 0.0, 0.0, 1.747689988633666E9, 0.0, 2025-05-19 23:26:28.633
18.0, 24167.64487834512, 20414.496411621145, 49011.497081696645, 33798.318660058816, 48611.91494606912, 6793.991541146224, 9705.127442494326, 4191.175602814627, 0.0, 0.0, 11480.548856323821, -20979.25793877339, 14315.197088145864, 4605.822814205028, -13805.130279675757, -32256.450624042827, 0.06, -0.004, 1.03, 192.0, 0.5, 112.0, 127.5, 112.0, 16.0, 24.0, 0.0, 0.0, 0.0, 1.747689988641692E9, 0.0, 2025-05-19 23:26:28.641
20.0, 24156.603116584196, 20398.33610037996, 49007.63022990587, 33770.53544170087, 48617.30171648285, 6773.2044188027885, 9720.30427697948, 4177.004596829963, 0.0, 0.0, 11466.400202083612, -20994.121848836166, 14305.78700373018, 4593.439947776788, -13822.877564773271, -32261.971504923287, 0.06, -0.004, 1.03, 192.0, 0.0, 0.0, 0.0, 0.0, 0.0, 0.0, 0.0, 0.0, 0.0, 1.747689988649714E9, 0.0, 2025-05-19 23:26:28.649
22.0, 24168.136616723135, 20414.56346685451, 49019.07432306699, 33790.003811121445, 48623.26963225241, 6778.5464857276065, 9750.79205641652, 4204.340780298803, 0.0, 0.0, 11470.043536429828, -20992.57957846875, 14289.872561678001, 4591.540049498088, -13812.30518964591, -32271.62745852798, 0.06, -0.004, 1.03, 192.0, 0.0, 0.0, 0.0, 0.0, 0.0, 0.0, 0.0, 0.0, 0.0, 1.747689988657744E9, 0.0, 2025-05-19 23:26:28.657
24.0, 24168.49424463442, 20417.960932011716, 49015.16276778731, 33795.994078635464, 48615.178300759595, 6799.1547941154, 9727.702704394187, 4198.954009885074, 0.0, 0.0, 11476.74905976642, -20984.376488253652, 14319.801547503657, 4618.831529478018, -13798.424756339164, -32240.692644201834, 0.06, -0.004, 1.03, 192.0, 0.0, 0.0, 0.0, 0.0, 0.0, 0.0, 0.0, 0.0, 0.0, 1.747689988664835E9, 0.0, 2025-05-19 23:26:28.664
26.0, 24173.679849348053, 20425.4711181487, 49018.02379107759, 33784.01354360742, 48605.76821634391, 6768.443497233809, 9737.336306254425, 4212.700332725088, 0.0, 0.0, 11476.145562666126, -20985.58348245424, 14301.54017228367, 4594.423424532822, -13818.250753671022, -32259.982199666763, 0.06, -0.004, 1.03, 192.0, 0.0, 0.0, 0.0, 0.0, 0.0, 0.0, 0.0, 0.0, 0.0, 1.7476899886738E9, 0.0, 2025-05-19 23:26:28.673
28.0, 24177.949032539014, 20428.868583305906, 49025.57868070349, 33815.06011665584, 48612.85371933624, 6806.352055830009, 9736.710457409676, 4213.5944025033, 0.0, 0.0, 11484.907446492607, -20970.786627624828, 14323.02019870522, 4614.763511987151, -13802.224552896567, -32245.18534483735, 0.062, 0.0, 1.032, 192.0, 0.5, 120.0, 0.0, 0.0, 16.0, 32.0, 0.0, 0.0, 0.0, 1.747689988680819E9, 0.0, 2025-05-19 23:26:28.680
30.0, 24181.79353258533, 20426.745167582652, 49033.33473602948, 33801.179683349095, 48605.23177447698, 6792.292808567621, 9719.901945579284, 4215.226079848538, 0.0, 0.0, 11485.935626737552, -20965.62337465565, 14333.12318719902, 4616.596355032487, -13803.744471519527, -32237.42928951136, 0.062, 0.0, 1.032, 192.0, 0.0, 0.0, 0.0, 0.0, 0.0, 0.0, 0.0, 0.0, 0.0, 1.74768998868887E9, 0.0, 2025-05-19 23:26:28.688
32.0, 24189.348422211224, 20439.32919971099, 49035.59226221946, 33814.36721257773, 48616.89938508265, 6795.712625469283, 9757.318765797469, 4222.378638074236, 0.0, 0.0, 11496.709167565008, -20958.157892007577, 14325.50124233976, 4616.194023632291, -13794.826125481859, -32244.872420414977, 0.062, 0.0, 1.032, 192.0, 0.0, 0.0, 0.0, 0.0, 0.0, 0.0, 0.0, 0.0, 0.0, 1.747689988696904E9, 0.0, 2025-05-19 23:26:28.696
34.0, 24175.3562301822, 20426.454594904735, 49024.99753534765, 33812.46731429903, 48605.92467855509, 6811.582364032551, 9725.981620071128, 4205.525422754935, 0.0, 0.0, 11491.814135529297, -20959.85662458618, 14342.689733825891, 4635.4612273527655, -13788.031195167447, -32220.620777680968, 0.062, 0.0, 1.032, 192.0, 0.0, 0.0, 0.0, 0.0, 0.0, 0.0, 0.0, 0.0, 0.0, 1.747689988705938E9, 0.0, 2025-05-19 23:26:28.705
36.0, 24176.965555782983, 20426.253429204637, 49032.35125927344, 33795.83761642428, 48611.98200130249, 6767.638834433417, 9738.811521388474, 4210.219289090549, 0.0, 0.0, 11482.739327280442, -20973.692354404015, 14309.810317732135, 4605.644000249386, -13806.896067487725, -32249.923914661875, 0.062, 0.0, 1.032, 192.0, 0.0, 0.0, 0.0, 0.0, 0.0, 0.0, 0.0, 0.0, 0.0, 1.747689988712963E9, 0.0, 2025-05-19 23:26:28.712
38.0, 24173.366924925678, 20420.79960355754, 49032.239500551164, 33813.24962535496, 48613.72543737, 6794.975017902258, 9735.101131808893, 4211.672152480144, 0.0, 0.0, 11494.98808324195, -20965.310450233275, 14327.579954574103, 4631.460265095266, -13783.091459642823, -32231.595484208523, 0.058, -0.004, 1.032, 192.0, 0.5, 104.0, 127.5, 112.0, 16.0, 32.0, 0.0, 0.0, 0.0, 1.747689988720999E9, 0.0, 2025-05-19 23:26:28.720
40.0, 24167.086084733735, 20410.875429019383, 49022.069456824, 33783.52180522941, 48603.153062242636, 6773.964378114269, 9707.29556170649, 4191.7567481704655, 0.0, 0.0, 11480.459449346, -20982.9012731196, 14318.818070747624, 4610.29316309609, -13807.790137265938, -32246.81702218259, 0.058, -0.004, 1.032, 192.0, 0.0, 0.0, 0.0, 0.0, 0.0, 0.0, 0.0, 0.0, 0.0, 1.747689988728955E9, 0.0, 2025-05-19 23:26:28.728
42.0, 24171.824654558262, 20415.882219777373, 49025.6233841924, 33796.95520364704, 48605.947030299554, 6764.487238465219, 9744.332402268936, 4208.766425700954, 0.0, 0.0, 11481.018242957383, -20983.594177197716, 14300.690805994369, 4603.76645371514, -13803.990340708535, -32260.250420600227, 0.058, -0.004, 1.032, 192.0, 0.0, 0.0, 0.0, 0.0, 0.0, 0.0, 0.0, 0.0, 0.0, 1.747689988737132E9, 0.0, 2025-05-19 23:26:28.737
44.0, 24176.384410427145, 20416.642179088853, 49024.25992778062, 33800.50913101544, 48616.228832748995, 6794.460927779785, 9724.886384592817, 4194.506012738468, 0.0, 0.0, 11482.873437747174, -20977.469799216964, 14327.512899340738, 4625.5370528146095, -13793.261503369988, -32236.423461010872, 0.058, -0.004, 1.032, 192.0, 0.0, 0.0, 0.0, 0.0, 0.0, 0.0, 0.0, 0.0, 0.0, 1.74768998874502E9, 0.0, 2025-05-19 23:26:28.745
46.0, 24169.388314412634, 20415.43518488827, 49024.46109348072, 33785.868738397214, 48611.80318734684, 6762.76615414216, 9744.846492391407, 4201.747977941987, 0.0, 0.0, 11479.632434801155, -20984.756467909392, 14304.624713018504, 4595.965694900238, -13813.243962913033, -32262.91027819041, 0.058, -0.004, 1.032, 192.0, 0.0, 0.0, 0.0, 0.0, 0.0, 0.0, 0.0, 0.0, 0.0, 1.747689988753095E9, 0.0, 2025-05-19 23:26:28.753
48.0, 24163.710971320987, 20411.88125751987, 49022.2706225241, 33804.08541012829, 48602.52721339789, 6814.599849534017, 9738.096265565904, 4204.094911109795, 0.0, 0.0, 11481.17470516857, -20979.61556668467, 14316.73935851328, 4614.629401520419, -13800.123488917767, -32247.331112305063, 0.056, -0.01, 1.03, 192.0, 0.5, 96.0, 127.5, 88.0, 16.0, 24.0, 0.0, 0.0, 0.0, 1.74768998876208E9, 0.0, 2025-05-19 23:26:28.762
50.0, 24173.188110970033, 20417.133917466872, 49036.19575931976, 33793.155407089645, 48614.64185889267, 6788.425956776853, 9713.576401898432, 4194.058977849362, 0.0, 0.0, 11486.22619941547, -20980.39787774061, 14324.294248139173, 4612.170709630336, -13803.878581986259, -32246.52644950467, 0.056, -0.01, 1.03, 192.0, 0.0, 0.0, 0.0, 0.0, 0.0, 0.0, 0.0, 0.0, 0.0, 1.747689988768094E9, 0.0, 2025-05-19 23:26:28.768
52.0, 24178.954861039503, 20422.43128090278, 49037.17923607579, 33806.34293631827, 48623.09081829677, 6770.81278214607, 9735.59287018691, 4198.372864529236, 0.0, 0.0, 11494.898676264129, -20968.842025857215, 14317.275800380206, 4611.813081719051, -13792.747413247516, -32253.321379819085, 0.056, -0.01, 1.03, 192.0, 0.0, 0.0, 0.0, 0.0, 0.0, 0.0, 0.0, 0.0, 0.0, 1.747689988777131E9, 0.0, 2025-05-19 23:26:28.777
54.0, 24176.74203833843, 20422.900667536338, 49038.78856167657, 33815.59655852277, 48610.93146931309, 6814.577497789562, 9706.714416350653, 4202.7314546980215, 0.0, 0.0, 11501.067757733794, -20959.47664493044, 14347.27184143923, 4636.48940759771, -13780.833933452837, -32223.414745737882, 0.056, -0.01, 1.03, 192.0, 0.0, 0.0, 0.0, 0.0, 0.0, 0.0, 0.0, 0.0, 0.0, 1.747689988785172E9, 0.0, 2025-05-19 23:26:28.785
56.0, 24173.813959814783, 20419.88318203487, 49033.46884649621, 33794.317697801314, 48608.29396346736, 6781.698081695805, 9730.764893384563, 4208.319390811848, 0.0, 0.0, 11487.634359316155, -20971.099552047202, 14315.577067801603, 4601.754796714163, -13807.611323310295, -32252.784937952154, 0.056, -0.01, 1.03, 192.0, 0.0, 0.0, 0.0, 0.0, 0.0, 0.0, 0.0, 0.0, 0.0, 1.747689988793194E9, 0.0, 2025-05-19 23:26:28.793
58.0, 24171.019991757872, 20416.642179088853, 49034.09469534096, 33814.27780559991, 48608.94216405656, 6799.691235982327, 9753.36250702888, 4208.989943145507, 0.0, 0.0, 11490.830658773262, -20966.271575244853, 14326.59647781807, 4631.907299984372, -13779.515180529974, -32232.646016197923, 0.054, -0.006, 1.028, 192.0, 0.5, 88.0, 127.5, 104.0, 16.0, 16.0, 0.0, 0.0, 0.0, 1.747689988802229E9, 0.0, 2025-05-19 23:26:28.802
60.0, 24170.93058478005, 20410.94248425275, 49034.497026741155, 33791.43432276658, 48602.25899246443, 6783.955607885791, 9721.198346757692, 4196.249448805982, 0.0, 0.0, 11489.13192619466, -20976.10634280519, 14326.261201651241, 4623.4806923247215, -13790.668701013174, -32236.66933019988, 0.054, -0.006, 1.028, 192.0, 0.0, 0.0, 0.0, 0.0, 0.0, 0.0, 0.0, 0.0, 0.0, 1.74768998881025E9, 0.0, 2025-05-19 23:26:28.810
62.0, 24168.941279523526, 20411.814202286507, 49032.395962762355, 33801.15733160464, 48607.75752160043, 6771.818610646559, 9737.805692887985, 4211.40393154668, 0.0, 0.0, 11492.75290879642, -20976.083991060736, 14309.050358420654, 4613.489462553199, -13792.836820225337, -32252.00262689622, 0.054, -0.006, 1.028, 192.0, 0.0, 0.0, 0.0, 0.0, 0.0, 0.0, 0.0, 0.0, 0.0, 1.747689988817325E9, 0.0, 2025-05-19 23:26:28.817
64.0, 24148.891764747117, 20394.446896844733, 49015.14041604286, 33793.69184895657, 48587.14921321264, 6792.628084734451, 9716.750349611086, 4195.958876128063, 0.0, 0.0, 11480.280635390358, -20985.024688842856, 14319.890954481478, 4625.224128392235, -13793.373262092266, -32237.071661600075, 0.054, -0.006, 1.028, 192.0, 0.0, 0.0, 0.0, 0.0, 0.0, 0.0, 0.0, 0.0, 0.0, 1.747689988825278E9, 0.0, 2025-05-19 23:26:28.825
66.0, 24159.285325918834, 20404.147553938335, 49028.32794527149, 33787.343953531265, 48608.22690823399, 6753.579587171029, 9735.190538786715, 4209.6604954791665, 0.0, 0.0, 11470.199998641016, -20989.49503773392, 14291.817163445612, 4597.172689100825, -13815.12150944728, -32261.546821778637, 0.054, -0.006, 1.028, 192.0, 0.0, 0.0, 0.0, 0.0, 0.0, 0.0, 0.0, 0.0, 0.0, 1.747689988834331E9, 0.0, 2025-05-19 23:26:28.834
68.0, 24169.097741734713, 20416.195144199748, 49046.857541424935, 33823.37496559322, 48619.358076972734, 6791.130517855945, 9742.11957956786, 4216.366018815758, 0.0, 0.0, 11496.105670464716, -20968.886729346126, 14324.584820817092, 4638.858692509973, -13770.753296703495, -32230.075565585565, 0.052000000000000005, -0.006, 1.03, 192.0, 0.5, 80.0, 127.5, 104.0, 16.0, 24.0, 0.0, 0.0, 0.0, 1.747689988840352E9, 0.0, 2025-05-19 23:26:28.840
70.0, 24164.381523654643, 20411.27776041958, 49038.00625062064, 33800.486779270985, 48608.38337044518, 6786.034320120135, 9722.852375847386, 4194.841288905298, 0.0, 0.0, 11495.680987320065, -20965.91394733357, 14334.30782965515, 4629.090980183003, -13784.834895710337, -32232.71307143129, 0.052000000000000005, -0.006, 1.03, 192.0, 0.0, 0.0, 0.0, 0.0, 0.0, 0.0, 0.0, 0.0, 0.0, 1.747689988849384E9, 0.0, 2025-05-19 23:26:28.849
72.0, 24177.010259271894, 20425.448766404246, 49046.41050653583, 33815.39539282267, 48620.25214675095, 6792.136346356434, 9746.902852881296, 4200.496280252491, 0.0, 0.0, 11502.65473159012, -20957.777912351838, 14325.59064931758, 4620.530262056621, -13785.594855021818, -32249.14160360594, 0.052000000000000005, -0.006, 1.03, 192.0, 0.0, 0.0, 0.0, 0.0, 0.0, 0.0, 0.0, 0.0, 0.0, 1.747689988857414E9, 0.0, 2025-05-19 23:26:28.857
74.0, 24172.852834803205, 20419.816126801506, 49040.308480299536, 33816.982366678996, 48610.909117568626, 6797.478413281252, 9709.284866963013, 4186.1241085677275, 0.0, 0.0, 11500.553667611322, -20956.77208385135, 14347.450655394872, 4637.472884353743, -13782.286796842433, -32227.52746671766, 0.052000000000000005, -0.006, 1.03, 192.0, 0.0, 0.0, 0.0, 0.0, 0.0, 0.0, 0.0, 0.0, 0.0, 1.747689988865461E9, 0.0, 2025-05-19 23:26:28.865
76.0, 24181.21238722949, 20426.85692630493, 49049.91973041531, 33805.225349095504, 48614.48539668148, 6781.1839915733335, 9741.73959991212, 4211.1804141021275, 0.0, 0.0, 11498.497307121434, -20963.254089743386, 14325.59064931758, 4615.657581765364, -13796.994244694024, -32248.538106505646, 0.052000000000000005, -0.006, 1.03, 192.0, 0.0, 0.0, 0.0, 0.0, 0.0, 0.0, 0.0, 0.0, 0.0, 1.747689988872525E9, 0.0, 2025-05-19 23:26:28.872
78.0, 24184.654555875608, 20430.075577506494, 49046.70107921375, 33827.01829993943, 48624.52132994191, 6789.945875399813, 9737.202195787691, 4217.885937438719, 0.0, 0.0, 11511.70718809452, -20953.28521171632, 14344.8355012936, 4643.463151867766, -13768.026383879947, -32226.834562639546, 0.05, -0.01, 1.03, 192.0, 0.5, 72.0, 127.5, 88.0, 16.0, 24.0, 0.0, 0.0, 0.0, 1.747689988881541E9, 0.0, 2025-05-19 23:26:28.881
80.0, 24168.27072718987, 20413.93761800976, 49026.76332315962, 33792.59661347826, 48601.409626175126, 6765.202494287789, 9736.531643454033, 4207.984114645018, 0.0, 0.0, 11491.724728551475, -20967.970307823456, 14333.59257383258, 4625.58175630352, -13793.194448136623, -32234.05417609861, 0.05, -0.01, 1.03, 192.0, 0.0, 0.0, 0.0, 0.0, 0.0, 0.0, 0.0, 0.0, 0.0, 1.747689988889518E9, 0.0, 2025-05-19 23:26:28.889
82.0, 24173.03164875885, 20419.65966459032, 49031.36778251741, 33809.31571833083, 48607.95868730053, 6772.153886813389, 9756.447047763711, 4223.496225297002, 0.0, 0.0, 11484.862743003696, -20971.032496813834, 14312.425471833405, 4615.478767809721, -13796.278988871454, -32248.448699527828, 0.05, -0.01, 1.03, 192.0, 0.0, 0.0, 0.0, 0.0, 0.0, 0.0, 0.0, 0.0, 0.0, 1.747689988896537E9, 0.0, 2025-05-19 23:26:28.896
84.0, 24160.02293348586, 20406.80741152852, 49031.054858095034, 33810.56741602033, 48601.99077153096, 6796.293770825121, 9707.519079151045, 4208.095873367295, 0.0, 0.0, 11487.969635482983, -20964.796360110806, 14338.577012846115, 4637.58464307602, -13782.3538520758, -32220.218446280775, 0.05, -0.01, 1.03, 192.0, 0.0, 0.0, 0.0, 0.0, 0.0, 0.0, 0.0, 0.0, 0.0, 1.747689988904579E9, 0.0, 2025-05-19 23:26:28.904
86.0, 24160.15704395259, 20407.3662051399, 49031.45718949523, 33794.20593907904, 48598.10156799574, 6763.906093109381, 9749.339193026924, 4218.154158372183, 0.0, 0.0, 11481.107649935204, -20978.34151725072, 14305.764651985724, 4607.588602016998, -13807.521916332475, -32249.208658839307, 0.05, -0.01, 1.03, 192.0, 0.0, 0.0, 0.0, 0.0, 0.0, 0.0, 0.0, 0.0, 0.0, 1.747689988913609E9, 0.0, 2025-05-19 23:26:28.913
88.0, 24155.820805528263, 20403.924036493783, 49028.93144237178, 33814.188398622086, 48603.30952445383, 6796.2043638473, 9738.856224877385, 4210.8898414242085, 0.0, 0.0, 11483.588693569744, -20973.312374748275, 14317.521669569216, 4630.767361017151, -13786.198352122112, -32233.540085976136, 0.052000000000000005, -0.008, 1.03, 192.0, 0.5, 80.0, 127.5, 96.0, 16.0, 24.0, 0.0, 0.0, 0.0, 1.747689988920646E9, 0.0, 2025-05-19 23:26:28.920
90.0, 24155.463177616977, 20404.192257427247, 49023.49996846914, 33788.08156109829, 48603.55539364283, 6783.396814274409, 9704.792166327497, 4184.000692844474, 0.0, 0.0, 11475.720879521476, -20982.92362486406, 14314.50418406775, 4616.574003288031, -13800.592875551329, -32241.921990146875, 0.052000000000000005, -0.008, 1.03, 192.0, 0.0, 0.0, 0.0, 0.0, 0.0, 0.0, 0.0, 0.0, 0.0, 1.747689988928675E9, 0.0, 2025-05-19 23:26:28.928
92.0, 24165.16383471058, 20414.42935638778, 49031.27837553959, 33802.11845661622, 48606.59523088876, 6772.243293791211, 9734.251765519592, 4196.383559272714, 0.0, 0.0, 11484.147487181126, -20975.167569538065, 14306.457556063839, 4608.259154350657, -13798.49181157253, -32258.19406011034, 0.052000000000000005, -0.008, 1.03, 192.0, 0.0, 0.0, 0.0, 0.0, 0.0, 0.0, 0.0, 0.0, 0.0, 1.747689988937722E9, 0.0, 2025-05-19 23:26:28.937
94.0, 24166.01320099988, 20412.216533686704, 49032.48536974018, 33807.77344796341, 48621.16856827361, 6795.690273724827, 9705.932105294718, 4188.426338246624, 0.0, 0.0, 11490.540086095345, -20972.64182241462, 14334.732512799803, 4626.073494681536, -13792.434488825142, -32235.61879821048, 0.052000000000000005, -0.008, 1.03, 192.0, 0.0, 0.0, 0.0, 0.0, 0.0, 0.0, 0.0, 0.0, 0.0, 1.747689988945786E9, 0.0, 2025-05-19 23:26:28.945
96.0, 24167.77898881185, 20413.222362187193, 49033.46884649621, 33792.998944878454, 48615.40181820415, 6763.749630898194, 9720.840718846408, 4191.466175492546, 0.0, 0.0, 11490.584789584254, -20974.139389293123, 14315.062977679132, 4603.76645371514, -13805.890238987236, -32255.221278097782, 0.052000000000000005, -0.008, 1.03, 192.0, 0.0, 0.0, 0.0, 0.0, 0.0, 0.0, 0.0, 0.0, 0.0, 1.747689988952798E9, 0.0, 2025-05-19 23:26:28.952
98.0, 24166.281421933345, 20405.779231283574, 49035.50285524164, 33814.09899164426, 48615.446521693055, 6789.252971321699, 9726.518061938055, 4194.193088316094, 0.0, 0.0, 11493.110536707705, -20973.42413347055, 14324.69657953937, 4622.519567313143, -13789.417003323675, -32242.883115158456, 0.056, -0.008, 1.034, 192.0, 0.5, 96.0, 127.5, 96.0, 16.0, 40.0, 0.0, 0.0, 0.0, 1.747689988960825E9, 0.0, 2025-05-19 23:26:28.960
100.0, 24163.800378298805, 20401.197123670237, 49024.483445225174, 33785.28759304137, 48601.16375698611, 6775.216075803766, 9697.259628446058, 4185.16298355615, 0.0, 0.0, 11493.110536707705, -20977.358040494688, 14329.16692843043, 4616.752817243674, -13801.084613929346, -32242.592542480535, 0.056, -0.008, 1.034, 192.0, 0.0, 0.0, 0.0, 0.0, 0.0, 0.0, 0.0, 0.0, 0.0, 1.747689988969879E9, 0.0, 2025-05-19 23:26:28.969
102.0, 24174.149235981615, 20414.697577321243, 49038.073305854006, 33803.21369209453, 48619.40278046165, 6778.524133983152, 9732.284812007525, 4204.050207620884, 0.0, 0.0, 11487.477897104967, -20984.86822663167, 14305.407024074439, 4602.760625214652, -13804.951465720114, -32264.452548557827, 0.056, -0.008, 1.034, 192.0, 0.0, 0.0, 0.0, 0.0, 0.0, 0.0, 0.0, 0.0, 0.0, 1.74768998897687E9, 0.0, 2025-05-19 23:26:28.976
104.0, 24167.555471367297, 20413.535286609567, 49025.399866747844, 33800.03974438187, 48607.22107973351, 6786.704872453794, 9707.20615472867, 4188.247524290982, 0.0, 0.0, 11492.238818673948, -20976.642784672116, 14335.961858744844, 4632.041410451104, -13784.611378265785, -32233.875362142964, 0.056, -0.008, 1.034, 192.0, 0.0, 0.0, 0.0, 0.0, 0.0, 0.0, 0.0, 0.0, 0.0, 1.747689988984862E9, 0.0, 2025-05-19 23:26:28.984
106.0, 24184.520445408874, 20423.41475765881, 49030.94309937276, 33790.562604732826, 48613.3231059698, 6769.851657134493, 9712.659980375765, 4191.197954559083, 0.0, 0.0, 11480.861780746196, -20983.97415685346, 14307.664550264426, 4598.044407134582, -13813.847460013327, -32265.05604565812, 0.056, -0.008, 1.034, 192.0, 0.0, 0.0, 0.0, 0.0, 0.0, 0.0, 0.0, 0.0, 0.0, 1.747689988992901E9, 0.0, 2025-05-19 23:26:28.992
108.0, 24176.004430771405, 20423.347702425446, 49028.126779571394, 33812.31085208784, 48628.56699568832, 6805.748558729716, 9728.932050339228, 4199.065768607351, 0.0, 0.0, 11494.94337975304, -20970.026668313345, 14328.585783074592, 4627.682820282319, -13785.661910255183, -32242.70430120281, 0.057999999999999996, -0.008, 1.0350000000000001, 192.0, 0.5, 112.0, 127.5, 96.0, 16.0, 48.0, 0.0, 0.0, 0.0, 1.74768998900206E9, 0.0, 2025-05-19 23:26:29.002
110.0, 24171.31056443579, 20409.84724877444, 49025.0198870921, 33792.17193033361, 48599.442672663055, 6770.075174579046, 9687.648378330276, 4178.278646263915, 0.0, 0.0, 11482.716975535986, -20981.29194751882, 14324.45071035036, 4613.400055575377, -13807.253695399011, -32248.113423360996, 0.057999999999999996, -0.008, 1.0350000000000001, 192.0, 0.0, 0.0, 0.0, 0.0, 0.0, 0.0, 0.0, 0.0, 0.0, 1.747689989008961E9, 0.0, 2025-05-19 23:26:29.008
112.0, 24169.097741734713, 20412.194181942246, 49029.400829005346, 33804.64420373967, 48604.114187254214, 6766.945930355303, 9729.088512550416, 4195.333027283315, 0.0, 0.0, 11491.277693662369, -20971.05484855829, 14313.677169522904, 4612.4389305638, -13798.514163316986, -32254.260153086205, 0.057999999999999996, -0.008, 1.0350000000000001, 192.0, 0.0, 0.0, 0.0, 0.0, 0.0, 0.0, 0.0, 0.0, 0.0, 1.747689989017027E9, 0.0, 2025-05-19 23:26:29.017
114.0, 24160.82759628625, 20400.504219592123, 49023.455264980235, 33799.74917170396, 48600.80612907483, 6784.670863708361, 9702.288770948502, 4187.331102768315, 0.0, 0.0, 11486.628530815666, -20978.028592828345, 14328.429320863406, 4628.509834827165, -13794.133221403745, -32236.691681944336, 0.057999999999999996, -0.008, 1.0350000000000001, 192.0, 0.0, 0.0, 0.0, 0.0, 0.0, 0.0, 0.0, 0.0, 0.0, 1.747689989025054E9, 0.0, 2025-05-19 23:26:29.025
116.0, 24172.562262125288, 20408.46144061821, 49022.51649171311, 33781.68896218407, 48601.14140524166, 6768.287035022621, 9702.556991881966, 4188.649855691177, 0.0, 0.0, 11477.732536522453, -20988.757430166894, 14299.908494938434, 4594.266962321635, -13818.988361238047, -32268.475862559782, 0.057999999999999996, -0.008, 1.0350000000000001, 192.0, 0.0, 0.0, 0.0, 0.0, 0.0, 0.0, 0.0, 0.0, 0.0, 1.747689989033064E9, 0.0, 2025-05-19 23:26:29.033
118.0, 24163.800378298805, 20407.768536540098, 49023.41056149132, 33799.145674603664, 48605.164719243614, 6774.411413003375, 9717.957343811673, 4186.325274267826, 0.0, 0.0, 11487.299083149324, -20983.370659753164, 14316.202916646353, 4613.958849186761, -13800.34700636232, -32255.958885664808, 0.063, -0.01, 1.0365000000000002, 192.0, 1.0, 16.0, 127.5, 80.0, 16.0, 56.0, 0.0, 0.0, 0.0, 1.74768998904111E9, 0.0, 2025-05-19 23:26:29.041
120.0, 24163.26393643188, 20403.208780671215, 49017.55440444403, 33771.98830509047, 48595.64287610565, 6749.936252824814, 9692.163430710249, 4175.037643317895, 0.0, 0.0, 11480.437097601545, -20992.53487497984, 14316.225268390808, 4601.553631014065, -13813.467480357585, -32264.318438091093, 0.063, -0.01, 1.0365000000000002, 192.0, 0.0, 0.0, 0.0, 0.0, 0.0, 0.0, 0.0, 0.0, 0.0, 1.747689989049121E9, 0.0, 2025-05-19 23:26:29.049
122.0, 24166.124959722158, 20405.488658605656, 49021.24244227916, 33784.885261641175, 48609.27744022339, 6749.735087124716, 9741.82900688994, 4195.422434261136, 0.0, 0.0, 11481.241760401936, -20991.417287757075, 14298.723852482302, 4597.19504084528, -13809.77944252246, -32274.667295773903, 0.063, -0.01, 1.0365000000000002, 192.0, 0.0, 0.0, 0.0, 0.0, 0.0, 0.0, 0.0, 0.0, 0.0, 1.747689989057212E9, 0.0, 2025-05-19 23:26:29.057
124.0, 24159.330029407745, 20395.09509743394, 49011.05004680753, 33785.08642734127, 48598.325085440294, 6773.137363569423, 9691.381119654312, 4181.363186998748, 0.0, 0.0, 11472.725745764465, -20993.87597964716, 14315.353550357051, 4615.612878276454, -13804.504430831008, -32251.130908862462, 0.063, -0.01, 1.0365000000000002, 192.0, 0.0, 0.0, 0.0, 0.0, 0.0, 0.0, 0.0, 0.0, 0.0, 1.747689989064224E9, 0.0, 2025-05-19 23:26:29.064
126.0, 24165.074427732758, 20403.879333004872, 49020.32602075649, 33774.335238258274, 48588.15504171313, 6756.731183139227, 9715.11867226585, 4189.54392546939, 0.0, 0.0, 11464.70146950501, -21000.40268902811, 14291.034852389677, 4588.522563996621, -13822.45288162862, -32276.544842308147, 0.063, -0.01, 1.0365000000000002, 192.0, 0.0, 0.0, 0.0, 0.0, 0.0, 0.0, 0.0, 0.0, 0.0, 1.747689989073213E9, 0.0, 2025-05-19 23:26:29.073
128.0, 24159.19591894101, 20405.063975461006, 49025.15399755884, 33803.86189268374, 48590.90430628113, 6772.511514724674, 9751.50731223909, 4204.45253902108, 0.0, 0.0, 11483.65574880311, -20984.085915575735, 14316.001750946254, 4619.636192278408, -13792.21097138059, -32250.415653039894, 0.0625, -0.008, 1.0362500000000001, 192.0, 0.5, 120.0, 127.5, 104.0, 16.0, 48.0, 0.0, 0.0, 0.0, 1.74768998908142E9, 0.0, 2025-05-19 23:26:29.081
130.0, 24162.593384098218, 20403.052318460028, 49022.98587834667, 33782.20305230654, 48600.359094185726, 6753.020793559646, 9716.280962977526, 4194.014274360451, 0.0, 0.0, 11476.100859177215, -20991.618453457173, 14313.096024167065, 4605.800462460574, -13809.488869844541, -32257.23293509876, 0.0625, -0.008, 1.0362500000000001, 192.0, 0.0, 0.0, 0.0, 0.0, 0.0, 0.0, 0.0, 0.0, 0.0, 1.747689989089319E9, 0.0, 2025-05-19 23:26:29.089
132.0, 24178.48547440594, 20430.36615018441, 49027.210358048724, 33800.08444787079, 48606.23760297747, 6776.1995525597995, 9747.729867426142, 4204.363132043259, 0.0, 0.0, 11483.499286591923, -20978.319165506266, 14306.032872919188, 4608.192099117291, -13797.597741794318, -32260.116310133497, 0.0625, -0.008, 1.0362500000000001, 192.0, 0.0, 0.0, 0.0, 0.0, 0.0, 0.0, 0.0, 0.0, 0.0, 1.747689989096337E9, 0.0, 2025-05-19 23:26:29.096
134.0, 24163.532157365342, 20408.729661551675, 49010.290087496054, 33786.60634596424, 48591.15017547014, 6779.261741550177, 9699.740672080598, 4182.972512599529, 0.0, 0.0, 11475.69852777702, -20982.521293463862, 14323.064902194132, 4619.815006234051, -13798.78238425045, -32246.034711126653, 0.0625, -0.008, 1.0362500000000001, 192.0, 0.0, 0.0, 0.0, 0.0, 0.0, 0.0, 0.0, 0.0, 0.0, 1.747689989105347E9, 0.0, 2025-05-19 23:26:29.105
136.0, 24166.370828911167, 20401.08536494796, 49016.97325908819, 33771.42951147908, 48601.16375698611, 6743.2083777437665, 9729.110864294871, 4184.961817856052, 0.0, 0.0, 11468.41185908459, -20997.653424460106, 14293.672358235402, 4585.616837217431, -13824.732759563061, -32278.6682580314, 0.0625, -0.008, 1.0362500000000001, 192.0, 0.0, 0.0, 0.0, 0.0, 0.0, 0.0, 0.0, 0.0, 0.0, 1.747689989113393E9, 0.0, 2025-05-19 23:26:29.113
138.0, 24173.612794114684, 20406.13685919486, 49025.37751500339, 33798.58688099228, 48620.65447815114, 6766.633005932928, 9728.082684049927, 4194.237791805004, 0.0, 0.0, 11484.482763347956, -20986.58931095473, 14315.264143379229, 4611.544860785587, -13798.581218550351, -32259.021074655186, 0.06325, -0.006, 1.038125, 192.0, 1.0, 0.0, 127.5, 112.0, 16.0, 64.0, 0.0, 0.0, 0.0, 1.747689989120448E9, 0.0, 2025-05-19 23:26:29.120
140.0, 24164.336820165732, 20390.13301016486, 49014.53691894256, 33769.84253762275, 48602.3707511867, 6735.161749739856, 9694.130384222315, 4174.9705880845295, 0.0, 0.0, 11475.743231265931, -21000.1568198391, 14309.586800287581, 4599.3855118019, -13812.30518964591, -32266.017170669696, 0.06325, -0.006, 1.038125, 192.0, 0.0, 0.0, 0.0, 0.0, 0.0, 0.0, 0.0, 0.0, 0.0, 1.747689989129451E9, 0.0, 2025-05-19 23:26:29.129
142.0, 24182.084105263246, 20407.924998751285, 49028.551462716045, 33790.51790124392, 48618.79928336135, 6736.94988929628, 9722.517099680555, 4192.784928415409, 0.0, 0.0, 11479.073641189772, -20996.468782003973, 14295.706366980836, 4596.904468167361, -13805.823183753871, -32273.884984717966, 0.06325, -0.006, 1.038125, 192.0, 0.0, 0.0, 0.0, 0.0, 0.0, 0.0, 0.0, 0.0, 0.0, 1.74768998913749E9, 0.0, 2025-05-19 23:26:29.137
144.0, 24178.06079126129, 20404.013443471606, 49023.3211545135, 33789.48972099897, 48614.30658272584, 6749.66803189135, 9698.600733113377, 4182.860753877253, 0.0, 0.0, 11484.773336025875, -20995.038270358833, 14323.042550449676, 4619.367971344945, -13793.596779536818, -32249.320417561583, 0.06325, -0.006, 1.038125, 192.0, 0.0, 0.0, 0.0, 0.0, 0.0, 0.0, 0.0, 0.0, 0.0, 1.747689989144589E9, 0.0, 2025-05-19 23:26:29.144
146.0, 24183.425209930567, 20404.214609171704, 49027.05389583753, 33775.050494080846, 48607.846928578256, 6713.2123366847445, 9712.905849564773, 4192.069672592839, 0.0, 0.0, 11481.711147035498, -21000.357985539198, 14298.813259460123, 4594.758700699652, -13814.428605369165, -32271.24747887224, 0.06325, -0.006, 1.038125, 192.0, 0.0, 0.0, 0.0, 0.0, 0.0, 0.0, 0.0, 0.0, 0.0, 1.747689989152605E9, 0.0, 2025-05-19 23:26:29.152
148.0, 24186.710916365497, 20407.209742928713, 49026.78567490407, 33794.474160012505, 48616.6758676381, 6734.044162517091, 9710.78243384152, 4190.907381881164, 0.0, 0.0, 11491.568266340288, -20994.68064244755, 14315.331198612595, 4616.976334688226, -13796.01076793799, -32254.886001930954, 0.061625, -0.004, 1.0370625, 192.0, 0.5, 112.0, 127.5, 120.0, 16.0, 48.0, 0.0, 0.0, 0.0, 1.747689989161603E9, 0.0, 2025-05-19 23:26:29.161
150.0, 24188.722573366475, 20404.862809760907, 49022.69530566875, 33767.96499108851, 48610.39502744616, 6724.90229903487, 9690.01766324254, 4182.883105621709, 0.0, 0.0, 11481.599388313221, -21007.1082123647, 14310.279704365696, 4600.726616469218, -13812.439300112641, -32267.872365459487, 0.061625, -0.004, 1.0370625, 192.0, 0.0, 0.0, 0.0, 0.0, 0.0, 0.0, 0.0, 0.0, 0.0, 1.747689989169647E9, 0.0, 2025-05-19 23:26:29.169
152.0, 24192.052983290316, 20411.210705186215, 49029.19966330525, 33786.80751166434, 48614.93243157058, 6715.536918108096, 9742.007820845583, 4203.580820987323, 0.0, 0.0, 11491.814135529297, -20996.938168637535, 14302.724814739802, 4600.994837402683, -13804.593837808829, -32273.460301573316, 0.061625, -0.004, 1.0370625, 192.0, 0.0, 0.0, 0.0, 0.0, 0.0, 0.0, 0.0, 0.0, 0.0, 1.747689989176662E9, 0.0, 2025-05-19 23:26:29.176
154.0, 24186.040364031836, 20405.734527794662, 49014.33575324246, 33781.890127884166, 48610.64089663517, 6756.395906972398, 9692.5881138549, 4181.989035843496, 0.0, 0.0, 11484.683929048053, -20997.653424460106, 14321.612038804536, 4618.004514933171, -13799.49764007302, -32250.32624606207, 0.061625, -0.004, 1.0370625, 192.0, 0.0, 0.0, 0.0, 0.0, 0.0, 0.0, 0.0, 0.0, 0.0, 1.747689989184678E9, 0.0, 2025-05-19 23:26:29.184
156.0, 24204.569960185287, 20424.04060650356, 49037.04512560906, 33779.856119138734, 48618.19578626106, 6707.244420915177, 9716.906811822273, 4199.9151348966525, 0.0, 0.0, 11482.89578949163, -21002.794325684827, 14299.30499783814, 4591.428290775811, -13814.965047236092, -32276.00840044122, 0.061625, -0.004, 1.0370625, 192.0, 0.0, 0.0, 0.0, 0.0, 0.0, 0.0, 0.0, 0.0, 0.0, 1.747689989193658E9, 0.0, 2025-05-19 23:26:29.193
158.0, 24201.17249502808, 20423.504164636634, 49026.04806733705, 33791.881357655686, 48628.99167883297, 6750.204473758277, 9708.748425096086, 4189.0521870913735, 0.0, 0.0, 11497.267961176392, -20989.49503773392, 14320.092120181576, 4617.222203877235, -13790.556942290896, -32257.47880428777, 0.0608125, -0.002, 1.0345312500000001, 192.0, 0.5, 112.0, 0.0, 0.0, 16.0, 32.0, 0.0, 0.0, 0.0, 1.747689989200704E9, 0.0, 2025-05-19 23:26:29.200
160.0, 24205.195809030036, 20426.164022226814, 49026.740971415165, 33769.8201858783, 48614.21717574802, 6763.257892520177, 9693.906866777763, 4187.666378935144, 0.0, 0.0, 11489.46720236149, -20996.379375026154, 14318.460442836338, 4600.436043791299, -13810.204125667111, -32266.173632880884, 0.0608125, -0.002, 1.0345312500000001, 192.0, 0.0, 0.0, 0.0, 0.0, 0.0, 0.0, 0.0, 0.0, 0.0, 1.747689989208716E9, 0.0, 2025-05-19 23:26:29.208
162.0, 24212.929512611572, 20437.742225854665, 49033.2229773072, 33784.818206407814, 48627.538815443375, 6714.352275651965, 9734.296469008503, 4198.216402318049, 0.0, 0.0, 11492.84231577424, -20991.998433112913, 14303.328311840096, 4590.355407041956, -13810.673512300673, -32279.830548743077, 0.0608125, -0.002, 1.0345312500000001, 192.0, 0.0, 0.0, 0.0, 0.0, 0.0, 0.0, 0.0, 0.0, 0.0, 1.747689989216744E9, 0.0, 2025-05-19 23:26:29.216
164.0, 24205.531085196864, 20430.209687973223, 49020.19191028976, 33774.24583128045, 48614.91007982613, 6741.241424231699, 9697.281980190513, 4180.44676547608, 0.0, 0.0, 11496.642112331643, -20990.567921467773, 14329.368094130528, 4611.0978258964815, -13796.97189294957, -32260.071606644586, 0.0608125, -0.002, 1.0345312500000001, 192.0, 0.0, 0.0, 0.0, 0.0, 0.0, 0.0, 0.0, 0.0, 0.0, 1.747689989224786E9, 0.0, 2025-05-19 23:26:29.224
166.0, 24209.710861410007, 20430.924943795795, 49021.93534635727, 33760.67832239608, 48609.34449545676, 6692.46991783022, 9703.942800038196, 4181.966684099041, 0.0, 0.0, 11481.934664480052, -21001.050889617312, 14299.30499783814, 4572.585770199987, -13833.181718967167, -32295.700287306347, 0.0608125, -0.002, 1.0345312500000001, 192.0, 0.0, 0.0, 0.0, 0.0, 0.0, 0.0, 0.0, 0.0, 0.0, 1.747689989232787E9, 0.0, 2025-05-19 23:26:29.232
168.0, 24214.918817868092, 20439.642124133366, 49034.54173023006, 33791.680191955595, 48621.07916129579, 6753.601938915484, 9693.30336967747, 4184.984169600507, 0.0, 0.0, 11493.46816461899, -20991.216122056976, 14317.588724802581, 4601.553631014065, -13805.174983164667, -32274.019095184696, 0.060406249999999995, -0.001, 1.033265625, 192.0, 0.5, 112.0, 0.0, 0.0, 16.0, 32.0, 0.0, 0.0, 0.0, 1.747689989240826E9, 0.0, 2025-05-19 23:26:29.240
170.0, 24207.52039045339, 20431.528440896087, 49024.08111382498, 33764.276953253386, 48606.997562288954, 6716.766264053138, 9669.096430432372, 4171.863695605242, 0.0, 0.0, 11491.32239715128, -20993.272482546865, 14321.477928337805, 4596.6585989783525, -13815.300323402922, -32273.05797017312, 0.060406249999999995, -0.001, 1.033265625, 192.0, 0.0, 0.0, 0.0, 0.0, 0.0, 0.0, 0.0, 0.0, 0.0, 1.747689989249862E9, 0.0, 2025-05-19 23:26:29.249
172.0, 24216.12581206868, 20438.56924039951, 49030.294898783555, 33781.42074125061, 48621.123864784706, 6743.81187484406, 9707.11674775085, 4194.081329593817, 0.0, 0.0, 11490.204809928515, -20993.451296502506, 14303.551829284648, 4596.949171656272, -13810.561753578397, -32279.584679554067, 0.060406249999999995, -0.001, 1.033265625, 192.0, 0.0, 0.0, 0.0, 0.0, 0.0, 0.0, 0.0, 0.0, 0.0, 1.74768998925582E9, 0.0, 2025-05-19 23:26:29.255
174.0, 24205.419326474588, 20425.493469893154, 49023.63407893587, 33778.15738656013, 48613.94895481455, 6728.0091915141575, 9688.92242776423, 4176.8481346187755, 0.0, 0.0, 11492.618798329688, -20992.82544765776, 14329.390445874984, 4621.737256257207, -13797.374224349765, -32254.886001930954, 0.060406249999999995, -0.001, 1.033265625, 192.0, 0.0, 0.0, 0.0, 0.0, 0.0, 0.0, 0.0, 0.0, 0.0, 1.747689989264847E9, 0.0, 2025-05-19 23:26:29.264
176.0, 24206.492210208442, 20425.337007681966, 49026.62921269288, 33762.377054974684, 48616.228832748995, 6695.42034809832, 9708.97194254064, 4181.87727712122, 0.0, 0.0, 11480.906484235107, -21002.459049518, 14299.103832138042, 4593.216430332235, -13815.367378636287, -32282.15513016643, 0.060406249999999995, -0.001, 1.033265625, 192.0, 0.0, 0.0, 0.0, 0.0, 0.0, 0.0, 0.0, 0.0, 0.0, 1.747689989272854E9, 0.0, 2025-05-19 23:26:29.272
178.0, 24199.40670721611, 20421.157231468827, 49023.857596380425, 33779.14086331616, 48612.4737396805, 6730.400828170876, 9692.051671987972, 4184.3583207557585, 0.0, 0.0, 11481.778202268864, -21003.978968140957, 14306.25639036374, 4609.57790727352, -13803.11862267478, -32270.8674992165, 0.058203124999999994, -0.0035, 1.0346328125, 192.0, 0.5, 96.0, 127.5, 104.0, 16.0, 48.0, 0.0, 0.0, 0.0, 1.747689989281859E9, 0.0, 2025-05-19 23:26:29.281
180.0, 24192.768239112884, 20411.99301624215, 49017.55440444403, 33751.58116240277, 48609.38919894567, 6702.438795857286, 9684.072099217427, 4181.385538743203, 0.0, 0.0, 11475.877341732663, -21013.12083162318, 14304.132974640486, 4597.999703645672, -13815.792061780938, -32277.304801619626, 0.058203124999999994, -0.0035, 1.0346328125, 192.0, 0.0, 0.0, 0.0, 0.0, 0.0, 0.0, 0.0, 0.0, 0.0, 1.747689989288899E9, 0.0, 2025-05-19 23:26:29.288
182.0, 24191.02480304537, 20412.149478453335, 49005.99855256064, 33754.486889181964, 48614.95478331504, 6705.389226125387, 9664.5813780524, 4191.555582470368, 0.0, 0.0, 11469.954129452006, -21015.043081646334, 14280.238959817763, 4584.700415694763, -13820.016541482992, -32293.308650649626, 0.058203124999999994, -0.0035, 1.0346328125, 192.0, 0.0, 0.0, 0.0, 0.0, 0.0, 0.0, 0.0, 0.0, 0.0, 1.74768998929693E9, 0.0, 2025-05-19 23:26:29.296
184.0, 24185.07923902026, 20407.388556884358, 49007.47376769469, 33757.63848515016, 48600.850832563745, 6741.263775976155, 9728.105035794382, 4180.983207343007, 0.0, 0.0, 11463.561530537789, -21020.87688694917, 14297.427451303894, 4593.976389643716, -13823.950448507125, -32279.517624320702, 0.058203124999999994, -0.0035, 1.0346328125, 192.0, 0.0, 0.0, 0.0, 0.0, 0.0, 0.0, 0.0, 0.0, 0.0, 1.74768998930493E9, 0.0, 2025-05-19 23:26:29.304
186.0, 24186.26388147639, 20407.969702240196, 49008.1666717728, 33741.902857053625, 48606.46112042202, 6713.458205873752, 9703.562820382454, 4185.87823937872, 0.0, 0.0, 11463.65093751561, -21026.151898640623, 14274.561616726116, 4572.630473688898, -13830.968896266091, -32300.26004317523, 0.058203124999999994, -0.0035, 1.0346328125, 192.0, 0.0, 0.0, 0.0, 0.0, 0.0, 0.0, 0.0, 0.0, 0.0, 1.747689989311986E9, 0.0, 2025-05-19 23:26:29.311
188.0, 24188.946090811027, 20414.876391276885, 49013.6204974199, 33772.368284746204, 48609.45625417904, 6731.876043304926, 9711.631800130821, 4198.663437207155, 0.0, 0.0, 11472.07754517526, -21012.651444989617, 14294.029986146688, 4597.709130967753, -13809.734739033549, -32276.321324863595, 0.05610156249999999, -0.00575, 1.03531640625, 192.0, 0.5, 88.0, 127.5, 96.0, 16.0, 48.0, 0.0, 0.0, 0.0, 1.747689989321024E9, 0.0, 2025-05-19 23:26:29.321
190.0, 24184.788666342338, 20407.053280717526, 49007.786692117064, 33749.12247051269, 48592.84890804874, 6711.267734917133, 9697.907829035263, 4189.566277213845, 0.0, 0.0, 11461.885149703641, -21021.212163116, 14290.16313435592, 4586.24268606218, -13826.006808997014, -32283.317420878106, 0.05610156249999999, -0.00575, 1.03531640625, 192.0, 0.0, 0.0, 0.0, 0.0, 0.0, 0.0, 0.0, 0.0, 0.0, 1.747689989329071E9, 0.0, 2025-05-19 23:26:29.329
192.0, 24194.578730413763, 20417.737414567164, 49014.40280847583, 33768.322618999795, 48595.50876563892, 6723.628249600917, 9728.999105572595, 4206.0171611329515, 0.0, 0.0, 11471.742269008431, -21011.48915427794, 14282.518837752204, 4585.885058150895, -13820.620038583284, -32285.597298812547, 0.05610156249999999, -0.00575, 1.03531640625, 192.0, 0.0, 0.0, 0.0, 0.0, 0.0, 0.0, 0.0, 0.0, 0.0, 1.747689989337124E9, 0.0, 2025-05-19 23:26:29.337
194.0, 24184.92277680907, 20409.37786214088, 49005.93149732727, 33762.2205927635, 48598.325085440294, 6733.440665416797, 9691.403471398768, 4186.861716134753, 0.0, 0.0, 11472.524580064366, -21012.360872311696, 14305.608189774537, 4599.296104824079, -13815.993227481036, -32269.884022460465, 0.05610156249999999, -0.00575, 1.03531640625, 192.0, 0.0, 0.0, 0.0, 0.0, 0.0, 0.0, 0.0, 0.0, 0.0, 1.747689989345139E9, 0.0, 2025-05-19 23:26:29.345
196.0, 24199.987852571947, 20429.360321683922, 49005.79738686054, 33748.474269923485, 48596.8722220507, 6717.347409408976, 9701.193535470193, 4187.532268468412, 0.0, 0.0, 11466.131981150149, -21021.838011960746, 14279.523703995194, 4568.629511431398, -13838.814358569904, -32296.750819295743, 0.05610156249999999, -0.00575, 1.03531640625, 192.0, 0.0, 0.0, 0.0, 0.0, 0.0, 0.0, 0.0, 0.0, 0.0, 1.747689989353174E9, 0.0, 2025-05-19 23:26:29.353
198.0, 24189.59429140023, 20412.797679042542, 49017.643811421854, 33779.856119138734, 48611.31144896882, 6746.851712089981, 9708.54725939599, 4191.309713281359, 0.0, 0.0, 11478.336033622747, -21004.20248558551, 14300.8249164611, 4592.14354659838, -13816.060282714401, -32278.735313264766, 0.058050781249999996, -0.005875, 1.034658203125, 192.0, 0.5, 112.0, 127.5, 104.0, 16.0, 40.0, 0.0, 0.0, 0.0, 1.747689989361243E9, 0.0, 2025-05-19 23:26:29.361
200.0, 24195.98689031445, 20413.222362187193, 49015.14041604286, 33757.30320898333, 48607.80222508934, 6724.254098445666, 9684.96616899564, 4174.165925284138, 0.0, 0.0, 11473.93273996505, -21008.58342749875, 14302.858925206534, 4587.360273284945, -13824.30807641841, -32280.54580456565, 0.058050781249999996, -0.005875, 1.034658203125, 192.0, 0.0, 0.0, 0.0, 0.0, 0.0, 0.0, 0.0, 0.0, 0.0, 1.747689989368179E9, 0.0, 2025-05-19 23:26:29.368
202.0, 24202.468896206487, 20421.738376824665, 49011.25121250763, 33759.18075551758, 48607.93633555607, 6721.393075155387, 9706.535602395012, 4177.3175212523365, 0.0, 0.0, 11479.878303990163, -21006.72823270896, 14289.470230277806, 4576.899656879861, -13825.202146196621, -32295.499121606248, 0.058050781249999996, -0.005875, 1.034658203125, 192.0, 0.0, 0.0, 0.0, 0.0, 0.0, 0.0, 0.0, 0.0, 0.0, 1.747689989376272E9, 0.0, 2025-05-19 23:26:29.376
204.0, 24196.143352525636, 20414.13878370986, 49002.15405251432, 33750.03889203536, 48603.510690153926, 6719.09084547649, 9680.004081726562, 4166.700442636066, 0.0, 0.0, 11471.31758586378, -21021.30157009382, 14301.696634494858, 4583.471069749721, -13828.621963098285, -32290.58173782608, 0.058050781249999996, -0.005875, 1.034658203125, 192.0, 0.0, 0.0, 0.0, 0.0, 0.0, 0.0, 0.0, 0.0, 0.0, 1.747689989385267E9, 0.0, 2025-05-19 23:26:29.385
206.0, 24197.88678859315, 20413.51293486511, 49004.32217172649, 33737.29839769583, 48612.09376002476, 6700.404787111854, 9691.470526632134, 4166.476925191513, 0.0, 0.0, 11460.924024692062, -21032.45509057702, 14269.264253290208, 4554.838485102473, -13848.135036007767, -32315.81685731612, 0.058050781249999996, -0.005875, 1.034658203125, 192.0, 0.0, 0.0, 0.0, 0.0, 0.0, 0.0, 0.0, 0.0, 0.0, 1.747689989392293E9, 0.0, 2025-05-19 23:26:29.392
208.0, 24196.277462992366, 20415.591647099453, 49004.54568917104, 33758.48785143946, 48610.86441407972, 6733.485368905708, 9675.824305513419, 4157.1785994981055, 0.0, 0.0, 11471.98813819744, -21018.999340414925, 14289.850209933546, 4582.2193720602245, -13820.262410672, -32293.24159541626, 0.057025390625, -0.0029375, 1.0323291015625, 192.0, 0.5, 96.0, 0.0, 0.0, 16.0, 24.0, 0.0, 0.0, 0.0, 1.747689989400329E9, 0.0, 2025-05-19 23:26:29.400
210.0, 24204.257035762912, 20421.023121002094, 49007.80904386152, 33742.662816365104, 48604.31535295431, 6735.005287528669, 9662.279148373504, 4153.021175029418, 0.0, 0.0, 11461.21459736998, -21028.1635556416, 14286.9221314099, 4567.847200375462, -13839.551966136929, -32302.226996687295, 0.057025390625, -0.0029375, 1.0323291015625, 192.0, 0.0, 0.0, 0.0, 0.0, 0.0, 0.0, 0.0, 0.0, 0.0, 1.74768998940935E9, 0.0, 2025-05-19 23:26:29.409
212.0, 24204.704070652017, 20424.889972792862, 49010.04421830705, 33755.62682814918, 48598.30273369583, 6706.149185436868, 9677.254817158559, 4153.848189574264, 0.0, 0.0, 11475.206789399004, -21017.322959580775, 14284.01640463071, 4567.690738164275, -13834.83574805686, -32306.943214767365, 0.057025390625, -0.0029375, 1.0323291015625, 192.0, 0.0, 0.0, 0.0, 0.0, 0.0, 0.0, 0.0, 0.0, 0.0, 1.747689989417423E9, 0.0, 2025-05-19 23:26:29.417
214.0, 24191.44948619002, 20409.444917374243, 49007.94315432825, 33756.29738048284, 48597.05103600634, 6718.0850169760015, 9687.06723297444, 4152.216512229027, 0.0, 0.0, 11470.26705387438, -21017.81469795879, 14303.663588006924, 4584.074566850015, -13827.54907936443, -32288.234804658274, 0.057025390625, -0.0029375, 1.0323291015625, 192.0, 0.0, 0.0, 0.0, 0.0, 0.0, 0.0, 0.0, 0.0, 0.0, 1.747689989424432E9, 0.0, 2025-05-19 23:26:29.424
216.0, 24194.064640291293, 20410.13782145236, 49010.17832877378, 33747.133165256164, 48597.45336740653, 6709.99368548318, 9715.968038555151, 4159.503180921457, 0.0, 0.0, 11462.868626459674, -21022.57561952777, 14276.237997560263, 4565.321453252012, -13839.484910903564, -32306.987918256276, 0.057025390625, -0.0029375, 1.0323291015625, 192.0, 0.0, 0.0, 0.0, 0.0, 0.0, 0.0, 0.0, 0.0, 0.0, 1.747689989432432E9, 0.0, 2025-05-19 23:26:29.432
218.0, 24204.301739251823, 20423.66062684782, 49025.17634930329, 33775.944563859055, 48608.78570184537, 6732.121912493934, 9705.574477383432, 4177.898666608175, 0.0, 0.0, 11477.397260355623, -21007.845819931725, 14300.444936805361, 4592.05413962056, -13815.881468758758, -32284.278545889683, 0.0565126953125, -0.00246875, 1.0331645507812501, 192.0, 0.5, 96.0, 127.5, 120.0, 16.0, 40.0, 0.0, 0.0, 0.0, 1.747689989441465E9, 0.0, 2025-05-19 23:26:29.441
220.0, 24201.530122939366, 20418.5197256231, 49018.22495677769, 33750.93296181357, 48600.76142558592, 6705.121005191923, 9681.188724182693, 4157.8268000873095, 0.0, 0.0, 11476.12321092167, -21010.751546710915, 14304.512954296228, 4581.615874959931, -13826.476195630574, -32291.542862837658, 0.0565126953125, -0.00246875, 1.0331645507812501, 192.0, 0.0, 0.0, 0.0, 0.0, 0.0, 0.0, 0.0, 0.0, 0.0, 1.747689989450516E9, 0.0, 2025-05-19 23:26:29.450
222.0, 24202.893579351137, 20419.257333190126, 49017.80027363304, 33761.39357821865, 48610.1715100016, 6699.130737677901, 9709.888364063307, 4176.646968918678, 0.0, 0.0, 11476.12321092167, -21012.31616882279, 14286.564503498616, 4574.306854523045, -13826.20797469711, -32303.47869437679, 0.0565126953125, -0.00246875, 1.0331645507812501, 192.0, 0.0, 0.0, 0.0, 0.0, 0.0, 0.0, 0.0, 0.0, 0.0, 1.747689989456562E9, 0.0, 2025-05-19 23:26:29.456
224.0, 24203.519428195887, 20418.340911667456, 49023.924651613794, 33771.9212498571, 48609.43390243458, 6757.424087217341, 9680.272302660025, 4154.205817485549, 0.0, 0.0, 11480.995891212928, -21006.236494330944, 14315.68882652388, 4602.358293814456, -13810.628808811762, -32271.761568994712, 0.0565126953125, -0.00246875, 1.0331645507812501, 192.0, 0.0, 0.0, 0.0, 0.0, 0.0, 0.0, 0.0, 0.0, 0.0, 1.747689989464559E9, 0.0, 2025-05-19 23:26:29.464
226.0, 24204.525256696375, 20417.22332444469, 49022.36002950192, 33756.29738048284, 48610.01504779042, 6689.608894539941, 9682.239256172092, 4159.458477432547, 0.0, 0.0, 11476.659652788598, -21014.73015722396, 14287.9726633993, 4571.803459144051, -13836.556832379918, -32297.756647796232, 0.0565126953125, -0.00246875, 1.0331645507812501, 192.0, 0.0, 0.0, 0.0, 0.0, 0.0, 0.0, 0.0, 0.0, 0.0, 1.747689989473643E9, 0.0, 2025-05-19 23:26:29.473
228.0, 24197.50680893741, 20414.36230115441, 49009.820700862496, 33768.50143295544, 48608.20455648954, 6725.61755485744, 9674.617311312832, 4153.468209918525, 0.0, 0.0, 11481.107649935204, -21007.421136787074, 14301.11548913902, 4594.982218144205, -13816.507317603508, -32279.562327809614, 0.0565126953125, -0.00246875, 1.0331645507812501, 192.0, 0.0, 0.0, 0.0, 0.0, 0.0, 0.0, 0.0, 0.0, 0.0, 1.747689989480646E9, 0.0, 2025-05-19 23:26:29.480
230.0, 24196.925663581573, 20409.89195226335, 49006.08795953846, 33747.490793167446, 48592.33481792627, 6746.00234580068, 9664.53667456349, 4147.165017982128, 0.0, 0.0, 11460.767562480874, -21027.895334708137, 14287.905608165933, 4571.959921355238, -13845.877509817781, -32296.795522784654, 0.06, -0.002, 1.036, 192.0, 0.5, 112.0, 127.5, 120.0, 16.0, 48.0, 0.0, 0.0, 0.0, 1.747689989488711E9, 0.0, 2025-05-19 23:26:29.488
232.0, 24209.286178265356, 20422.073652991494, 49017.62145967739, 33764.94750558704, 48613.74778911445, 6691.955827707748, 9687.089584718893, 4158.363241954236, 0.0, 0.0, 11476.704356277509, -21009.790421699337, 14288.106773866031, 4575.71501442373, -13833.06996024489, -32293.8227407721, 0.06, -0.002, 1.036, 192.0, 0.0, 0.0, 0.0, 0.0, 0.0, 0.0, 0.0, 0.0, 0.0, 1.747689989496745E9, 0.0, 2025-05-19 23:26:29.496
234.0, 24199.786686871852, 20412.976492998183, 49009.15014852884, 33759.96306657351, 48606.88580356667, 6711.558307595052, 9658.300537860458, 4142.649965602156, 0.0, 0.0, 11474.26801613188, -21011.24328508893, 14309.698559009857, 4594.378721043911, -13818.049587970923, -32278.355333609026, 0.06, -0.002, 1.036, 192.0, 0.0, 0.0, 0.0, 0.0, 0.0, 0.0, 0.0, 0.0, 0.0, 1.74768998950474E9, 0.0, 2025-05-19 23:26:29.504
236.0, 24205.64284391914, 20419.95023726824, 49017.33088699948, 33753.19048800355, 48603.220117476005, 6693.1404701638785, 9684.385023639801, 4159.8831605771975, 0.0, 0.0, 11468.74713525142, -21016.1606688691, 14284.821067431101, 4565.142639296369, -13839.574317881385, -32304.864502533022, 0.06, -0.002, 1.036, 192.0, 0.0, 0.0, 0.0, 0.0, 0.0, 0.0, 0.0, 0.0, 0.0, 1.747689989512797E9, 0.0, 2025-05-19 23:26:29.512
238.0, 24199.69727989403, 20416.016330244103, 49015.16276778731, 33771.98830509047, 48599.39796917415, 6729.976145026225, 9686.039052729495, 4159.838457088287, 0.0, 0.0, 11479.900655734618, -21003.48722976294, 14304.557657785137, 4592.948209398772, -13813.467480357585, -32280.836377243566, 0.06, -0.002, 1.036, 192.0, 0.0, 0.0, 0.0, 0.0, 0.0, 0.0, 0.0, 0.0, 0.0, 1.74768998952085E9, 0.0, 2025-05-19 23:26:29.520
240.0, 24191.225968745468, 20403.968739982694, 49003.56221241501, 33740.87467680868, 48588.13268996867, 6697.8343364994935, 9661.809761739942, 4152.06005001784, 0.0, 0.0, 11467.808361984296, -21021.63684626065, 14295.326387325096, 4575.223276045714, -13836.333314935366, -32292.86161576052, 0.066, -0.002, 1.028, 192.0, 1.0, 8.0, 127.5, 120.0, 16.0, 16.0, 0.0, 0.0, 0.0, 1.747689989528857E9, 0.0, 2025-05-19 23:26:29.528
242.0, 24197.59621591523, 20416.28455117757, 49010.871232851896, 33760.34304622925, 48597.00633251743, 6719.537880365597, 9686.508439363055, 4171.170791527127, 0.0, 0.0, 11464.32148984927, -21022.061529405302, 14275.858017904524, 4567.981310842194, -13837.205032969123, -32301.712906564822, 0.066, -0.002, 1.028, 192.0, 0.0, 0.0, 0.0, 0.0, 0.0, 0.0, 0.0, 0.0, 0.0, 1.747689989535888E9, 0.0, 2025-05-19 23:26:29.535
244.0, 24194.98106181396, 20412.417699386802, 49017.06266606601, 33765.84157536526, 48592.603038859736, 6748.0810580350235, 9671.376308366813, 4160.017271043929, 0.0, 0.0, 11470.5576265523, -21012.31616882279, 14304.378843829494, 4595.943343155783, -13816.932000748158, -32272.47682481728, 0.066, -0.002, 1.028, 192.0, 0.0, 0.0, 0.0, 0.0, 0.0, 0.0, 0.0, 0.0, 0.0, 1.747689989544925E9, 0.0, 2025-05-19 23:26:29.544
246.0, 24201.73128863946, 20420.017292501605, 49018.24730852214, 33754.978627559976, 48595.6205243612, 6698.527240577608, 9701.484108148112, 4173.651835161667, 0.0, 0.0, 11468.814190484785, -21014.77486071287, 14282.787058685668, 4570.5964649434645, -13835.953335279624, -32294.515644850213, 0.066, -0.002, 1.028, 192.0, 0.0, 0.0, 0.0, 0.0, 0.0, 0.0, 0.0, 0.0, 0.0, 1.747689989552897E9, 0.0, 2025-05-19 23:26:29.552
248.0, 24186.241529731935, 20401.197123670237, 49005.14918627134, 33763.53934568636, 48582.63416083267, 6714.240516929689, 9701.148831981282, 4164.2864542348925, 0.0, 0.0, 11471.27288237487, -21013.76903221238, 14295.326387325096, 4589.863668663939, -13821.69292231714, -32280.90343247693, 0.066, -0.002, 1.028, 192.0, 0.0, 0.0, 0.0, 0.0, 0.0, 0.0, 0.0, 0.0, 0.0, 1.747689989560897E9, 0.0, 2025-05-19 23:26:29.560
250.0, 24190.153085011614, 20400.772440525587, 49006.534994427566, 33739.75708958591, 48596.2687249504, 6705.769205781127, 9656.512398304034, 4148.550826138357, 0.0, 0.0, 11459.202940369003, -21027.470651563486, 14287.100945365542, 4572.965749855727, -13837.875585302781, -32294.8732727615, 0.062, -0.004, 1.026, 192.0, 0.5, 120.0, 127.5, 112.0, 16.0, 8.0, 0.0, 0.0, 0.0, 1.747689989567971E9, 0.0, 2025-05-19 23:26:29.567
252.0, 24198.60204441572, 20413.13295520937, 49020.41542773431, 33759.60543866223, 48608.38337044518, 6703.08699644649, 9682.887456761297, 4163.548846667868, 0.0, 0.0, 11468.41185908459, -21020.25103810442, 14276.081535349076, 4570.149430054358, -13828.845480542837, -32302.316403665118, 0.062, -0.004, 1.026, 192.0, 0.0, 0.0, 0.0, 0.0, 0.0, 0.0, 0.0, 0.0, 0.0, 1.747689989576963E9, 0.0, 2025-05-19 23:26:29.576
254.0, 24194.69048913604, 20408.4167371293, 49011.43002646328, 33756.29738048284, 48606.59523088876, 6728.925613036825, 9647.459941799634, 4146.025079014907, 0.0, 0.0, 11474.804457998807, -21014.752508968417, 14305.228210118798, 4593.1940785877805, -13816.283800158955, -32279.11529292051, 0.062, -0.004, 1.026, 192.0, 0.0, 0.0, 0.0, 0.0, 0.0, 0.0, 0.0, 0.0, 0.0, 1.747689989585009E9, 0.0, 2025-05-19 23:26:29.585
0.0, 24192.45531469051, 20402.784097526564, 49006.736160127664, 33737.03017676237, 48600.2696872079, 6707.065606959535, 9687.804840541463, 4158.854980332253, 0.0, 0.0, 11464.276786360359, -21029.661122520105, 14272.549959725138, 4558.370060726412, -13845.83280632887, -32310.184217713384, 0.062, -0.004, 1.026, 192.0, 0.0, 0.0, 0.0, 0.0, 0.0, 0.0, 0.0, 0.0, 0.0, 1.747689989592029E9, 0.0, 2025-05-19 23:26:29.592
2.0, 24188.990794299938, 20402.448821359732, 49010.31243924051, 33762.64527590815, 48603.488338409465, 6715.045179730079, 9682.01573872754, 4161.336023966793, 0.0, 0.0, 11465.662594516587, -21025.771918984883, 14284.597549986549, 4581.817040660029, -13822.363474650798, -32292.079304704585, 0.062, -0.004, 1.026, 192.0, 0.0, 0.0, 0.0, 0.0, 0.0, 0.0, 0.0, 0.0, 0.0, 1.747689989601076E9, 0.0, 2025-05-19 23:26:29.601
4.0, 24185.414515187087, 20397.68789979075, 49004.54568917104, 33741.05349076432, 48594.10060573824, 6694.995664953669, 9666.302462375459, 4152.104753506751, 0.0, 0.0, 11461.236949114436, -21026.30836085181, 14288.844381433057, 4576.340863268479, -13828.800777053926, -32291.453455859835, 0.064, 0.004, 1.022, 192.0, 1.0, 0.0, 0.0, 16.0, 15.5, 120.0, 0.0, 0.0, 0.0, 1.747689989609092E9, 0.0, 2025-05-19 23:26:29.609
6.0, 24199.965500827493, 20415.010501743618, 49016.593279432454, 33760.67832239608, 48596.04520750585, 6705.009246469646, 9694.666826089242, 4163.995881556974, 0.0, 0.0, 11467.763658495387, -21018.93228518156, 14279.099020850543, 4572.921046366817, -13826.275029930477, -32299.522435608204, 0.064, 0.004, 1.022, 192.0, 0.0, 0.0, 0.0, 0.0, 0.0, 0.0, 0.0, 0.0, 0.0, 1.747689989616133E9, 0.0, 2025-05-19 23:26:29.616
8.0, 24192.79059085734, 20407.053280717526, 49016.570927688, 33763.94167708656, 48589.585553358265, 6738.402752685875, 9657.96526169363, 4150.9648145395295, 0.0, 0.0, 11473.977443453961, -21012.763203711893, 14311.330236355096, 4592.277657065112, -13821.894088017236, -32279.29410687615, 0.064, 0.004, 1.022, 192.0, 0.0, 0.0, 0.0, 0.0, 0.0, 0.0, 0.0, 0.0, 0.0, 1.747689989625165E9, 0.0, 2025-05-19 23:26:29.625
10.0, 24193.30468097981, 20409.735490052164, 49016.861500365914, 33751.201182747034, 48587.88682077966, 6696.783804510093, 9692.878686532818, 4161.514837922435, 0.0, 0.0, 11471.161123652593, -21015.803040957813, 14288.956140155333, 4570.775278899107, -13834.567527123396, -32298.807179785632, 0.064, 0.004, 1.022, 192.0, 0.0, 0.0, 0.0, 0.0, 0.0, 0.0, 0.0, 0.0, 0.0, 1.747689989633206E9, 0.0, 2025-05-19 23:26:29.633
12.0, 24201.910102595106, 20419.212629701215, 49029.6243464499, 33778.40325574914, 48605.18707098807, 6724.164691467845, 9689.548276608977, 4164.711137379544, 0.0, 0.0, 11486.069737204283, -21002.369642540176, 14309.944428198867, 4600.5925060024865, -13805.532611075952, -32276.298973119137, 0.064, 0.004, 1.022, 192.0, 0.0, 0.0, 0.0, 0.0, 0.0, 0.0, 0.0, 0.0, 0.0, 1.747689989641248E9, 0.0, 2025-05-19 23:26:29.641
14.0, 24194.377564713668, 20407.3662051399, 49020.70600041223, 33751.5141071694, 48586.67982657908, 6702.170574923823, 9661.899168717762, 4150.853055817253, 0.0, 0.0, 11479.833600501252, -21013.09847987872, 14307.038701419677, 4581.437061004289, -13829.806605554415, -32289.8217785146, 0.062, 0.0, 1.026, 192.0, 0.5, 120.0, 0.0, 0.0, 16.0, 8.0, 0.0, 0.0, 0.0, 1.747689989648307E9, 0.0, 2025-05-19 23:26:29.648
16.0, 24205.911064852604, 20420.88901053536, 49030.76428541712, 33771.78713939037, 48599.8226523188, 6717.056836731057, 9691.20230569867, 4165.672262391122, 0.0, 0.0, 11489.824830272775, -21001.475572761963, 14299.953198427344, 4584.454546505755, -13819.278933915966, -32289.464150603315, 0.062, 0.0, 1.026, 192.0, 0.0, 0.0, 0.0, 0.0, 0.0, 0.0, 0.0, 0.0, 0.0, 1.747689989656302E9, 0.0, 2025-05-19 23:26:29.656
18.0, 24198.44558220453, 20411.411870886313, 49018.046142822044, 33759.13605202866, 48584.690521322555, 6721.258964688655, 9659.239311127581, 4142.58291036879, 0.0, 0.0, 11488.170801183081, -21006.14708735312, 14321.030893448698, 4597.463261778744, -13815.188564680644, -32277.505967319725, 0.062, 0.0, 1.026, 192.0, 0.0, 0.0, 0.0, 0.0, 0.0, 0.0, 0.0, 0.0, 0.0, 1.747689989665336E9, 0.0, 2025-05-19 23:26:29.665
20.0, 24210.22495153248, 20415.99397849965, 49022.605898690934, 33753.235191492466, 48602.68367560908, 6697.163784165834, 9677.143058436282, 4147.857922060242, 0.0, 0.0, 11479.31951037878, -21015.78068921336, 14293.627654746493, 4568.405993986845, -13837.249736458032, -32302.808142043134, 0.062, 0.0, 1.026, 192.0, 0.0, 0.0, 0.0, 0.0, 0.0, 0.0, 0.0, 0.0, 0.0, 1.747689989672349E9, 0.0, 2025-05-19 23:26:29.672
22.0, 24209.196771287534, 20419.07851923448, 49029.55729121653, 33776.16808130361, 48609.99269604596, 6715.760435552649, 9659.686346016688, 4155.703384364055, 0.0, 0.0, 11493.356405896713, -21001.609683228697, 14314.034797434188, 4598.938476912794, -13808.170116921678, -32276.902470219433, 0.062, 0.0, 1.026, 192.0, 0.0, 0.0, 0.0, 0.0, 0.0, 0.0, 0.0, 0.0, 0.0, 1.747689989680379E9, 0.0, 2025-05-19 23:26:29.680
24.0, 24198.847913604728, 20403.678167304777, 49010.51360494061, 33740.47234540848, 48601.02964651938, 6685.898504960359, 9660.803933239453, 4141.912358035131, 0.0, 0.0, 11479.028937700861, -21019.625189259674, 14302.367186828518, 4578.7548516696515, -13833.516995133996, -32292.25811866023, 0.058, -0.004, 1.028, 192.0, 0.5, 104.0, 127.5, 112.0, 16.0, 16.0, 0.0, 0.0, 0.0, 1.747689989690409E9, 0.0, 2025-05-19 23:26:29.690
26.0, 24200.79251537234, 20407.589722584453, 49019.878985867384, 33757.124395027684, 48611.51261466892, 6707.847918015471, 9695.046805744983, 4164.040585045885, 0.0, 0.0, 11478.5595510673, -21020.07222414878, 14283.211741830319, 4572.161087055336, -13827.727893320072, -32303.411639143425, 0.058, -0.004, 1.028, 192.0, 0.0, 0.0, 0.0, 0.0, 0.0, 0.0, 0.0, 0.0, 0.0, 1.747689989697451E9, 0.0, 2025-05-19 23:26:29.697
28.0, 24192.83529434625, 20396.436202101257, 49012.547613686045, 33751.98349380297, 48608.69629486756, 6722.868290289437, 9677.835962514397, 4147.857922060242, 0.0, 0.0, 11481.934664480052, -21018.082918892254, 14306.479907808294, 4594.401072788367, -13811.053491956412, -32280.411694098915, 0.058, -0.004, 1.028, 192.0, 0.0, 0.0, 0.0, 0.0, 0.0, 0.0, 0.0, 0.0, 0.0, 1.747689989704473E9, 0.0, 2025-05-19 23:26:29.704
30.0, 24196.322166481277, 20402.113545192904, 49012.972296830696, 33741.79109833135, 48596.715759839506, 6681.137583391379, 9691.850506287874, 4161.447782689069, 0.0, 0.0, 11466.869588717174, -21030.286971364854, 14274.785134170668, 4562.4380782172775, -13837.495605647042, -32307.792581056667, 0.058, -0.004, 1.028, 192.0, 0.0, 0.0, 0.0, 0.0, 0.0, 0.0, 0.0, 0.0, 0.0, 1.747689989712494E9, 0.0, 2025-05-19 23:26:29.712
32.0, 24190.01897454488, 20402.873504504383, 49012.189985774756, 33764.70163639804, 48597.16279472862, 6703.936362735792, 9686.329625407414, 4162.6994803785665, 0.0, 0.0, 11475.31854812128, -21017.2112008585, 14295.751070469747, 4590.511869253143, -13815.009750725003, -32284.39030461196, 0.058, -0.004, 1.028, 192.0, 0.0, 0.0, 0.0, 0.0, 0.0, 0.0, 0.0, 0.0, 0.0, 1.747689989720532E9, 0.0, 2025-05-19 23:26:29.720
34.0, 24185.526273909363, 20399.006652713615, 49013.70990439772, 33750.79885134684, 48586.12103296769, 6692.536973063586, 9667.308290875948, 4156.1280675087055, 0.0, 0.0, 11468.188341640038, -21020.854535204715, 14296.131050125487, 4579.380700514401, -13830.790082310448, -32288.838301758566, 0.056, -0.006, 1.032, 192.0, 0.5, 96.0, 127.5, 104.0, 16.0, 32.0, 0.0, 0.0, 0.0, 1.747689989728557E9, 0.0, 2025-05-19 23:26:29.728
36.0, 24197.663271148598, 20416.195144199748, 49026.78567490407, 33771.94360160155, 48595.48641389447, 6694.839202742482, 9692.811631299452, 4173.741242139487, 0.0, 0.0, 11483.789859269842, -21004.180133841055, 14296.153401869942, 4582.755813927151, -13819.703617060617, -32288.52537733619, 0.056, -0.006, 1.032, 192.0, 0.0, 0.0, 0.0, 0.0, 0.0, 0.0, 0.0, 0.0, 0.0, 1.747689989736571E9, 0.0, 2025-05-19 23:26:29.736
38.0, 24189.482532677954, 20404.03579521606, 49021.756532401625, 33767.763825388414, 48588.71383532451, 6714.396979140875, 9663.508494318545, 4148.617881371722, 0.0, 0.0, 11487.366138382691, -21001.87790416216, 14323.914268483433, 4601.754796714163, -13811.2099541676, -32268.5652695376, 0.056, -0.006, 1.032, 192.0, 0.0, 0.0, 0.0, 0.0, 0.0, 0.0, 0.0, 0.0, 0.0, 1.747689989744628E9, 0.0, 2025-05-19 23:26:29.744
40.0, 24187.448523932522, 20401.353585881425, 49015.63215442088, 33747.66960712309, 48579.035529975365, 6688.424252083809, 9649.270433100513, 4140.414791156625, 0.0, 0.0, 11479.252455145413, -21011.176229855566, 14295.795773958656, 4569.098898064959, -13835.796873068437, -32299.924767008397, 0.056, -0.006, 1.032, 192.0, 0.0, 0.0, 0.0, 0.0, 0.0, 0.0, 0.0, 0.0, 0.0, 1.747689989753655E9, 0.0, 2025-05-19 23:26:29.753
42.0, 24188.096724521725, 20406.114507450406, 49020.996573090146, 33775.184604547576, 48593.161832471116, 6724.410560656854, 9682.283959661003, 4169.114431037239, 0.0, 0.0, 11478.760716767398, -21013.880790934658, 14301.517820539215, 4585.013340117138, -13824.844518285337, -32288.614784314013, 0.056, -0.006, 1.032, 192.0, 0.0, 0.0, 0.0, 0.0, 0.0, 0.0, 0.0, 0.0, 0.0, 1.747689989760697E9, 0.0, 2025-05-19 23:26:29.760
44.0, 24186.375640198665, 20401.487696348155, 49023.27645102459, 33756.520897927396, 48593.206535960024, 6695.152127164856, 9683.200381183671, 4169.248541503971, 0.0, 0.0, 11478.358385367203, -21010.662139733093, 14307.977474686799, 4588.254343063158, -13821.603515339319, -32280.54580456565, 0.06, -0.004, 1.036, 192.0, 0.5, 112.0, 127.5, 112.0, 16.0, 48.0, 0.0, 0.0, 0.0, 1.747689989768715E9, 0.0, 2025-05-19 23:26:29.768
46.0, 24190.01897454488, 20403.298187649034, 49023.70113416924, 33764.478118953484, 48605.63410587718, 6697.096728932468, 9694.77858481152, 4171.371957227225, 0.0, 0.0, 11483.275769147369, -21006.795287942325, 14294.812297202623, 4581.593523215476, -13819.122471704779, -32290.604089570534, 0.06, -0.004, 1.036, 192.0, 0.0, 0.0, 0.0, 0.0, 0.0, 0.0, 0.0, 0.0, 0.0, 1.747689989776725E9, 0.0, 2025-05-19 23:26:29.776
48.0, 24179.69246860653, 20390.870617731885, 49011.36297122991, 33754.71040662652, 48596.447538906046, 6724.879947290415, 9661.027450684005, 4153.535265151891, 0.0, 0.0, 11477.039632444339, -21014.81956420178, 14310.21264913233, 4592.568229743031, -13814.719178047084, -32280.121121420998, 0.06, -0.004, 1.036, 192.0, 0.0, 0.0, 0.0, 0.0, 0.0, 0.0, 0.0, 0.0, 0.0, 1.747689989784826E9, 0.0, 2025-05-19 23:26:29.784
50.0, 24188.879035577662, 20395.89976023433, 49011.78765437456, 33744.33919719925, 48586.299846923335, 6689.452432328753, 9689.861201031352, 4159.547884410368, 0.0, 0.0, 11468.210693384492, -21025.235477117956, 14282.228265074285, 4562.303967750546, -13838.434378914164, -32307.21143570083, 0.06, -0.004, 1.036, 192.0, 0.0, 0.0, 0.0, 0.0, 0.0, 0.0, 0.0, 0.0, 0.0, 1.747689989792793E9, 0.0, 2025-05-19 23:26:29.792
52.0, 24200.30077699432, 20410.18252494127, 49023.56702370251, 33776.21278479252, 48611.87024258021, 6715.559269852552, 9679.221770670625, 4159.100849521262, 0.0, 0.0, 11483.588693569744, -21007.085860620246, 14305.876410708, 4590.131889597403, -13815.479137358563, -32281.32811562158, 0.06, -0.004, 1.036, 192.0, 0.0, 0.0, 0.0, 0.0, 0.0, 0.0, 0.0, 0.0, 0.0, 1.747689989800846E9, 0.0, 2025-05-19 23:26:29.800
54.0, 24204.65936716311, 20414.652873832332, 49025.98101210368, 33760.65597065163, 48597.45336740653, 6694.70509227575, 9659.216959383126, 4149.690765105577, 0.0, 0.0, 11490.428327373067, -21002.30258730681, 14318.393387602973, 4585.393319772878, -13823.190489195644, -32283.272717389194, 0.058, -0.006, 1.03, 192.0, 0.5, 104.0, 127.5, 104.0, 16.0, 24.0, 0.0, 0.0, 0.0, 1.747689989808863E9, 0.0, 2025-05-19 23:26:29.808
56.0, 24200.904274094617, 20415.010501743618, 49023.5223202136, 33770.35662774523, 48595.4193586611, 6696.47088008772, 9683.558009094955, 4161.53718966689, 0.0, 0.0, 11490.830658773262, -20999.307453549798, 14302.724814739802, 4578.978369114205, -13822.944620006636, -32290.58173782608, 0.058, -0.006, 1.03, 192.0, 0.0, 0.0, 0.0, 0.0, 0.0, 0.0, 0.0, 0.0, 0.0, 1.74768998981587E9, 0.0, 2025-05-19 23:26:29.815
58.0, 24189.706050122506, 20401.532399837066, 49016.19094803226, 33761.97472357449, 48583.774099799884, 6709.524298849618, 9632.66308697022, 4143.700497591555, 0.0, 0.0, 11483.968673225483, -21003.800154185315, 14320.382692859495, 4595.697473966775, -13813.936866991147, -32274.19790914034, 0.058, -0.006, 1.03, 192.0, 0.0, 0.0, 0.0, 0.0, 0.0, 0.0, 0.0, 0.0, 0.0, 1.747689989825066E9, 0.0, 2025-05-19 23:26:29.825
60.0, 24189.88486407815, 20403.052318460028, 49016.28035501008, 33753.68222638157, 48576.75565204092, 6688.245438128167, 9687.178991696715, 4158.519704165424, 0.0, 0.0, 11475.184437654549, -21012.405575800607, 14290.744279711758, 4560.158200282836, -13844.40229468373, -32306.049144989152, 0.058, -0.006, 1.03, 192.0, 0.0, 0.0, 0.0, 0.0, 0.0, 0.0, 0.0, 0.0, 0.0, 1.747689989832989E9, 0.0, 2025-05-19 23:26:29.832
62.0, 24194.69048913604, 20413.356472653923, 49028.10442782693, 33780.81724415031, 48601.34257094176, 6724.052932745569, 9674.01381421254, 4164.688785635089, 0.0, 0.0, 11487.366138382691, -20994.323014536265, 14313.476003822805, 4594.691645466286, -13809.891201244736, -32275.427255085382, 0.058, -0.006, 1.03, 192.0, 0.0, 0.0, 0.0, 0.0, 0.0, 0.0, 0.0, 0.0, 0.0, 1.747689989840012E9, 0.0, 2025-05-19 23:26:29.840
64.0, 24188.499055921922, 20400.57127482549, 49018.42612247779, 33754.77746185988, 48584.37759690018, 6713.569964596029, 9660.736878006086, 4154.339927952281, 0.0, 0.0, 11480.906484235107, -21007.57759899826, 14310.100890410054, 4583.292255794079, -13823.235192684555, -32284.993801712255, 0.062, 0.0, 1.034, 192.0, 0.5, 120.0, 0.0, 0.0, 16.0, 40.0, 0.0, 0.0, 0.0, 1.747689989848037E9, 0.0, 2025-05-19 23:26:29.848
66.0, 24188.74492511093, 20405.198085927736, 49017.55440444403, 33764.88045035368, 48593.295942937846, 6759.592206429506, 9684.742651551087, 4171.103736293761, 0.0, 0.0, 11480.615911557188, -21006.258846075398, 14292.420660545906, 4580.319473781523, -13821.49175661704, -32290.179406425883, 0.062, 0.0, 1.034, 192.0, 0.0, 0.0, 0.0, 0.0, 0.0, 0.0, 0.0, 0.0, 0.0, 1.747689989858092E9, 0.0, 2025-05-19 23:26:29.858
68.0, 24182.26291921889, 20397.08440269046, 49010.446549707245, 33760.54421192935, 48604.114187254214, 6701.097691189968, 9669.230540899103, 4167.415698458636, 0.0, 0.0, 11475.832638243752, -21013.29964557882, 14308.715082253824, 4592.009436131649, -13820.173003694177, -32274.555537051623, 0.062, 0.0, 1.034, 192.0, 0.0, 0.0, 0.0, 0.0, 0.0, 0.0, 0.0, 0.0, 0.0, 1.747689989865108E9, 0.0, 2025-05-19 23:26:29.865
70.0, 24191.293023978833, 20405.443955116745, 49016.3697619879, 33752.788156603354, 48596.2687249504, 6667.145391362356, 9670.325776377413, 4172.467192705535, 0.0, 0.0, 11470.98230969695, -21016.563000269296, 14284.35168079754, 4566.327281752501, -13834.83574805686, -32298.15897919643, 0.062, 0.0, 1.034, 192.0, 0.0, 0.0, 0.0, 0.0, 0.0, 0.0, 0.0, 0.0, 0.0, 1.747689989872152E9, 0.0, 2025-05-19 23:26:29.872
72.0, 24190.354250711713, 20403.834629515964, 49014.425160220286, 33768.83670912227, 48600.8731843082, 6698.616647555429, 9676.137229935794, 4169.427355459614, 0.0, 0.0, 11482.314644135791, -21005.11890710818, 14305.608189774537, 4592.277657065112, -13811.053491956412, -32277.707133019823, 0.062, 0.0, 1.034, 192.0, 0.0, 0.0, 0.0, 0.0, 0.0, 0.0, 0.0, 0.0, 0.0, 1.747689989880168E9, 0.0, 2025-05-19 23:26:29.880
74.0, 24188.253186732913, 20395.98916721215, 49007.45141595023, 33739.10888899671, 48588.17739345758, 6675.370833321909, 9654.38898258078, 4153.803486085354, 0.0, 0.0, 11469.261225373892, -21026.73304399646, 14293.873523935501, 4567.757793397641, -13839.060227758913, -32299.76830479721, 0.06, 0.0, 1.034, 192.0, 0.5, 112.0, 0.0, 0.0, 16.0, 40.0, 0.0, 0.0, 0.0, 1.747689989889186E9, 0.0, 2025-05-19 23:26:29.889
76.0, 24193.036460046347, 20401.711213792707, 49016.235651521165, 33757.68318863907, 48598.5709546293, 6690.815888740527, 9675.578436324411, 4161.559541411346, 0.0, 0.0, 11479.900655734618, -21016.361834569198, 14287.816201188112, 4572.026976588604, -13826.051512485923, -32300.662374575422, 0.06, 0.0, 1.034, 192.0, 0.0, 0.0, 0.0, 0.0, 0.0, 0.0, 0.0, 0.0, 0.0, 1.74768998989623E9, 0.0, 2025-05-19 23:26:29.896
78.0, 24183.626375630665, 20387.94253920824, 49006.534994427566, 33751.58116240277, 48590.367864414206, 6694.526278320108, 9655.19364538117, 4149.936634294586, 0.0, 0.0, 11474.98327195445, -21019.1110991372, 14306.390500830472, 4585.281561050601, -13823.682227573661, -32289.441798858858, 0.06, 0.0, 1.034, 192.0, 0.0, 0.0, 0.0, 0.0, 0.0, 0.0, 0.0, 0.0, 0.0, 1.747689989904302E9, 0.0, 2025-05-19 23:26:29.904
80.0, 24189.2590152334, 20397.106754434917, 49014.31340149801, 33747.24492397844, 48588.64678009114, 6665.290196572566, 9667.91178797624, 4163.839419345787, 0.0, 0.0, 11470.468219574479, -21021.569791027283, 14284.664605219914, 4561.991043328171, -13840.826015570881, -32308.26196769023, 0.06, 0.0, 1.034, 192.0, 0.0, 0.0, 0.0, 0.0, 0.0, 0.0, 0.0, 0.0, 0.0, 1.74768998991238E9, 0.0, 2025-05-19 23:26:29.912
82.0, 24193.394087957633, 20406.472135361688, 49021.15303530134, 33776.63746793717, 48595.8216900613, 6707.80321452656, 9672.002157211562, 4167.974492070019, 0.0, 0.0, 11481.442926102034, -21008.292854820833, 14305.183506629886, 4588.522563996621, -13816.529669347963, -32284.502063334236, 0.06, 0.0, 1.034, 192.0, 0.0, 0.0, 0.0, 0.0, 0.0, 0.0, 0.0, 0.0, 0.0, 1.74768998992142E9, 0.0, 2025-05-19 23:26:29.921
84.0, 24188.16377975509, 20398.917245735796, 49014.69338115375, 33753.48106068147, 48580.8683730207, 6697.297894632566, 9650.790351723475, 4152.104753506751, 0.0, 0.0, 11480.884132490652, -21007.48819202044, 14310.726739254802, 4581.705281937752, -13828.040817742447, -32284.926746478886, 0.056, -0.004, 1.034, 192.0, 0.5, 96.0, 127.5, 112.0, 16.0, 40.0, 0.0, 0.0, 0.0, 1.747689989928412E9, 0.0, 2025-05-19 23:26:29.928
86.0, 24191.225968745468, 20401.08536494796, 49025.64573593685, 33772.63650567967, 48594.257067949424, 6704.986894725192, 9692.029320243517, 4178.837439875298, 0.0, 0.0, 11485.376833126169, -21002.906084407103, 14298.612093760026, 4580.833563903995, -13819.949486249625, -32289.33004013658, 0.056, -0.004, 1.034, 192.0, 0.0, 0.0, 0.0, 0.0, 0.0, 0.0, 0.0, 0.0, 0.0, 1.747689989936386E9, 0.0, 2025-05-19 23:26:29.936
88.0, 24188.879035577662, 20397.2632166461, 49017.59910793294, 33769.26139226692, 48585.47283237849, 6716.810967542049, 9670.4822385886, 4173.763593883943, 0.0, 0.0, 11478.380737111656, -21004.31424430779, 14320.36034111504, 4599.720787968729, -13807.700730288117, -32271.04631317214, 0.056, -0.004, 1.034, 192.0, 0.0, 0.0, 0.0, 0.0, 0.0, 0.0, 0.0, 0.0, 0.0, 1.74768998994537E9, 0.0, 2025-05-19 23:26:29.945
90.0, 24194.712840880497, 20401.42064111479, 49014.64867766484, 33751.5141071694, 48587.059806234814, 6728.389171169898, 9683.110974205849, 4167.281587991904, 0.0, 0.0, 11478.336033622747, -21008.941055410036, 14297.628617003993, 4565.701432907753, -13836.73564633556, -32299.947118752854, 0.056, -0.004, 1.034, 192.0, 0.0, 0.0, 0.0, 0.0, 0.0, 0.0, 0.0, 0.0, 0.0, 1.747689989952446E9, 0.0, 2025-05-19 23:26:29.952
92.0, 24196.746849625928, 20403.90168474933, 49022.62825043539, 33773.68703766907, 48589.69731208054, 6694.570981809018, 9669.76698276603, 4159.324366965815, 0.0, 0.0, 11487.634359316155, -21007.331729809255, 14313.364245100529, 4588.723729696719, -13811.835803012349, -32284.233842400772, 0.056, -0.004, 1.034, 192.0, 0.0, 0.0, 0.0, 0.0, 0.0, 0.0, 0.0, 0.0, 0.0, 1.747689989960483E9, 0.0, 2025-05-19 23:26:29.960
94.0, 24183.805189586306, 20397.03969920155, 49011.16180552981, 33749.97183680199, 48583.39412014415, 6683.529220048096, 9649.940985434174, 4153.624672129711, 0.0, 0.0, 11474.98327195445, -21012.025596144867, 14307.016349675221, 4574.306854523045, -13830.745378821539, -32293.66627856091, 0.059, -0.004, 1.034, 192.0, 0.5, 120.0, 127.5, 112.0, 16.0, 40.0, 0.0, 0.0, 0.0, 1.747689989968524E9, 0.0, 2025-05-19 23:26:29.968
96.0, 24200.613701416696, 20408.17086794029, 49026.83037839298, 33771.965953346014, 48592.178355715085, 6679.885885701881, 9693.236314444102, 4180.245599775983, 0.0, 0.0, 11484.147487181126, -21002.034366373347, 14299.953198427344, 4578.374872013912, -13819.92713450517, -32293.06278146062, 0.059, -0.004, 1.034, 192.0, 0.0, 0.0, 0.0, 0.0, 0.0, 0.0, 0.0, 0.0, 0.0, 1.747689989977565E9, 0.0, 2025-05-19 23:26:29.977
98.0, 24190.354250711713, 20402.828801015476, 49019.23078527818, 33767.02621782139, 48587.685655079564, 6705.9927232256805, 9645.157712120737, 4159.704346621555, 0.0, 0.0, 11488.394318627636, -21002.079069862255, 14325.635352806492, 4599.050235635071, -13809.175945422166, -32272.253307372728, 0.059, -0.004, 1.034, 192.0, 0.0, 0.0, 0.0, 0.0, 0.0, 0.0, 0.0, 0.0, 0.0, 1.747689989984611E9, 0.0, 2025-05-19 23:26:29.984
100.0, 24198.60204441572, 20407.61207432891, 49028.03737259357, 33762.44411020805, 48591.32898942578, 6681.629321769396, 9679.333529392903, 4177.831611374809, 0.0, 0.0, 11486.360309882202, -21007.77876469836, 14301.406061816939, 4571.758755655141, -13829.82895729887, -32296.124970450997, 0.059, -0.004, 1.034, 192.0, 0.0, 0.0, 0.0, 0.0, 0.0, 0.0, 0.0, 0.0, 0.0, 1.74768998999263E9, 0.0, 2025-05-19 23:26:29.992
102.0, 24194.35521296921, 20405.980396983672, 49023.589375446965, 33779.0738080828, 48592.53598362637, 6717.258002431155, 9671.041032199983, 4170.746108382476, 0.0, 0.0, 11497.536182109856, -20996.28996804833, 14321.723797526813, 4598.916125168339, -13806.180811665155, -32274.10850216252, 0.059, -0.004, 1.034, 192.0, 0.0, 0.0, 0.0, 0.0, 0.0, 0.0, 0.0, 0.0, 0.0, 1.747689990002685E9, 0.0, 2025-05-19 23:26:30.002
104.0, 24188.186131499548, 20396.45855384571, 49010.78182587407, 33751.73762461396, 48584.64581783365, 6694.123946919912, 9638.943927162163, 4140.414791156625, 0.0, 0.0, 11482.828734258263, -21006.236494330944, 14313.766576500724, 4580.4535842482555, -13827.16909970869, -32285.731409279277, 0.0615, -0.006, 1.0350000000000001, 192.0, 1.0, 0.0, 127.5, 96.0, 16.0, 48.0, 0.0, 0.0, 0.0, 1.747689990009677E9, 0.0, 2025-05-19 23:26:30.009
106.0, 24199.049079304827, 20408.19321968475, 49023.56702370251, 33771.898898112646, 48597.47571915099, 6712.340618650987, 9682.77569803902, 4178.368053241737, 0.0, 0.0, 11480.012414456894, -21005.364776297185, 14298.187410615375, 4572.831639388995, -13826.431492141664, -32299.522435608204, 0.0615, -0.006, 1.0350000000000001, 192.0, 0.0, 0.0, 0.0, 0.0, 0.0, 0.0, 0.0, 0.0, 0.0, 1.747689990016692E9, 0.0, 2025-05-19 23:26:30.016
108.0, 24194.35521296921, 20402.784097526564, 49020.10250331194, 33768.5684881888, 48592.111300481716, 6727.606860113962, 9653.24904361356, 4167.460401947546, 0.0, 0.0, 11490.60714132871, -20998.279273304855, 14327.73641678529, 4597.932648412305, -13809.980608222559, -32274.15320565143, 0.0615, -0.006, 1.0350000000000001, 192.0, 0.0, 0.0, 0.0, 0.0, 0.0, 0.0, 0.0, 0.0, 0.0, 1.747689990024751E9, 0.0, 2025-05-19 23:26:30.024
110.0, 24193.148218768623, 20406.405080128323, 49015.38628523186, 33755.96210431601, 48590.45727139202, 6688.446603828264, 9671.309253133448, 4166.856904847254, 0.0, 0.0, 11484.929798237063, -21005.521238508372, 14301.54017228367, 4567.623682930909, -13833.226422456077, -32299.231862930283, 0.0615, -0.006, 1.0350000000000001, 192.0, 0.0, 0.0, 0.0, 0.0, 0.0, 0.0, 0.0, 0.0, 0.0, 1.747689990032771E9, 0.0, 2025-05-19 23:26:30.032
112.0, 24198.40087871562, 20402.85115275993, 49019.49900621164, 33769.32844750029, 48592.737149326465, 6703.511679591141, 9660.088677416883, 4156.038660530885, 0.0, 0.0, 11486.27090290438, -21002.2578838179, 14314.59359104557, 4586.846183162473, -13817.289628659444, -32285.8208162571, 0.0615, -0.006, 1.0350000000000001, 192.0, 0.0, 0.0, 0.0, 0.0, 0.0, 0.0, 0.0, 0.0, 0.0, 1.74768999003983E9, 0.0, 2025-05-19 23:26:30.039
114.0, 24184.25222447541, 20395.85505674542, 49010.33479098497, 33750.53063041337, 48577.627370074675, 6696.828507999005, 9649.270433100513, 4150.1377999946835, 0.0, 0.0, 11479.163048167593, -21016.317131080286, 14307.731605497791, 4573.3010260225565, -13831.237117199555, -32296.236729173273, 0.06075, -0.006, 1.0325000000000002, 192.0, 0.5, 112.0, 127.5, 104.0, 16.0, 24.0, 0.0, 0.0, 0.0, 1.747689990048851E9, 0.0, 2025-05-19 23:26:30.048
116.0, 24194.1093437802, 20408.819068529498, 49014.60397417593, 33765.90863059862, 48588.31150392431, 6707.8702697599265, 9678.037128214495, 4164.7558408684545, 0.0, 0.0, 11476.234969643947, -21005.901218164116, 14294.454669291339, 4568.405993986845, -13833.06996024489, -32300.05887747513, 0.06075, -0.006, 1.0325000000000002, 192.0, 0.0, 0.0, 0.0, 0.0, 0.0, 0.0, 0.0, 0.0, 0.0, 1.747689990056888E9, 0.0, 2025-05-19 23:26:30.056
118.0, 24190.533064667354, 20405.80158302803, 49016.3697619879, 33766.62388642119, 48583.349416655234, 6714.844014029982, 9642.721371975109, 4149.556654638845, 0.0, 0.0, 11483.164010425093, -21003.151953596112, 14322.260239393741, 4592.009436131649, -13814.942695491636, -32278.44474058685, 0.06075, -0.006, 1.0325000000000002, 192.0, 0.0, 0.0, 0.0, 0.0, 0.0, 0.0, 0.0, 0.0, 0.0, 1.747689990063915E9, 0.0, 2025-05-19 23:26:30.063
120.0, 24200.83721886125, 20413.915266265307, 49020.28131726758, 33761.23711600746, 48587.484489379465, 6695.934438220792, 9664.804895496953, 4162.073631533817, 0.0, 0.0, 11484.080431947761, -21003.330767551754, 14302.188372872875, 4563.980348584694, -13836.847405057837, -32300.68472631988, 0.06075, -0.006, 1.0325000000000002, 192.0, 0.0, 0.0, 0.0, 0.0, 0.0, 0.0, 0.0, 0.0, 0.0, 1.747689990071947E9, 0.0, 2025-05-19 23:26:30.071
122.0, 24196.59038741474, 20413.110603464916, 49017.12972129938, 33775.050494080846, 48587.88682077966, 6713.927592507314, 9669.834037999397, 4162.6994803785665, 0.0, 0.0, 11489.534257594856, -20997.139334337633, 14317.208745146841, 4591.651808220364, -13812.372244879276, -32279.987010954264, 0.06075, -0.006, 1.0325000000000002, 192.0, 0.0, 0.0, 0.0, 0.0, 0.0, 0.0, 0.0, 0.0, 0.0, 1.747689990081063E9, 0.0, 2025-05-19 23:26:30.081
124.0, 24190.354250711713, 20401.353585881425, 49006.9149740833, 33747.31197921181, 48570.34070138225, 6690.838240484982, 9644.062476642428, 4151.098925006262, 0.0, 0.0, 11475.050327187817, -21012.91966592308, 14307.061053164132, 4573.278674278102, -13831.862966044304, -32292.839264016067, 0.062375, -0.006, 1.0342500000000001, 192.0, 1.0, 0.0, 127.5, 104.0, 16.0, 48.0, 0.0, 0.0, 0.0, 1.747689990089003E9, 0.0, 2025-05-19 23:26:30.089
126.0, 24195.65161414762, 20401.778269026076, 49012.48055845268, 33760.09717704024, 48581.98596024346, 6714.128758207412, 9677.38892762529, 4168.332119981304, 0.0, 0.0, 11477.106687677704, -21013.858439190204, 14293.292378579663, 4566.081412563492, -13832.801739311426, -32302.33875540957, 0.062375, -0.006, 1.0342500000000001, 192.0, 0.0, 0.0, 0.0, 0.0, 0.0, 0.0, 0.0, 0.0, 0.0, 1.747689990096004E9, 0.0, 2025-05-19 23:26:30.096
128.0, 24189.303718722313, 20394.98333871166, 49012.681724152775, 33761.058302051824, 48585.249314933935, 6711.848880272971, 9631.344334047359, 4147.723811593511, 0.0, 0.0, 11482.493458091434, -21014.193715357032, 14318.393387602973, 4590.020130875127, -13815.300323402922, -32277.885946975464, 0.062375, -0.006, 1.0342500000000001, 192.0, 0.0, 0.0, 0.0, 0.0, 0.0, 0.0, 0.0, 0.0, 0.0, 1.747689990104085E9, 0.0, 2025-05-19 23:26:30.104
130.0, 24199.965500827493, 20405.89099000585, 49016.660334665816, 33757.79494736135, 48582.14242245465, 6679.394147323865, 9665.140171663783, 4162.788887356387, 0.0, 0.0, 11472.435173086546, -21016.20537235801, 14292.73358496828, 4557.900674092851, -13836.69094284665, -32305.646813588955, 0.062375, -0.006, 1.0342500000000001, 192.0, 0.0, 0.0, 0.0, 0.0, 0.0, 0.0, 0.0, 0.0, 0.0, 1.747689990113105E9, 0.0, 2025-05-19 23:26:30.113
132.0, 24202.64771016213, 20404.974568483183, 49018.627288177886, 33776.34689525925, 48590.837251047764, 6709.680761060806, 9661.139209406283, 4156.843323331275, 0.0, 0.0, 11490.450679117523, -20996.334671537243, 14318.348684114062, 4594.915162910839, -13810.897029745225, -32276.5671940526, 0.062375, -0.006, 1.0342500000000001, 192.0, 0.0, 0.0, 0.0, 0.0, 0.0, 0.0, 0.0, 0.0, 0.0, 1.747689990120056E9, 0.0, 2025-05-19 23:26:30.120
134.0, 24185.97330879847, 20393.55282706652, 49015.22982302068, 33754.0175025484, 48575.548657840336, 6687.127850905401, 9636.775807949998, 4142.1582272241385, 0.0, 0.0, 11473.21748414248, -21012.763203711893, 14309.564448543126, 4571.758755655141, -13834.813396312404, -32291.29699364865, 0.0611875, -0.006, 1.031125, 192.0, 0.5, 112.0, 127.5, 104.0, 16.0, 16.0, 0.0, 0.0, 0.0, 1.747689990128137E9, 0.0, 2025-05-19 23:26:30.128
136.0, 24203.675890407074, 20417.4691936337, 49023.67878242479, 33773.35176150224, 48596.492242394954, 6707.80321452656, 9679.378232881812, 4161.87246583372, 0.0, 0.0, 11487.634359316155, -20999.866247161182, 14305.719948496813, 4576.854953390951, -13823.235192684555, -32290.112351192518, 0.0611875, -0.006, 1.031125, 192.0, 0.0, 0.0, 0.0, 0.0, 0.0, 0.0, 0.0, 0.0, 0.0, 1.747689990137213E9, 0.0, 2025-05-19 23:26:30.137
138.0, 24200.278425249868, 20405.063975461006, 49017.46499746621, 33771.67538066809, 48587.95387601303, 6713.905240762859, 9630.316153802414, 4140.124218478706, 0.0, 0.0, 11488.014338971894, -21000.91677915058, 14327.02116096272, 4591.607104731454, -13818.071939715379, -32275.7178277633, 0.0611875, -0.006, 1.031125, 192.0, 0.0, 0.0, 0.0, 0.0, 0.0, 0.0, 0.0, 0.0, 0.0, 1.747689990144225E9, 0.0, 2025-05-19 23:26:30.144
140.0, 24213.667120178598, 20417.446841889247, 49026.718619670704, 33769.26139226692, 48598.01216101792, 6707.4008831263645, 9682.596884083378, 4167.125125780717, 0.0, 0.0, 11483.6110453142, -21000.603854728208, 14308.35745434254, 4569.501229465154, -13830.410102654709, -32291.274641904194, 0.0611875, -0.006, 1.031125, 192.0, 0.0, 0.0, 0.0, 0.0, 0.0, 0.0, 0.0, 0.0, 0.0, 1.74768999015226E9, 0.0, 2025-05-19 23:26:30.152
142.0, 24206.156934041614, 20420.240809946157, 49029.445532494254, 33786.04755235285, 48591.95483827053, 6716.073359975024, 9670.750459522063, 4157.335061709293, 0.0, 0.0, 11500.196039700037, -20986.96929061047, 14327.110567940543, 4596.949171656272, -13810.82997451186, -32272.67799051738, 0.0611875, -0.006, 1.031125, 192.0, 0.0, 0.0, 0.0, 0.0, 0.0, 0.0, 0.0, 0.0, 0.0, 1.747689990160281E9, 0.0, 2025-05-19 23:26:30.160
144.0, 24201.284253750357, 20409.959007496716, 49027.65739293783, 33764.142842786656, 48582.20947768802, 6698.236667899689, 9662.81559024043, 4148.304956949349, 0.0, 0.0, 11488.975463983472, -21001.095593106224, 14321.723797526813, 4577.0561190910485, -13827.2138031976, -32286.223147657296, 0.05859375, -0.002, 1.0285625, 192.0, 0.5, 96.0, 0.0, 8.0, 16.0, 8.0, 0.0, 0.0, 0.0, 1.747689990169391E9, 0.0, 2025-05-19 23:26:30.169
146.0, 24222.98779761646, 20431.148461240347, 49036.151055830844, 33784.03589535187, 48590.837251047764, 6712.810005284549, 9686.709605063154, 4169.1591345261495, 0.0, 0.0, 11498.162030954603, -20990.813790656783, 14315.487660823783, 4584.409843016844, -13814.473308858074, -32283.920917978397, 0.05859375, -0.002, 1.0285625, 192.0, 0.0, 0.0, 0.0, 0.0, 0.0, 0.0, 0.0, 0.0, 0.0, 1.747689990176316E9, 0.0, 2025-05-19 23:26:30.176
148.0, 24203.631186918163, 20412.440051131256, 49022.76236090212, 33773.418816735604, 48587.03745449036, 6711.357141894954, 9647.683459244188, 4140.638308601178, 0.0, 0.0, 11501.403033900624, -20987.43867724403, 14339.180509946407, 4603.140604870392, -13808.97477972207, -32264.497252046738, 0.05859375, -0.002, 1.0285625, 192.0, 0.0, 0.0, 0.0, 0.0, 0.0, 0.0, 0.0, 0.0, 0.0, 1.747689990184336E9, 0.0, 2025-05-19 23:26:30.184
150.0, 24231.3697017872, 20433.4730426637, 49034.45232325224, 33768.948467844544, 48597.38631217317, 6701.432967356797, 9673.030337456506, 4158.787925098887, 0.0, 0.0, 11490.450679117523, -21004.805982685804, 14308.8268409761, 4568.696566664764, -13827.750245064528, -32293.956851238832, 0.05859375, -0.002, 1.0285625, 192.0, 0.0, 0.0, 0.0, 0.0, 0.0, 0.0, 0.0, 0.0, 0.0, 1.747689990192366E9, 0.0, 2025-05-19 23:26:30.192
152.0, 24214.829410890274, 20426.633408860376, 49027.322116771, 33783.20888080703, 48583.88585852216, 6729.61851711494, 9672.940930478684, 4159.123201265717, 0.0, 0.0, 11512.80242357283, -20982.588348697227, 14337.258259923252, 4603.34177057049, -13801.956331963103, -32269.951077693833, 0.05859375, -0.002, 1.0285625, 192.0, 0.0, 0.0, 0.0, 0.0, 0.0, 0.0, 0.0, 0.0, 0.0, 1.747689990200423E9, 0.0, 2025-05-19 23:26:30.200
154.0, 24190.89069257864, 20400.906550992317, 49016.34741024344, 33758.64431365065, 48569.67014904859, 6686.926685205303, 9643.324869075403, 4150.473076161513, 0.0, 0.0, 11476.145562666126, -21011.712671722493, 14309.855021221045, 4567.064889319527, -13841.854195815826, -32293.375705882994, 0.057296875, -0.001, 1.02628125, 192.0, 0.5, 96.0, 0.0, 0.0, 16.0, 0.0, 0.0, 0.0, 0.0, 1.747689990208393E9, 0.0, 2025-05-19 23:26:30.208
156.0, 24199.02672756037, 20421.716025080208, 49040.88962565537, 33792.30604080034, 48595.732283083475, 6727.740970580694, 9689.235352186603, 4181.430242232113, 0.0, 0.0, 11502.721786823486, -20980.777857396348, 14321.41087310444, 4591.160069842347, -13806.426680854163, -32275.449606829836, 0.057296875, -0.001, 1.02628125, 192.0, 0.0, 0.0, 0.0, 0.0, 0.0, 0.0, 0.0, 0.0, 0.0, 1.747689990216461E9, 0.0, 2025-05-19 23:26:30.216
158.0, 24165.856738788694, 20386.17675139627, 49019.56606144501, 33773.977610346985, 48576.80035552983, 6741.733162609717, 9641.067342885417, 4147.433238915592, 0.0, 0.0, 11497.558533854311, -20982.43188648604, 14338.375847146017, 4603.364122314945, -13810.226477411567, -32263.312609590605, 0.057296875, -0.001, 1.02628125, 192.0, 0.0, 0.0, 0.0, 0.0, 0.0, 0.0, 0.0, 0.0, 0.0, 1.747689990225469E9, 0.0, 2025-05-19 23:26:30.225
160.0, 24161.87812827565, 20390.3118241205, 49019.02961957808, 33766.512127698916, 48560.640044288644, 6697.499060332663, 9678.864142759341, 4164.152343768161, 0.0, 0.0, 11470.445867830023, -21006.92939840906, 14299.997901916255, 4559.174723526803, -13842.658858616216, -32299.58949084157, 0.057296875, -0.001, 1.02628125, 192.0, 0.0, 0.0, 0.0, 0.0, 0.0, 0.0, 0.0, 0.0, 0.0, 1.747689990231507E9, 0.0, 2025-05-19 23:26:30.231
162.0, 24169.70123883501, 20402.694690548742, 49037.492160498165, 33799.100971114756, 48588.736187068964, 6739.877967819926, 9669.543465321478, 4170.656701404655, 0.0, 0.0, 11500.79953680033, -20972.842988114713, 14335.447768622373, 4609.041465406593, -13799.58704705084, -32261.166842122897, 0.057296875, -0.001, 1.02628125, 192.0, 0.0, 0.0, 0.0, 0.0, 0.0, 0.0, 0.0, 0.0, 0.0, 1.747689990240535E9, 0.0, 2025-05-19 23:26:30.240
164.0, 24142.946200722006, 20373.2574431011, 49020.12485505639, 33765.953334087535, 48563.590474556746, 6714.732255307706, 9660.356898350346, 4152.931768051597, 0.0, 0.0, 11478.961882467494, -20993.96538662498, 14321.768501015724, 4583.04638660507, -13821.82703278387, -32275.449606829836, 0.0596484375, -0.0015, 1.027140625, 192.0, 0.5, 120.0, 127.5, 120.0, 16.0, 16.0, 0.0, 0.0, 0.0, 1.747689990248574E9, 0.0, 2025-05-19 23:26:30.248
166.0, 24177.479645905452, 20416.306902922024, 49041.00138437765, 33803.37015430572, 48582.164774199104, 6736.2793369626215, 9705.574477383432, 4187.487564979501, 0.0, 0.0, 11487.612007571699, -20979.324994006754, 14318.058111436143, 4587.3826250294005, -13814.83093676936, -32277.282449875172, 0.0596484375, -0.0015, 1.027140625, 192.0, 0.0, 0.0, 0.0, 0.0, 0.0, 0.0, 0.0, 0.0, 0.0, 1.747689990256606E9, 0.0, 2025-05-19 23:26:30.256
168.0, 24163.710971320987, 20401.89002774835, 49036.575738975494, 33798.47512227001, 48574.38636712866, 6755.434781960819, 9660.513360561534, 4169.092079292784, 0.0, 0.0, 11507.192135714547, -20953.66519137206, 14357.017202021743, 4620.10557891197, -13794.133221403745, -32242.793708180634, 0.0596484375, -0.0015, 1.027140625, 192.0, 0.0, 0.0, 0.0, 0.0, 0.0, 0.0, 0.0, 0.0, 0.0, 1.747689990265664E9, 0.0, 2025-05-19 23:26:30.265
170.0, 24175.579747626754, 20415.457536632723, 49030.54076797256, 33785.22053780801, 48577.13563169666, 6739.140360252901, 9694.800936555976, 4191.175602814627, 0.0, 0.0, 11481.912312735596, -20977.11217130568, 14317.78989050268, 4573.032805089093, -13826.230326441566, -32279.785845254166, 0.0596484375, -0.0015, 1.027140625, 192.0, 0.0, 0.0, 0.0, 0.0, 0.0, 0.0, 0.0, 0.0, 0.0, 1.747689990272669E9, 0.0, 2025-05-19 23:26:30.272
172.0, 24177.367887183176, 20418.296208178548, 49034.139398829866, 33803.32545081681, 48568.396099614634, 6776.713642682272, 9683.222732928125, 4183.576009699823, 0.0, 0.0, 11498.854935032718, -20959.364886208165, 14339.515786113237, 4608.862651450951, -13801.330483118354, -32255.333036820062, 0.0596484375, -0.0015, 1.027140625, 192.0, 0.0, 0.0, 0.0, 0.0, 0.0, 0.0, 0.0, 0.0, 0.0, 1.74768999028069E9, 0.0, 2025-05-19 23:26:30.280
174.0, 24162.235756186936, 20397.03969920155, 49020.013096334114, 33771.049531823344, 48550.1123726502, 6739.341525952998, 9665.29663387497, 4170.008500815452, 0.0, 0.0, 11478.827772000763, -20982.49894171941, 14324.562469072638, 4578.821906903017, -13830.052474743425, -32273.28148761767, 0.06182421875, -0.00275, 1.0285703124999999, 192.0, 1.0, 0.0, 127.5, 112.0, 16.0, 24.0, 0.0, 0.0, 0.0, 1.74768999028774E9, 0.0, 2025-05-19 23:26:30.287
176.0, 24188.141428010636, 20422.341873924957, 49029.400829005346, 33788.461540754026, 48568.44080310355, 6742.560177154563, 9694.286846433502, 4185.453556234069, 0.0, 0.0, 11479.431269101056, -20977.894482361615, 14312.760748000235, 4579.045424347571, -13825.045683985434, -32281.618688299503, 0.06182421875, -0.00275, 1.0285703124999999, 192.0, 0.0, 0.0, 0.0, 0.0, 0.0, 0.0, 0.0, 0.0, 0.0, 1.747689990296751E9, 0.0, 2025-05-19 23:26:30.296
178.0, 24171.824654558262, 20403.544056838044, 49024.79636964755, 33785.533462230385, 48564.79746875733, 6738.492159663697, 9645.560043520933, 4165.426393202114, 0.0, 0.0, 11494.31753090829, -20968.28323224583, 14344.03083849321, 4601.91125892535, -13810.137070433746, -32260.00455141122, 0.06182421875, -0.00275, 1.0285703124999999, 192.0, 0.0, 0.0, 0.0, 0.0, 0.0, 0.0, 0.0, 0.0, 0.0, 1.747689990304805E9, 0.0, 2025-05-19 23:26:30.304
180.0, 24185.995660542925, 20419.413795401313, 49034.2735092966, 33782.98536336248, 48575.548657840336, 6723.80706355656, 9692.163430710249, 4175.775250884921, 0.0, 0.0, 11473.575112053766, -20988.86918888917, 14310.97260844381, 4563.488610206677, -13831.840614299848, -32290.58173782608, 0.06182421875, -0.00275, 1.0285703124999999, 192.0, 0.0, 0.0, 0.0, 0.0, 0.0, 0.0, 0.0, 0.0, 0.0, 1.747689990311833E9, 0.0, 2025-05-19 23:26:30.311
182.0, 24191.82946584576, 20425.605228615434, 49032.105390084434, 33799.45859902604, 48573.313483394806, 6757.960529084269, 9683.87093351733, 4162.565369911834, 0.0, 0.0, 11507.013321758905, -20956.123883262146, 14346.17660596092, 4605.86751769394, -13802.44807034112, -32260.988028167252, 0.06182421875, -0.00275, 1.0285703124999999, 192.0, 0.0, 0.0, 0.0, 0.0, 0.0, 0.0, 0.0, 0.0, 0.0, 1.747689990319878E9, 0.0, 2025-05-19 23:26:30.319
184.0, 24172.562262125288, 20405.13103069437, 49028.79733190505, 33776.436302237074, 48584.265838177904, 6734.938232295302, 9655.14894189226, 4169.650872904167, 0.0, 0.0, 11476.816114999785, -20987.48338073294, 14323.534288827694, 4568.897732364861, -13831.706503833117, -32284.993801712255, 0.061912109374999996, -0.004375, 1.03128515625, 192.0, 0.5, 120.0, 127.5, 104.0, 16.0, 40.0, 0.0, 0.0, 0.0, 1.747689990328888E9, 0.0, 2025-05-19 23:26:30.328
186.0, 24200.636053161154, 20435.28353396458, 49039.3250035435, 33800.03974438187, 48592.75950107092, 6739.4532846752745, 9694.242142944591, 4186.861716134753, 0.0, 0.0, 11496.508001864911, -20962.225909498444, 14330.910364497944, 4593.417596032333, -13801.554000562908, -32270.599278283036, 0.061912109374999996, -0.004375, 1.03128515625, 192.0, 0.0, 0.0, 0.0, 0.0, 0.0, 0.0, 0.0, 0.0, 0.0, 1.747689990339927E9, 0.0, 2025-05-19 23:26:30.339
188.0, 24166.728456822453, 20398.716080035698, 49008.770168873096, 33771.898898112646, 48561.5117623224, 6741.755514354171, 9638.742761462065, 4153.758782596443, 0.0, 0.0, 11482.024071457872, -20977.425095728053, 14335.581879089104, 4591.763566942641, -13821.290590916944, -32268.408807326414, 0.061912109374999996, -0.004375, 1.03128515625, 192.0, 0.0, 0.0, 0.0, 0.0, 0.0, 0.0, 0.0, 0.0, 0.0, 1.747689990345953E9, 0.0, 2025-05-19 23:26:30.345
190.0, 24193.2599774909, 20424.75586232613, 49030.56311971702, 33780.37020926121, 48575.92863749607, 6725.908127535359, 9682.887456761297, 4180.089137564795, 0.0, 0.0, 11461.438114814535, -20999.262750060887, 14302.702462995347, 4555.173761269303, -13846.771579595994, -32297.846054774054, 0.061912109374999996, -0.004375, 1.03128515625, 192.0, 0.0, 0.0, 0.0, 0.0, 0.0, 0.0, 0.0, 0.0, 0.0, 1.747689990352969E9, 0.0, 2025-05-19 23:26:30.352
192.0, 24190.778933856363, 20426.5216501381, 49030.4737127392, 33801.8278839383, 48582.3659398992, 6762.3414709975095, 9663.307328618446, 4174.6353119177, 0.0, 0.0, 11502.23004844547, -20954.96159255047, 14346.534233872204, 4614.182366631314, -13798.625922039262, -32253.99193215274, 0.061912109374999996, -0.004375, 1.03128515625, 192.0, 0.0, 0.0, 0.0, 0.0, 0.0, 0.0, 0.0, 0.0, 0.0, 1.747689990360977E9, 0.0, 2025-05-19 23:26:30.360
194.0, 24176.049134260313, 20410.47309761919, 49020.571889945495, 33773.10589231323, 48574.98986422895, 6738.961546297258, 9639.502720773546, 4161.403079200159, 0.0, 0.0, 11471.69756551952, -20986.142276065624, 14324.473062094816, 4574.217447545225, -13834.791044567948, -32276.38838009696, 0.0609560546875, -0.0051875, 1.0346425781250002, 192.0, 0.5, 112.0, 127.5, 104.0, 16.0, 56.0, 0.0, 0.0, 0.0, 1.747689990370035E9, 0.0, 2025-05-19 23:26:30.370
196.0, 24200.568997927785, 20438.47983342169, 49032.865349395914, 33796.843444924765, 48580.24252417595, 6751.791447614604, 9693.035148744006, 4187.8228411463315, 0.0, 0.0, 11491.948245996029, -20969.57963342424, 14327.490547596282, 4591.741215198185, -13810.964084978592, -32271.023961427687, 0.0609560546875, -0.0051875, 1.0346425781250002, 192.0, 0.0, 0.0, 0.0, 0.0, 0.0, 0.0, 0.0, 0.0, 0.0, 1.747689990375964E9, 0.0, 2025-05-19 23:26:30.375
198.0, 24173.97042202597, 20408.081460962472, 49018.627288177886, 33783.007715106934, 48569.312521137304, 6761.313290752565, 9645.761209221031, 4167.482753692002, 0.0, 0.0, 11483.342824380736, -20972.798284625806, 14339.046399479676, 4599.698436224275, -13822.11760546179, -32256.987065909754, 0.0609560546875, -0.0051875, 1.0346425781250002, 192.0, 0.0, 0.0, 0.0, 0.0, 0.0, 0.0, 0.0, 0.0, 0.0, 1.747689990384028E9, 0.0, 2025-05-19 23:26:30.384
200.0, 24194.578730413763, 20429.270914706103, 49036.732201186685, 33790.897880899654, 48596.24637320595, 6747.231691745722, 9690.978788254117, 4201.502108752979, 0.0, 0.0, 11470.065888174282, -20987.39397375512, 14311.486698566283, 4579.738328425686, -13818.563678093396, -32274.264964373706, 0.0609560546875, -0.0051875, 1.0346425781250002, 192.0, 0.0, 0.0, 0.0, 0.0, 0.0, 0.0, 0.0, 0.0, 0.0, 1.747689990393072E9, 0.0, 2025-05-19 23:26:30.393
202.0, 24183.939300053036, 20415.010501743618, 49023.231747535676, 33792.14957858915, 48570.631274060164, 6801.166451116378, 9682.306311405458, 4184.380672500214, 0.0, 0.0, 11498.117327465694, -20957.80026409629, 14341.50509136976, 4620.887889967906, -13791.003977180002, -32242.681949458358, 0.0609560546875, -0.0051875, 1.0346425781250002, 192.0, 0.0, 0.0, 0.0, 0.0, 0.0, 0.0, 0.0, 0.0, 0.0, 1.747689990400075E9, 0.0, 2025-05-19 23:26:30.400
204.0, 24160.44761663051, 20387.584911296955, 49006.44558744974, 33760.92419158509, 48551.073497661775, 6725.818720557538, 9657.495875060067, 4170.008500815452, 0.0, 0.0, 11447.64708848561, -21014.55134326832, 14294.231151846785, 4560.515828194121, -13846.592765640351, -32286.133740679474, 0.05747802734375, -0.004593750000000001, 1.0343212890625, 192.0, 0.5, 88.0, 127.5, 112.0, 16.0, 40.0, 0.0, 0.0, 0.0, 1.747689990408111E9, 0.0, 2025-05-19 23:26:30.408
206.0, 24190.421305945078, 20421.045472746548, 49029.28907028307, 33790.45084601055, 48584.93639051156, 6767.080040822035, 9685.971997496128, 4197.679960451122, 0.0, 0.0, 11474.89386497663, -20981.49311321892, 14308.245695620262, 4591.4953460091765, -13805.957294220603, -32266.061874158608, 0.05747802734375, -0.004593750000000001, 1.0343212890625, 192.0, 0.0, 0.0, 0.0, 0.0, 0.0, 0.0, 0.0, 0.0, 0.0, 1.747689990416164E9, 0.0, 2025-05-19 23:26:30.416
208.0, 24160.87229977516, 20385.819123484984, 49010.22303226269, 33772.3235812573, 48559.70127102152, 6753.601938915484, 9641.223805096604, 4168.756803125954, 0.0, 0.0, 11475.050327187817, -20984.622357442662, 14325.009503961743, 4597.820889690029, -13810.986436723048, -32255.57890600907, 0.05747802734375, -0.004593750000000001, 1.0343212890625, 192.0, 0.0, 0.0, 0.0, 0.0, 0.0, 0.0, 0.0, 0.0, 0.0, 1.747689990424174E9, 0.0, 2025-05-19 23:26:30.424
210.0, 24174.998602270916, 20400.906550992317, 49008.32313398399, 33758.64431365065, 48569.446631604034, 6716.542746608585, 9677.791259025485, 4177.831611374809, 0.0, 0.0, 11446.238928584926, -21016.473593291474, 14283.278797063685, 4549.697583877753, -13841.563623137907, -32295.834397773076, 0.05747802734375, -0.004593750000000001, 1.0343212890625, 192.0, 0.0, 0.0, 0.0, 0.0, 0.0, 0.0, 0.0, 0.0, 0.0, 1.747689990432232E9, 0.0, 2025-05-19 23:26:30.432
212.0, 24178.999564528414, 20406.695652806244, 49016.01213407661, 33783.34299127376, 48568.194933914536, 6761.4026977303865, 9665.162523408238, 4185.341797511792, 0.0, 0.0, 11483.186362169548, -20984.421191742564, 14320.762672515235, 4592.7246919542185, -13816.64142807024, -32263.536127035157, 0.05747802734375, -0.004593750000000001, 1.0343212890625, 192.0, 0.0, 0.0, 0.0, 0.0, 0.0, 0.0, 0.0, 0.0, 0.0, 1.747689990440243E9, 0.0, 2025-05-19 23:26:30.440
214.0, 24158.123035207158, 20386.13204790736, 49008.971334573194, 33760.007770062424, 48558.98601519895, 6748.014002801658, 9648.95750867814, 4171.01432931594, 0.0, 0.0, 11458.152408379605, -21009.58925599924, 14303.440070562372, 4560.962863083228, -13841.228346971076, -32280.121121420998, 0.05747802734375, -0.004593750000000001, 1.0343212890625, 192.0, 0.0, 0.0, 0.0, 0.0, 0.0, 0.0, 0.0, 0.0, 0.0, 1.747689990449337E9, 0.0, 2025-05-19 23:26:30.449
216.0, 24194.846951347226, 20429.60619087293, 49038.18506457628, 33801.02322113791, 48587.43978589056, 6760.24040701871, 9691.112898720849, 4202.753806442476, 0.0, 0.0, 11488.170801183081, -20978.34151725072, 14317.320503869118, 4584.365139527934, -13816.64142807024, -32269.593449782547, 0.058, -0.006, 1.036, 192.0, 0.5, 104.0, 127.5, 104.0, 16.0, 48.0, 0.0, 0.0, 0.0, 1.747689990456339E9, 0.0, 2025-05-19 23:26:30.456
218.0, 24172.517558636377, 20404.728699294174, 49024.014058591616, 33786.06990409731, 48561.26589313339, 6767.370613499954, 9654.657203514244, 4186.794660901387, 0.0, 0.0, 11493.401109385624, -20972.261842758875, 14342.153291958964, 4603.945267670782, -13812.036968712446, -32246.258228571205, 0.058, -0.006, 1.036, 192.0, 0.0, 0.0, 0.0, 0.0, 0.0, 0.0, 0.0, 0.0, 0.0, 1.747689990464335E9, 0.0, 2025-05-19 23:26:30.464
220.0, 24189.97427105597, 20417.268027933602, 49031.70305868424, 33781.86777613971, 48582.254181176926, 6732.546595638585, 9695.315026678447, 4204.899573910186, 0.0, 0.0, 11473.284539375847, -20994.166552325078, 14310.346759599062, 4567.489572464177, -13829.06899798739, -32280.72461852129, 0.058, -0.006, 1.036, 192.0, 0.0, 0.0, 0.0, 0.0, 0.0, 0.0, 0.0, 0.0, 0.0, 1.74768999047238E9, 0.0, 2025-05-19 23:26:30.472
222.0, 24184.207520986503, 20410.294283663545, 49029.378477260885, 33798.07279086981, 48575.4145473736, 6766.431840232831, 9670.43753509969, 4194.416605760647, 0.0, 0.0, 11503.101766479227, -20962.650592643095, 14339.292268668685, 4611.3883985744005, -13796.591913293829, -32249.566286750593, 0.058, -0.006, 1.036, 192.0, 0.0, 0.0, 0.0, 0.0, 0.0, 0.0, 0.0, 0.0, 0.0, 1.747689990480362E9, 0.0, 2025-05-19 23:26:30.480
224.0, 24172.96459352548, 20397.71025153521, 49022.65060217984, 33772.07771206829, 48559.14247741014, 6737.531034652118, 9665.922482719718, 4182.078442821317, 0.0, 0.0, 11464.366193338179, -20998.838066916236, 14311.956085199845, 4569.635339931887, -13831.460634644109, -32277.505967319725, 0.058, -0.006, 1.036, 192.0, 0.0, 0.0, 0.0, 0.0, 0.0, 0.0, 0.0, 0.0, 0.0, 1.747689990488395E9, 0.0, 2025-05-19 23:26:30.488
226.0, 24199.07143104928, 20424.599400114945, 49040.46494251072, 33796.48581701348, 48577.202686930024, 6740.2132439867555, 9695.404433656267, 4198.417568018147, 0.0, 0.0, 11493.021129729883, -20969.825502613246, 14324.718931283824, 4596.412729789345, -13798.335349361343, -32265.90541194742, 0.064, -0.002, 1.04, 192.0, 1.0, 0.0, 127.5, 120.0, 16.0, 64.0, 0.0, 0.0, 0.0, 1.747689990496379E9, 0.0, 2025-05-19 23:26:30.496
228.0, 24165.11913122167, 20384.299204862025, 49015.43098872078, 33767.60736317722, 48555.85677097521, 6736.1899299848, 9648.465770300123, 4168.913265337142, 0.0, 0.0, 11483.253417402913, -20986.119924321167, 14330.060998208643, 4594.579886744009, -13811.29936114542, -32266.084225903065, 0.064, -0.002, 1.04, 192.0, 0.0, 0.0, 0.0, 0.0, 0.0, 0.0, 0.0, 0.0, 0.0, 1.747689990504475E9, 0.0, 2025-05-19 23:26:30.504
230.0, 24188.387297199642, 20414.295245921046, 49026.718619670704, 33776.704523170534, 48572.732338038964, 6731.719581093738, 9689.749442309076, 4194.058977849362, 0.0, 0.0, 11461.885149703641, -21006.325901308766, 14298.25446584874, 4556.80543861454, -13832.958201522613, -32298.807179785632, 0.064, -0.002, 1.04, 192.0, 0.0, 0.0, 0.0, 0.0, 0.0, 0.0, 0.0, 0.0, 0.0, 1.747689990511544E9, 0.0, 2025-05-19 23:26:30.511
232.0, 24184.341631453233, 20411.836554030964, 49027.70209642674, 33792.529558244896, 48569.33487288176, 6751.1432470254, 9676.807782269452, 4186.660550434655, 0.0, 0.0, 11497.111498965205, -20962.71764787646, 14339.426379135417, 4605.532241527109, -13802.202201152111, -32260.42923455587, 0.064, -0.002, 1.04, 192.0, 0.0, 0.0, 0.0, 0.0, 0.0, 0.0, 0.0, 0.0, 0.0, 1.747689990520575E9, 0.0, 2025-05-19 23:26:30.520
234.0, 24170.617660357675, 20394.715117778196, 49019.521357956095, 33762.95820033052, 48559.83538148825, 6729.953793281769, 9653.807837224942, 4175.685843907099, 0.0, 0.0, 11465.796704983319, -21006.52706700886, 14308.536268298181, 4562.661595661831, -13835.841576557348, -32288.748894780743, 0.064, -0.002, 1.04, 192.0, 0.0, 0.0, 0.0, 0.0, 0.0, 0.0, 0.0, 0.0, 0.0, 1.747689990528606E9, 0.0, 2025-05-19 23:26:30.528
236.0, 24207.27452126438, 20442.547850912553, 49040.308480299536, 33800.062096126334, 48589.96553301401, 6756.597072672495, 9709.35192219638, 4212.901498425186, 0.0, 0.0, 11491.367100640191, -20972.731229392437, 14325.389483617484, 4590.668331464331, -13804.482079086552, -32270.308705605115, 0.062, -0.002, 1.028, 192.0, 0.5, 120.0, 127.5, 120.0, 16.0, 16.0, 0.0, 0.0, 0.0, 1.747689990536562E9, 0.0, 2025-05-19 23:26:30.536
238.0, 24172.338744680732, 20401.286530648056, 49014.983953831674, 33773.217651035506, 48555.677957019565, 6750.360935969465, 9640.62030799631, 4172.847172361276, 0.0, 0.0, 11487.254379660413, -20976.91100560558, 14339.851062280068, 4599.161994357347, -13812.439300112641, -32257.367045565494, 0.062, -0.002, 1.028, 192.0, 0.0, 0.0, 0.0, 0.0, 0.0, 0.0, 0.0, 0.0, 0.0, 1.747689990545634E9, 0.0, 2025-05-19 23:26:30.545
240.0, 24206.715727652994, 20435.238830475668, 49032.239500551164, 33782.96301161802, 48586.165736456605, 6746.069401034046, 9674.572607823922, 4197.903477895675, 0.0, 0.0, 11462.17572238156, -21001.25205531741, 14301.763689728225, 4555.173761269303, -13836.825053313381, -32295.454418117337, 0.062, -0.002, 1.028, 192.0, 0.0, 0.0, 0.0, 0.0, 0.0, 0.0, 0.0, 0.0, 0.0, 1.747689990552638E9, 0.0, 2025-05-19 23:26:30.552
242.0, 24204.972291585484, 20438.837461332972, 49038.16271283182, 33805.49357002897, 48578.610846830714, 6774.791392659115, 9666.973014709118, 4192.784928415409, 0.0, 0.0, 11516.311647452314, -20953.262859971866, 14351.675135096924, 4614.2717736091345, -13792.076860913858, -32247.331112305063, 0.062, -0.002, 1.028, 192.0, 0.0, 0.0, 0.0, 0.0, 0.0, 0.0, 0.0, 0.0, 0.0, 1.747689990560736E9, 0.0, 2025-05-19 23:26:30.560
244.0, 24183.69343086403, 20415.725757566186, 49029.06555283851, 33778.24679353795, 48571.45828860501, 6743.342488210498, 9649.762171478531, 4185.274742278426, 0.0, 0.0, 11475.743231265931, -20987.729249921947, 14323.757806272246, 4572.116383566426, -13828.241983442544, -32274.82375798509, 0.062, -0.002, 1.028, 192.0, 0.0, 0.0, 0.0, 0.0, 0.0, 0.0, 0.0, 0.0, 0.0, 1.747689990567714E9, 0.0, 2025-05-19 23:26:30.567
246.0, 24201.88775085065, 20435.5741066425, 49040.75551518864, 33799.77152344841, 48581.85184977673, 6749.9586045692695, 9697.840773801896, 4202.597344231289, 0.0, 0.0, 11492.618798329688, -20969.557281679783, 14327.445844107371, 4592.85880242095, -13804.258561642, -32267.470034059294, 0.066, -0.004, 1.026, 192.0, 1.0, 8.0, 127.5, 112.0, 16.0, 8.0, 0.0, 0.0, 0.0, 1.747689990576753E9, 0.0, 2025-05-19 23:26:30.576
248.0, 24177.63610811664, 20406.494487106145, 49020.81775913451, 33782.247755795455, 48555.78971574184, 6751.031488303124, 9653.33845059138, 4178.748032897476, 0.0, 0.0, 11490.51773435089, -20977.805075383792, 14338.956992501855, 4599.34080831299, -13811.142898934235, -32258.551688021624, 0.066, -0.004, 1.026, 192.0, 0.0, 0.0, 0.0, 0.0, 0.0, 0.0, 0.0, 0.0, 0.0, 1.747689990584786E9, 0.0, 2025-05-19 23:26:30.584
250.0, 24204.65936716311, 20435.19412698676, 49038.78856167657, 33789.6238314657, 48576.08509970726, 6756.328851739032, 9694.800936555976, 4203.938448898608, 0.0, 0.0, 11473.195132398027, -20985.449371987506, 14315.73353001279, 4568.495400964666, -13825.112739218801, -32282.53510982217, 0.066, -0.004, 1.026, 192.0, 0.0, 0.0, 0.0, 0.0, 0.0, 0.0, 0.0, 0.0, 0.0, 1.747689990591769E9, 0.0, 2025-05-19 23:26:30.591
252.0, 24189.862512333693, 20421.313693680015, 49028.21618654921, 33794.474160012505, 48572.15119268313, 6751.053840047579, 9676.003119469062, 4187.264047534949, 0.0, 0.0, 11503.32528392378, -20964.52813917734, 14343.472044881826, 4609.108520639958, -13796.860134227292, -32256.517679276192, 0.066, -0.004, 1.026, 192.0, 0.0, 0.0, 0.0, 0.0, 0.0, 0.0, 0.0, 0.0, 0.0, 1.747689990599822E9, 0.0, 2025-05-19 23:26:30.599
254.0, 24179.31248895079, 20410.540152852554, 49021.10833181242, 33773.24000277997, 48557.17552389807, 6731.943098538291, 9659.999270439062, 4178.502163708468, 0.0, 0.0, 11472.524580064366, -20991.39493601262, 14321.701445782357, 4568.674214920308, -13835.908631790715, -32279.405865598426, 0.066, -0.004, 1.026, 192.0, 0.0, 0.0, 0.0, 0.0, 0.0, 0.0, 0.0, 0.0, 0.0, 1.747689990608845E9, 0.0, 2025-05-19 23:26:30.608
0.0, 24200.345480483233, 20436.289362465068, 49031.59129996196, 33791.031991366384, 48580.980131742974, 6750.450342947286, 9698.041939501994, 4201.680922708621, 0.0, 0.0, 11489.26603666139, -20972.552415436796, 14325.83651850659, 4588.0308256186045, -13810.807622767405, -32272.566231795103, 0.064, -0.006, 1.03, 192.0, 1.0, 0.0, 127.5, 104.0, 16.0, 24.0, 0.0, 0.0, 0.0, 1.747689990616882E9, 0.0, 2025-05-19 23:26:30.616
2.0, 24168.69541033452, 20399.856019002917, 49009.48542469567, 33768.5684881888, 48571.123012438184, 6740.034430031113, 9636.90991841673, 4168.421526959125, 0.0, 0.0, 11481.80055401332, -20986.075220832256, 14332.899669754466, 4589.886020408395, -13818.40721588221, -32267.693551503846, 0.064, -0.006, 1.03, 192.0, 0.0, 0.0, 0.0, 0.0, 0.0, 0.0, 0.0, 0.0, 0.0, 1.74768999062391E9, 0.0, 2025-05-19 23:26:30.623
4.0, 24186.018012287383, 20416.23984768866, 49025.8692533814, 33768.52378469989, 48578.00734973042, 6733.57477588353, 9683.021567228028, 4191.779099914921, 0.0, 0.0, 11459.828789213752, -21009.142221110134, 14297.270989092707, 4549.071735033004, -13839.619021370296, -32304.082191477086, 0.064, -0.006, 1.03, 192.0, 0.0, 0.0, 0.0, 0.0, 0.0, 0.0, 0.0, 0.0, 0.0, 1.747689990631978E9, 0.0, 2025-05-19 23:26:30.631
6.0, 24175.557395882297, 20404.37107138289, 49012.90524159733, 33775.58693594777, 48565.98211121346, 6755.591244172007, 9667.241235642581, 4181.609056187756, 0.0, 0.0, 11491.210638429004, -20978.408572484088, 14331.73737904279, 4594.915162910839, -13805.823183753871, -32268.408807326414, 0.064, -0.006, 1.03, 192.0, 0.0, 0.0, 0.0, 0.0, 0.0, 0.0, 0.0, 0.0, 0.0, 1.747689990640971E9, 0.0, 2025-05-19 23:26:30.640
8.0, 24165.655573088596, 20392.32348112148, 49005.37270371589, 33752.34112171425, 48558.51662856539, 6707.825566271015, 9645.224767354104, 4170.030852559907, 0.0, 0.0, 11449.16700710857, -21018.798174714826, 14297.427451303894, 4549.630528644387, -13849.274974974987, -32300.662374575422, 0.064, -0.006, 1.03, 192.0, 0.0, 0.0, 0.0, 0.0, 0.0, 0.0, 0.0, 0.0, 0.0, 1.74768999065005E9, 0.0, 2025-05-19 23:26:30.650
10.0, 24186.576805898763, 20417.759766311618, 49020.41542773431, 33777.68799992657, 48574.58753282876, 6718.867328031937, 9696.656131345766, 4189.16394581365, 0.0, 0.0, 11474.64799578762, -20993.518351735875, 14310.659684021437, 4571.423479488311, -13821.625867083772, -32288.34656338055, 0.06, -0.002, 1.03, 192.0, 0.5, 112.0, 127.5, 120.0, 16.0, 24.0, 0.0, 0.0, 0.0, 1.747689990656044E9, 0.0, 2025-05-19 23:26:30.656
12.0, 24169.857701046196, 20400.101888191926, 49014.58162243148, 33770.20016553404, 48565.5127245799, 6734.200624728278, 9644.241290598071, 4175.194105529083, 0.0, 0.0, 11474.357423109703, -20992.736040679938, 14329.032817963698, 4582.174668571314, -13821.40234963922, -32273.080321917576, 0.06, -0.002, 1.03, 192.0, 0.0, 0.0, 0.0, 0.0, 0.0, 0.0, 0.0, 0.0, 0.0, 1.747689990664087E9, 0.0, 2025-05-19 23:26:30.664
14.0, 24185.12394250917, 20417.312731422513, 49023.097637068946, 33776.92804061509, 48572.33000663877, 6717.526223364619, 9688.833020786407, 4196.1600418281605, 0.0, 0.0, 11462.26512935938, -21003.62134022967, 14302.031910661688, 4555.263168247124, -13836.154500979723, -32296.281432662185, 0.06, -0.002, 1.03, 192.0, 0.0, 0.0, 0.0, 0.0, 0.0, 0.0, 0.0, 0.0, 0.0, 1.747689990673116E9, 0.0, 2025-05-19 23:26:30.673
16.0, 24178.64193661713, 20410.18252494127, 49028.14913131585, 33791.97076463351, 48565.400965857625, 6748.885720835415, 9667.91178797624, 4188.44868999108, 0.0, 0.0, 11491.456507618012, -20973.06650555927, 14337.705294812358, 4601.821851947529, -13799.095308672824, -32256.607086254015, 0.06, -0.002, 1.03, 192.0, 0.0, 0.0, 0.0, 0.0, 0.0, 0.0, 0.0, 0.0, 0.0, 1.747689990681138E9, 0.0, 2025-05-19 23:26:30.681
18.0, 24161.788721297828, 20392.144667165838, 49013.575793930984, 33758.219630506, 48553.46513431849, 6718.621458842928, 9651.170331379215, 4169.852038604265, 0.0, 0.0, 11467.495437561922, -21003.174305340566, 14314.124204412008, 4565.299101507557, -13833.271125944988, -32284.25619414523, 0.06, -0.002, 1.03, 192.0, 0.0, 0.0, 0.0, 0.0, 0.0, 0.0, 0.0, 0.0, 0.0, 1.747689990688192E9, 0.0, 2025-05-19 23:26:30.688
20.0, 24173.143407481126, 20408.908475507316, 49016.50387245463, 33774.894031869655, 48565.42331760208, 6720.789578055093, 9692.074023732428, 4194.1036813382725, 0.0, 0.0, 11467.853065473208, -21000.223875072465, 14305.295265352162, 4573.837467889484, -13817.446090870631, -32286.29020289066, 0.06, 0.0, 1.038, 192.0, 0.5, 112.0, 0.0, 0.0, 16.0, 56.0, 0.0, 0.0, 0.0, 1.747689990696179E9, 0.0, 2025-05-19 23:26:30.696
22.0, 24147.617715313165, 20378.823027470473, 48996.74493035614, 33754.129261270675, 48551.02879417286, 6724.56702286804, 9643.81660745342, 4169.069727548329, 0.0, 0.0, 11458.420629313068, -21006.839991431236, 14310.9279049549, 4577.167877813325, -13826.20797469711, -32277.8188917421, 0.06, 0.0, 1.038, 192.0, 0.0, 0.0, 0.0, 0.0, 0.0, 0.0, 0.0, 0.0, 0.0, 1.747689990704212E9, 0.0, 2025-05-19 23:26:30.704
24.0, 24165.20853819949, 20396.74912652363, 49008.479596195175, 33754.33042697077, 48560.2600646329, 6698.7731097666165, 9686.01670098504, 4188.962780113552, 0.0, 0.0, 11446.954184407496, -21017.345311325233, 14286.87742792099, 4548.378830954889, -13843.731742350072, -32302.91990076541, 0.06, 0.0, 1.038, 192.0, 0.0, 0.0, 0.0, 0.0, 0.0, 0.0, 0.0, 0.0, 0.0, 1.747689990712227E9, 0.0, 2025-05-19 23:26:30.712
26.0, 24150.92577349255, 20375.336155335448, 48995.7167501112, 33756.230325249475, 48557.57785529827, 6709.099615704968, 9666.4812763311, 4174.098870050772, 0.0, 0.0, 11461.594577025722, -21009.58925599924, 14305.45172756335, 4577.3466917689675, -13820.240058927544, -32282.423351099893, 0.06, 0.0, 1.038, 192.0, 0.0, 0.0, 0.0, 0.0, 0.0, 0.0, 0.0, 0.0, 0.0, 1.747689990720329E9, 0.0, 2025-05-19 23:26:30.720
28.0, 24134.20666863998, 20360.092265616928, 48985.32318893948, 33728.84943829173, 48544.569140025276, 6690.391205595876, 9642.34139231937, 4166.543980424879, 0.0, 0.0, 11432.380847022636, -21036.612515045705, 14278.62963421698, 4538.052325016538, -13859.959108824625, -32310.944177024863, 0.06, 0.0, 1.038, 192.0, 0.0, 0.0, 0.0, 0.0, 0.0, 0.0, 0.0, 0.0, 0.0, 1.74768999072932E9, 0.0, 2025-05-19 23:26:30.729
30.0, 24154.613811327676, 20381.974623438673, 48993.57098264348, 33750.62003739119, 48555.409736086105, 6700.874173745415, 9683.5356573505, 4182.8384021327975, 0.0, 0.0, 11439.376943037147, -21032.276276621375, 14273.265215547708, 4548.378830954889, -13841.78714058246, -32309.357203168536, 0.06, -0.002, 1.034, 192.0, 0.5, 112.0, 127.5, 120.0, 16.0, 40.0, 0.0, 0.0, 0.0, 1.74768999073534E9, 0.0, 2025-05-19 23:26:30.735
32.0, 24134.229020384435, 20363.93676566324, 48985.345540683935, 33736.359624428704, 48548.190122627035, 6709.144319193879, 9637.111084116827, 4158.363241954236, 0.0, 0.0, 11441.969745393963, -21025.101366651223, 14295.102869880542, 4560.716993894219, -13841.183643482167, -32292.794560527156, 0.06, -0.002, 1.034, 192.0, 0.0, 0.0, 0.0, 0.0, 0.0, 0.0, 0.0, 0.0, 0.0, 1.747689990744374E9, 0.0, 2025-05-19 23:26:30.744
34.0, 24147.818881013263, 20373.90564369031, 49008.412540961814, 33747.714310612006, 48561.7129280225, 6680.556438035541, 9672.695061289676, 4179.932675353608, 0.0, 0.0, 11437.119416847161, -21035.49492782294, 14270.694764935348, 4534.252528459136, -13854.192358755156, -32320.667185862923, 0.06, -0.002, 1.034, 192.0, 0.0, 0.0, 0.0, 0.0, 0.0, 0.0, 0.0, 0.0, 0.0, 1.747689990752395E9, 0.0, 2025-05-19 23:26:30.752
36.0, 24140.152232665092, 20371.625765755864, 48991.22404947568, 33748.474269923485, 48546.5584452818, 6718.688514076294, 9656.333584348391, 4165.627558902212, 0.0, 0.0, 11456.163103123083, -21018.552305525816, 14296.645140247958, 4570.3058922655455, -13824.68805607415, -32294.20272042784, 0.06, -0.002, 1.034, 192.0, 0.0, 0.0, 0.0, 0.0, 0.0, 0.0, 0.0, 0.0, 0.0, 1.747689990760422E9, 0.0, 2025-05-19 23:26:30.760
38.0, 24144.332008878235, 20368.56357676549, 48994.17447974378, 33737.34310118474, 48535.8072561988, 6681.361100835932, 9643.682496986687, 4159.324366965815, 0.0, 0.0, 11438.460521514478, -21034.556154555816, 14284.329329053084, 4537.225310471691, -13861.970765825603, -32315.772153827213, 0.06, -0.002, 1.034, 192.0, 0.0, 0.0, 0.0, 0.0, 0.0, 0.0, 0.0, 0.0, 0.0, 1.747689990767487E9, 0.0, 2025-05-19 23:26:30.767
40.0, 24148.422378113555, 20374.64325125733, 48999.605953646416, 33752.49758392544, 48552.70517500701, 6684.199772381756, 9678.618273570333, 4181.519649209935, 0.0, 0.0, 11450.776332709353, -21016.808869458302, 14286.25157907624, 4555.173761269303, -13835.483948646064, -32307.43495314538, 0.06, -0.002, 1.034, 192.0, 0.5, 112.0, 127.5, 120.0, 16.0, 40.0, 0.0, 0.0, 0.0, 1.747689990777498E9, 0.0, 2025-05-19 23:26:30.777
42.0, 24134.34077910671, 20362.618012740375, 48986.73134884016, 33741.411118675605, 48529.14643635112, 6713.793482040583, 9643.704848731142, 4163.414736201136, 0.0, 0.0, 11446.060114629283, -21025.30253235132, 14297.315692581618, 4556.4478107032555, -13849.342030208354, -32301.020002486708, 0.06, -0.002, 1.034, 192.0, 0.0, 0.0, 0.0, 0.0, 0.0, 0.0, 0.0, 0.0, 0.0, 1.747689990787539E9, 0.0, 2025-05-19 23:26:30.787
44.0, 24147.707122290984, 20373.74918147912, 48994.0627210215, 33738.617150618695, 48549.240654616435, 6686.457298571742, 9669.409354854746, 4170.813163615842, 0.0, 0.0, 11432.157329578082, -21036.567811556793, 14269.130142823476, 4525.065961488004, -13865.278824004989, -32325.472810920815, 0.06, -0.002, 1.034, 192.0, 0.0, 0.0, 0.0, 0.0, 0.0, 0.0, 0.0, 0.0, 0.0, 1.747689990794618E9, 0.0, 2025-05-19 23:26:30.794
