%OpenBCI Raw EXG Data
%Number of channels = 16
%Sample Rate = 125 Hz
%Board = OpenBCI_GUI$BoardCytonSerialDaisy
Sample Index, EXG Channel 0, EXG Channel 1, EXG Channel 2, EXG Channel 3, EXG Channel 4, EXG Channel 5, EXG Channel 6, EXG Channel 7, EXG Channel 8, EXG Channel 9, EXG Channel 10, EXG Channel 11, EXG Channel 12, EXG Channel 13, EXG Channel 14, EXG Channel 15, Accel Channel 0, Accel Channel 1, Accel Channel 2, Not Used, Digital Channel 0 (D11), Digital Channel 1 (D12), Digital Channel 2 (D13), Digital Channel 3 (D17), Not Used, Digital Channel 4 (D18), Analog Channel 0, Analog Channel 1, Analog Channel 2, Timestamp, Marker Channel, Timestamp (Formatted)
164.0, 22788.095210563566, 19158.440131955165, 48536.00842189889, 34054.15672709426, 44000.37008528353, 1697.4138256804736, 8291.804288840805, 7799.283599768115, 0.0, 0.0, 7774.517866911634, -25961.081798205592, 17126.219526078647, 5268.842609982802, -8637.250499397576, -31233.344225090055, 0.03, 0.0, 0.516, 192.0, 0.5, 112.0, 0.0, 0.0, 16.0, 32.0, 0.0, 0.0, 0.0, 1.747691196408326E9, 0.0, 2025-05-19 23:46:36.408
0.0, 11358.642442064578, 9640.843825440863, 24336.445252471596, 17120.11749984235, 22496.449648910722, 924.4234471825895, 4064.1506390751174, 4034.9145573275755, 0.0, 0.0, 3891.9975032803422, -12973.153647560317, 8565.07671655139, 2640.255110294236, -4305.549479192434, -15614.66045554405, 0.056, -0.002, 1.026, 192.0, 0.5, 96.0, 127.5, 120.0, 16.0, 8.0, 0.0, 0.0, 0.0, 1.747691196531941E9, 0.0, 2025-05-19 23:46:36.531
2.0, 22708.143020646934, 19272.255214721587, 48659.68062397011, 34220.2748918861, 44975.28612319066, 1852.8702083671342, 8084.693024717931, 8060.039050583727, 0.0, 0.0, 7662.379164979358, -26112.537218634752, 17669.433971575974, 5523.250165373107, -7978.0528519216605, -31045.63427515439, 0.056, -0.002, 1.026, 192.0, 0.0, 0.0, 0.0, 0.0, 0.0, 0.0, 0.0, 0.0, 0.0, 1.747691196537902E9, 0.0, 2025-05-19 23:46:36.537
4.0, 22715.899075972924, 19277.95490955769, 48667.07905138482, 34221.03485119758, 44978.66123660341, 1834.4300191915058, 8122.266307147302, 8082.346091550124, 0.0, 0.0, 7654.734868375644, -26130.35155896563, 17648.289221321254, 5496.9198104047555, -7994.123756185027, -31071.316429533534, 0.056, -0.002, 1.026, 192.0, 0.0, 0.0, 0.0, 0.0, 0.0, 0.0, 0.0, 0.0, 0.0, 1.747691196545969E9, 0.0, 2025-05-19 23:46:36.545
6.0, 22713.932122460857, 19276.23382523463, 48671.527048531425, 34239.653854328855, 44983.64567561694, 1886.8001564502904, 8111.403359342023, 8070.097335588615, 0.0, 0.0, 7671.8786563728645, -26110.793782567238, 17670.663317521015, 5529.776874754057, -7964.619453504021, -31039.599304151456, 0.056, -0.002, 1.026, 192.0, 0.0, 0.0, 0.0, 0.0, 0.0, 0.0, 0.0, 0.0, 0.0, 1.747691196554012E9, 0.0, 2025-05-19 23:46:36.554
8.0, 22708.59005553604, 19271.13762749882, 48666.34144381779, 34224.45466809925, 44973.94501852334, 1857.9217026140336, 8088.559876508699, 8075.238236813336, 0.0, 0.0, 7660.143990533828, -26118.68394835996, 17662.415523817006, 5509.682656488736, -7992.3132648841465, -31054.329103747503, 0.062, 0.0, 1.03, 192.0, 0.5, 120.0, 0.0, 0.0, 16.0, 24.0, 0.0, 0.0, 0.0, 1.747691196561021E9, 0.0, 2025-05-19 23:46:36.561
10.0, 22717.843677740537, 19283.274624738053, 48675.48330730001, 34243.96774100873, 44989.90416406443, 1847.9975280758774, 8126.401379871533, 8078.948626392917, 0.0, 0.0, 7664.122601046873, -26109.743250577838, 17663.086076150666, 5522.825482228456, -7969.201561117359, -31043.51085943113, 0.062, 0.0, 1.03, 192.0, 0.0, 0.0, 0.0, 0.0, 0.0, 0.0, 0.0, 0.0, 0.0, 1.747691196569117E9, 0.0, 2025-05-19 23:46:36.569
12.0, 22708.791221236137, 19271.830531576936, 48664.57565600582, 34228.99207222367, 44977.789518569654, 1858.9275311145225, 8073.897132146018, 8064.062364585682, 0.0, 0.0, 7666.916569103786, -26108.60331161062, 17676.005384445834, 5528.927508464755, -7975.325939098113, -31035.196010493757, 0.062, 0.0, 1.03, 192.0, 0.0, 0.0, 0.0, 0.0, 0.0, 0.0, 0.0, 0.0, 0.0, 1.747691196577995E9, 0.0, 2025-05-19 23:46:36.577
14.0, 22722.62695105397, 19282.022927048558, 48682.12177540324, 34239.49739211767, 44984.7185593508, 1841.0461355502769, 8108.3635220961005, 8082.279036316757, 0.0, 0.0, 7664.077897557962, -26121.232047227866, 17657.02875340328, 5505.748749464602, -7989.988683460794, -31058.5312317051, 0.062, 0.0, 1.03, 192.0, 0.0, 0.0, 0.0, 0.0, 0.0, 0.0, 0.0, 0.0, 0.0, 1.747691196586061E9, 0.0, 2025-05-19 23:46:36.586
16.0, 22722.358730120508, 19285.085116038932, 48681.00418818047, 34251.99201726819, 44980.33761743756, 1882.843897681701, 8102.0826819041595, 8066.968091364872, 0.0, 0.0, 7685.312054790504, -26089.31375614569, 17687.0247944623, 5541.735058037646, -7957.3327848115905, -31025.540056889065, 0.062, 0.0, 1.03, 192.0, 0.0, 0.0, 0.0, 0.0, 0.0, 0.0, 0.0, 0.0, 0.0, 1.747691196593111E9, 0.0, 2025-05-19 23:46:36.593
18.0, 22724.437442354854, 19281.642947392815, 48677.87494395673, 34234.49060135968, 44974.59321911255, 1843.3260134847183, 8088.626931742065, 8080.289731060235, 0.0, 0.0, 7665.888388858842, -26108.245683699333, 17670.26098612082, 5512.56603152347, -7990.033386949705, -31051.825708368506, 0.062, -0.004, 1.034, 192.0, 0.5, 120.0, 127.5, 112.0, 16.0, 40.0, 0.0, 0.0, 0.0, 1.747691196601146E9, 0.0, 2025-05-19 23:46:36.601
20.0, 22728.125480189978, 19285.465095694675, 48679.68543525761, 34244.83945904249, 44993.21222224381, 1870.7516039313798, 8113.303257620723, 8076.467582758378, 0.0, 0.0, 7678.941807620741, -26096.3098521602, 17677.279433879787, 5528.100493919908, -7962.294872080669, -31038.61582739542, 0.062, -0.004, 1.034, 192.0, 0.0, 0.0, 0.0, 0.0, 0.0, 0.0, 0.0, 0.0, 0.0, 1.747691196610137E9, 0.0, 2025-05-19 23:46:36.610
22.0, 22718.44717484083, 19279.09484852491, 48671.169420620135, 34228.41092686784, 44986.57375414059, 1859.2851590258074, 8081.250856071813, 8063.995309352316, 0.0, 0.0, 7676.393708752837, -26107.77629706577, 17679.894587981056, 5524.770083996068, -7978.209314132848, -31040.515725674122, 0.062, -0.004, 1.034, 192.0, 0.0, 0.0, 0.0, 0.0, 0.0, 0.0, 0.0, 0.0, 0.0, 1.747691196617162E9, 0.0, 2025-05-19 23:46:36.617
24.0, 22718.35776786301, 19277.999613046602, 48679.126641646224, 34227.20393266725, 44989.7700535977, 1832.977155801911, 8114.666714032497, 8068.108030332092, 0.0, 0.0, 7669.0623365714955, -26126.775279852784, 17657.319326081197, 5501.747787207101, -7990.413366605445, -31068.05307484306, 0.062, -0.004, 1.034, 192.0, 0.0, 0.0, 0.0, 0.0, 0.0, 0.0, 0.0, 0.0, 0.0, 1.747691196625211E9, 0.0, 2025-05-19 23:46:36.625
26.0, 22720.145907419435, 19282.849941593402, 48676.73500498951, 34245.08532823149, 44992.474614676794, 1887.4707087839497, 8110.576344797176, 8073.986539123838, 0.0, 0.0, 7677.8689238868865, -26100.891959773537, 17679.134628669577, 5529.7321712651465, -7967.212255860836, -31039.711062873732, 0.062, -0.004, 1.034, 192.0, 0.0, 0.0, 0.0, 0.0, 0.0, 0.0, 0.0, 0.0, 0.0, 1.747691196634258E9, 0.0, 2025-05-19 23:46:36.634
28.0, 22709.528828803162, 19265.61674661836, 48661.044080381886, 34215.08928717247, 44979.64471335944, 1855.3065485127627, 8079.663882215486, 8066.543408220221, 0.0, 0.0, 7659.652252155812, -26114.16889597999, 17663.667221506505, 5505.346418064406, -7993.922590484928, -31060.073502072515, 0.058, -0.006, 1.034, 192.0, 0.5, 104.0, 127.5, 104.0, 16.0, 40.0, 0.0, 0.0, 0.0, 1.74769119664229E9, 0.0, 2025-05-19 23:46:36.642
30.0, 22716.72609051777, 19277.776095602047, 48671.97408342053, 34235.09409845997, 44995.00036180024, 1866.1471445735867, 8120.612278057609, 8077.004024625305, 0.0, 0.0, 7656.008917809596, -26119.756832093815, 17653.184253356965, 5508.274496588051, -7978.477535066311, -31062.91217361834, 0.058, -0.006, 1.034, 192.0, 0.0, 0.0, 0.0, 0.0, 0.0, 0.0, 0.0, 0.0, 0.0, 1.747691196649298E9, 0.0, 2025-05-19 23:46:36.649
32.0, 22714.02152943868, 19269.48359840913, 48667.07905138482, 34223.02415645411, 44983.28804770566, 1837.6263186486149, 8075.685271702442, 8059.0555738276935, 0.0, 0.0, 7670.626958683367, -26116.22525646988, 17672.697326266447, 5523.630145028847, -7975.169476886926, -31046.505993188144, 0.058, -0.006, 1.034, 192.0, 0.0, 0.0, 0.0, 0.0, 0.0, 0.0, 0.0, 0.0, 0.0, 1.747691196657369E9, 0.0, 2025-05-19 23:46:36.657
34.0, 22712.658073026905, 19268.790694331015, 48676.131507889215, 34229.77438327961, 44984.7185593508, 1827.7021441104584, 8109.235240129858, 8071.773716422763, 0.0, 0.0, 7665.642519669834, -26121.477916416876, 17656.268794091797, 5498.283266816529, -7992.62618930652, -31070.556470222054, 0.058, -0.006, 1.034, 192.0, 0.0, 0.0, 0.0, 0.0, 0.0, 0.0, 0.0, 0.0, 0.0, 1.747691196666378E9, 0.0, 2025-05-19 23:46:36.666
36.0, 22725.018587710692, 19289.39900271881, 48674.36572007724, 34243.40894739735, 44977.63305635846, 1877.7029964569804, 8107.514155806799, 8064.330585519146, 0.0, 0.0, 7673.398574995826, -26106.12226797608, 17677.480599579885, 5532.213214899685, -7963.747735470264, -31038.19114425077, 0.058, -0.006, 1.034, 192.0, 0.0, 0.0, 0.0, 0.0, 0.0, 0.0, 0.0, 0.0, 0.0, 1.74769119667239E9, 0.0, 2025-05-19 23:46:36.672
38.0, 22713.328625360566, 19272.076400765945, 48663.81569669434, 34218.68791802978, 44959.50579160521, 1829.1550075000534, 8080.133268849047, 8064.688213430431, 0.0, 0.0, 7663.0720690574735, -26111.173762222978, 17667.377611086085, 5502.641856985314, -8000.270485910236, -31063.33685676299, 0.054, -0.008, 1.03, 192.0, 0.5, 88.0, 127.5, 96.0, 16.0, 24.0, 0.0, 0.0, 0.0, 1.747691196682391E9, 0.0, 2025-05-19 23:46:36.682
40.0, 22724.191573165845, 19280.301842725497, 48673.695167743586, 34238.580970595, 44986.37258844049, 1841.3814117171064, 8123.540356581254, 8077.808687425696, 0.0, 0.0, 7667.989452837641, -26115.130020991568, 17662.862558706114, 5510.755540222591, -7979.416308333434, -31059.71587416123, 0.054, -0.008, 1.03, 192.0, 0.0, 0.0, 0.0, 0.0, 0.0, 0.0, 0.0, 0.0, 0.0, 1.747691196689448E9, 0.0, 2025-05-19 23:46:36.689
42.0, 22714.110936416502, 19272.34462169941, 48666.63201649571, 34229.41675536832, 44970.63696034395, 1879.4464325244944, 8071.55019897821, 8059.815533139174, 0.0, 0.0, 7674.247941285127, -26110.972596522883, 17676.9218059685, 5519.9868106826325, -7986.39005260349, -31046.19306876577, 0.054, -0.008, 1.03, 192.0, 0.0, 0.0, 0.0, 0.0, 0.0, 0.0, 0.0, 0.0, 0.0, 1.747691196698441E9, 0.0, 2025-05-19 23:46:36.698
44.0, 22720.883514986457, 19279.452476436196, 48677.29379860089, 34232.523647847614, 44987.82545183009, 1857.6087781916594, 8106.933010450961, 8075.5511612357095, 0.0, 0.0, 7672.951540106719, -26114.30300644672, 17665.991802929857, 5501.010179640077, -7992.134450928504, -31065.661438186344, 0.054, -0.008, 1.03, 192.0, 0.0, 0.0, 0.0, 0.0, 0.0, 0.0, 0.0, 0.0, 0.0, 1.747691196707521E9, 0.0, 2025-05-19 23:46:36.707
46.0, 22722.224619653778, 19278.91603456927, 48672.53287703191, 34240.61497934043, 44993.458091432825, 1857.2064467914638, 8096.65120800152, 8054.719335403363, 0.0, 0.0, 7673.42092674028, -26102.523637118775, 17680.49808508135, 5527.765217753079, -7968.3074913391465, -31041.029815796595, 0.054, -0.008, 1.03, 192.0, 0.0, 0.0, 0.0, 0.0, 0.0, 0.0, 0.0, 0.0, 0.0, 1.747691196715461E9, 0.0, 2025-05-19 23:46:36.715
48.0, 22718.514230074197, 19271.875235065847, 48665.7379467175, 34215.78219125059, 44978.214201714305, 1821.7342283408916, 8074.83590541314, 8071.281978044746, 0.0, 0.0, 7661.306281245504, -26119.2650937158, 17665.522416296295, 5498.9761708946435, -8001.924514999929, -31067.62839169841, 0.06, -0.008, 1.038, 192.0, 0.5, 112.0, 127.5, 96.0, 16.0, 56.0, 0.0, 0.0, 0.0, 1.747691196722541E9, 0.0, 2025-05-19 23:46:36.722
50.0, 22731.522945347184, 19281.77705785955, 48676.71265324506, 34232.74716529217, 45004.25398400474, 1836.4863796813943, 8113.616182043098, 8058.4073732384895, 0.0, 0.0, 7676.393708752837, -26112.380756423565, 17670.439800076463, 5508.56506926597, -7981.62913103451, -31063.53802246309, 0.06, -0.008, 1.038, 192.0, 0.0, 0.0, 0.0, 0.0, 0.0, 0.0, 0.0, 0.0, 0.0, 1.747691196730546E9, 0.0, 2025-05-19 23:46:36.730
52.0, 22716.390814350943, 19267.00255477459, 48657.892484413685, 34213.43525808278, 44983.35510293902, 1836.3522692146623, 8072.019585611772, 8067.124553576059, 0.0, 0.0, 7674.85143838542, -26125.50123041883, 17673.03260243328, 5512.387217567828, -7989.184020660404, -31058.374769493912, 0.06, -0.008, 1.038, 192.0, 0.0, 0.0, 0.0, 0.0, 0.0, 0.0, 0.0, 0.0, 0.0, 1.747691196737582E9, 0.0, 2025-05-19 23:46:36.737
54.0, 22728.34899763453, 19284.973357316656, 48677.36085383426, 34234.35649089295, 44986.97608554079, 1840.7555628723578, 8112.498594820332, 8091.175030609969, 0.0, 0.0, 7662.334461490448, -26115.107669247114, 17660.2697563493, 5497.120976104853, -7999.644637065487, -31071.383484766902, 0.06, -0.008, 1.038, 192.0, 0.0, 0.0, 0.0, 0.0, 0.0, 0.0, 0.0, 0.0, 0.0, 1.747691196745584E9, 0.0, 2025-05-19 23:46:36.745
56.0, 22719.453003341318, 19277.932557813234, 48667.034347895904, 34234.84822927097, 44984.42798667288, 1880.6757784695362, 8105.994237183838, 8065.179951808447, 0.0, 0.0, 7667.341252248437, -26102.993023752337, 17676.586529801672, 5525.239470629629, -7972.084936152093, -31044.51668793162, 0.06, -0.008, 1.038, 192.0, 0.0, 0.0, 0.0, 0.0, 0.0, 0.0, 0.0, 0.0, 0.0, 1.747691196754596E9, 0.0, 2025-05-19 23:46:36.754
58.0, 22715.608503295007, 19273.1492844998, 48660.97702514852, 34209.97073769221, 44972.02276850018, 1829.4008766890618, 8078.009853125794, 8061.290748273224, 0.0, 0.0, 7659.048755055518, -26120.628550127574, 17661.275584849787, 5493.209420825175, -8007.557154602666, -31073.842176656985, 0.054, -0.004, 1.036, 192.0, 0.5, 88.0, 127.5, 112.0, 16.0, 48.0, 0.0, 0.0, 0.0, 1.747691196760648E9, 0.0, 2025-05-19 23:46:36.760
60.0, 22720.97292196428, 19276.926729312745, 48665.26856008394, 34225.39344136637, 44982.32692269408, 1825.1540452425536, 8124.590888570654, 8059.659070927986, 0.0, 0.0, 7666.357775492404, -26119.2650937158, 17660.336811582663, 5499.669074972758, -7990.167497416437, -31073.14927257887, 0.054, -0.004, 1.036, 192.0, 0.0, 0.0, 0.0, 0.0, 0.0, 0.0, 0.0, 0.0, 0.0, 1.74769119676973E9, 0.0, 2025-05-19 23:46:36.769
62.0, 22712.38985209344, 19268.67893560874, 48660.44058328159, 34214.57519705, 44970.83812604405, 1856.4017839910728, 8080.334434549146, 8055.032259825738, 0.0, 0.0, 7669.196447038227, -26121.99200653935, 17670.59626228765, 5506.285191331529, -8000.58341033261, -31065.437920741788, 0.054, -0.004, 1.036, 192.0, 0.0, 0.0, 0.0, 0.0, 0.0, 0.0, 0.0, 0.0, 0.0, 1.74769119677771E9, 0.0, 2025-05-19 23:46:36.777
64.0, 22714.334453861054, 19269.349487942396, 48666.49790602898, 34219.96196746373, 44982.21516397181, 1825.5340248982936, 8121.148719924537, 8084.1789345954585, 0.0, 0.0, 7660.389859722836, -26125.07654727418, 17655.866462691603, 5492.203592324686, -8001.768052788741, -31077.887842403394, 0.054, -0.004, 1.036, 192.0, 0.0, 0.0, 0.0, 0.0, 0.0, 0.0, 0.0, 0.0, 0.0, 1.747691196784716E9, 0.0, 2025-05-19 23:46:36.784
66.0, 22711.20520963731, 19266.80138907449, 48663.413365294145, 34234.06591821503, 44990.84293733155, 1839.7720861163243, 8116.27603963328, 8077.540466492233, 0.0, 0.0, 7664.100249302417, -26113.766564579793, 17670.819779732203, 5526.200595641208, -7971.10145939606, -31043.33204547549, 0.054, -0.004, 1.036, 192.0, 0.0, 0.0, 0.0, 0.0, 0.0, 0.0, 0.0, 0.0, 0.0, 1.747691196793763E9, 0.0, 2025-05-19 23:46:36.793
68.0, 22701.63866301044, 19255.804330802483, 48653.77976343391, 34207.221473124206, 44967.865344031496, 1833.0889145241874, 8092.471431788377, 8086.950550907916, 0.0, 0.0, 7654.1537230198055, -26126.618817641596, 17657.498140036838, 5497.344493549406, -8003.578544089622, -31067.114301575937, 0.06, -0.002, 1.03, 192.0, 0.5, 112.0, 127.5, 120.0, 16.0, 24.0, 0.0, 0.0, 0.0, 1.747691196801856E9, 0.0, 2025-05-19 23:46:36.801
70.0, 22717.217828895788, 19273.506912411085, 48668.867190941244, 34234.334139148494, 44991.2676204762, 1827.880958066101, 8138.091342221659, 8094.863068445095, 0.0, 0.0, 7658.668775399778, -26123.64603562904, 17656.559366769718, 5508.810938454979, -7981.204447889859, -31058.978266594204, 0.06, -0.002, 1.03, 192.0, 0.0, 0.0, 0.0, 0.0, 0.0, 0.0, 0.0, 0.0, 0.0, 1.747691196810845E9, 0.0, 2025-05-19 23:46:36.810
72.0, 22709.461773569798, 19264.76738032906, 48661.84874318227, 34227.427450111805, 44976.94015228035, 1842.3201849842294, 8083.374271795067, 8080.110917104593, 0.0, 0.0, 7667.631824926356, -26113.230122712866, 17675.424239089996, 5520.9032322053, -7981.405613589956, -31044.181411764792, 0.06, -0.002, 1.03, 192.0, 0.0, 0.0, 0.0, 0.0, 0.0, 0.0, 0.0, 0.0, 0.0, 1.747691196816909E9, 0.0, 2025-05-19 23:46:36.816
74.0, 22717.664863784896, 19281.82176134846, 48660.66410072614, 34222.10773493144, 44975.39788191293, 1840.7555628723578, 8117.617144300598, 8089.923332920473, 0.0, 0.0, 7650.108057273395, -26116.292311703244, 17653.810102201714, 5489.029644612032, -8005.009055734761, -31072.38931326739, 0.06, -0.002, 1.03, 192.0, 0.0, 0.0, 0.0, 0.0, 0.0, 0.0, 0.0, 0.0, 0.0, 1.747691196825947E9, 0.0, 2025-05-19 23:46:36.825
76.0, 22710.73582300375, 19267.00255477459, 48665.022690894926, 34233.574179837015, 44975.39788191293, 1902.6698950135583, 8113.2362023873575, 8075.908789146994, 0.0, 0.0, 7664.256711513604, -26108.200980210422, 17673.50198906684, 5523.786607240035, -7972.397860574468, -31041.81212685253, 0.06, -0.002, 1.03, 192.0, 0.0, 0.0, 0.0, 0.0, 0.0, 0.0, 0.0, 0.0, 0.0, 1.74769119683397E9, 0.0, 2025-05-19 23:46:36.833
78.0, 22717.97778820727, 19264.05212450649, 48663.614530994244, 34210.14955164785, 44973.90031503443, 1789.4806610918833, 8078.792164181729, 8067.996271609816, 0.0, 0.0, 7660.233397511649, -26128.339901964653, 17661.364991827606, 5493.634103969825, -8008.093596469593, -31071.53994697809, 0.062, 0.002, 1.034, 192.0, 0.5, 120.0, 0.0, 8.0, 16.0, 40.0, 0.0, 0.0, 0.0, 1.747691196840943E9, 0.0, 2025-05-19 23:46:36.840
80.0, 22733.847526770536, 19277.552578157494, 48684.669874271145, 34240.65968282935, 44995.22387924479, 1825.8245975762127, 8128.882423506073, 8072.868951901073, 0.0, 0.0, 7676.416060497291, -26118.728651848873, 17671.870311721603, 5514.8235577134565, -7976.354119343057, -31059.067673572026, 0.062, 0.002, 1.034, 192.0, 0.0, 0.0, 0.0, 0.0, 0.0, 0.0, 0.0, 0.0, 0.0, 1.747691196849003E9, 0.0, 2025-05-19 23:46:36.849
82.0, 22736.440329127352, 19278.08902002442, 48670.09653688628, 34223.717060532224, 44978.25890520321, 1813.2182137034195, 8068.219789054369, 8054.741687147819, 0.0, 0.0, 7682.495734989136, -26109.564436622197, 17687.874160751602, 5526.2676508745735, -7978.00814843275, -31046.05895829904, 0.062, 0.002, 1.034, 192.0, 0.0, 0.0, 0.0, 0.0, 0.0, 0.0, 0.0, 0.0, 0.0, 1.747691196858051E9, 0.0, 2025-05-19 23:46:36.858
84.0, 22743.570535608596, 19281.82176134846, 48671.88467644271, 34220.05137444155, 44990.06062627562, 1795.0238937167996, 8116.32074312219, 8068.532713476743, 0.0, 0.0, 7668.6600051713, -26125.188305996457, 17664.717753495905, 5496.13749934882, -8000.292837654691, -31075.317391791035, 0.062, 0.002, 1.034, 192.0, 0.0, 0.0, 0.0, 0.0, 0.0, 0.0, 0.0, 0.0, 0.0, 1.747691196865073E9, 0.0, 2025-05-19 23:46:36.865
86.0, 22749.896079289447, 19286.71679338417, 48673.09167064329, 34230.66845305782, 44993.05576003263, 1825.846949320668, 8105.413091828, 8058.1168005605705, 0.0, 0.0, 7677.846572142431, -26116.35936693661, 17680.54278857026, 5522.624316528359, -7974.320110597624, -31052.920943846817, 0.062, 0.002, 1.034, 192.0, 0.0, 0.0, 0.0, 0.0, 0.0, 0.0, 0.0, 0.0, 0.0, 1.747691196873106E9, 0.0, 2025-05-19 23:46:36.873
88.0, 22754.94757353635, 19291.030680064046, 48671.6388072537, 34212.20591213774, 44976.62722785798, 1821.778931829802, 8077.8980944035175, 8058.161504049481, 0.0, 0.0, 7676.796040153032, -26125.434175185466, 17675.468942578907, 5496.85275517139, -8004.986703990306, -31073.86452840144, 0.062, -0.002, 1.036, 192.0, 0.5, 120.0, 127.5, 120.0, 16.0, 48.0, 0.0, 0.0, 0.0, 1.747691196881139E9, 0.0, 2025-05-19 23:46:36.881
90.0, 22760.356695694532, 19296.685671411236, 48680.22187712454, 34234.132973448395, 44994.88860307796, 1813.2405654478748, 8123.719170536897, 8071.237274555836, 0.0, 0.0, 7685.3791100238695, -26119.08627976016, 17677.704117024437, 5509.347380321906, -7983.43962233539, -31065.95201086426, 0.062, -0.002, 1.036, 192.0, 0.0, 0.0, 0.0, 0.0, 0.0, 0.0, 0.0, 0.0, 0.0, 1.747691196890094E9, 0.0, 2025-05-19 23:46:36.890
92.0, 22750.991314767758, 19286.71679338417, 48666.34144381779, 34219.29141513007, 44976.09078599105, 1800.6118298306264, 8070.901998389006, 8058.228559282847, 0.0, 0.0, 7684.306226290015, -26112.425459912476, 17687.58358807368, 5518.511595548582, -7988.938151471395, -31053.680903158296, 0.062, -0.002, 1.036, 192.0, 0.0, 0.0, 0.0, 0.0, 0.0, 0.0, 0.0, 0.0, 0.0, 1.747691196897112E9, 0.0, 2025-05-19 23:46:36.897
94.0, 22752.332419435075, 19288.259063751586, 48665.91676067314, 34211.15538014834, 44981.09757674904, 1776.2931318632523, 8105.055463916715, 8065.470524486366, 0.0, 0.0, 7668.101211559918, -26131.916181077504, 17660.82854996068, 5487.465022500161, -8009.524108114733, -31084.10162736197, 0.062, -0.002, 1.036, 192.0, 0.0, 0.0, 0.0, 0.0, 0.0, 0.0, 0.0, 0.0, 0.0, 1.747691196905183E9, 0.0, 2025-05-19 23:46:36.905
96.0, 22752.712399090815, 19288.281415496043, 48662.02755713792, 34213.90464471634, 44983.93624829486, 1808.010257245333, 8090.437423042945, 8050.584262679132, 0.0, 0.0, 7675.700804674721, -26128.56341940921, 17673.63609953357, 5509.146214621808, -7990.212200905347, -31065.14734806387, 0.062, -0.002, 1.036, 192.0, 0.0, 0.0, 0.0, 0.0, 0.0, 0.0, 0.0, 0.0, 0.0, 1.747691196913219E9, 0.0, 2025-05-19 23:46:36.913
98.0, 22747.951477521834, 19281.128857270345, 48658.92066465863, 34193.229281095184, 44978.03538775866, 1769.0064631708221, 8065.02348959726, 8047.544425433211, 0.0, 0.0, 7662.379164979358, -26145.729559150885, 17656.134683625067, 5476.8926473728, -8020.096483242093, -31096.35038332348, 0.066, -0.008, 1.042, 192.0, 1.0, 8.0, 127.5, 96.0, 16.0, 72.0, 0.0, 0.0, 0.0, 1.747691196921241E9, 0.0, 2025-05-19 23:46:36.921
100.0, 22757.719189848805, 19291.92474984226, 48666.207333351056, 34209.25548186964, 44992.98870479926, 1779.5564865537272, 8109.525812807777, 8058.899111616506, 0.0, 0.0, 7667.430659226258, -26138.197021269443, 17656.805235958724, 5487.845002155901, -7994.347273629579, -31089.600156497978, 0.066, -0.008, 1.042, 192.0, 0.0, 0.0, 0.0, 0.0, 0.0, 0.0, 0.0, 0.0, 0.0, 1.747691196929285E9, 0.0, 2025-05-19 23:46:36.929
102.0, 22750.097244989545, 19282.91699682677, 48654.3832605342, 34196.60439450794, 44964.08789921855, 1784.9656087119115, 8066.11872507557, 8055.54634994821, 0.0, 0.0, 7671.051641828018, -26133.301989233732, 17670.26098612082, 5491.264819057563, -8005.701959812875, -31083.20755758376, 0.066, -0.008, 1.042, 192.0, 0.0, 0.0, 0.0, 0.0, 0.0, 0.0, 0.0, 0.0, 0.0, 1.747691196937291E9, 0.0, 2025-05-19 23:46:36.937
104.0, 22763.30712596263, 19294.316386498976, 48672.37641482073, 34208.65198476934, 44983.444509916844, 1759.9093031775121, 8098.975789424871, 8073.830076912651, 0.0, 0.0, 7663.541455691035, -26140.119271292602, 17654.34654406864, 5467.840190868401, -8022.219898965347, -31105.58165378352, 0.066, -0.008, 1.042, 192.0, 0.0, 0.0, 0.0, 0.0, 0.0, 0.0, 0.0, 0.0, 0.0, 1.747691196947273E9, 0.0, 2025-05-19 23:46:36.947
106.0, 22763.240070729265, 19297.959720845192, 48676.623246267234, 34225.616958810926, 44981.87988780498, 1811.8324055471905, 8095.6230277565755, 8071.17021932247, 0.0, 0.0, 7682.674548944778, -26125.523582163285, 17678.329965869187, 5508.676827988247, -7985.96536945884, -31067.494281231677, 0.066, -0.008, 1.042, 192.0, 0.0, 0.0, 0.0, 0.0, 0.0, 0.0, 0.0, 0.0, 0.0, 1.747691196954348E9, 0.0, 2025-05-19 23:46:36.954
108.0, 22763.865919574015, 19300.28430226854, 48669.76126071945, 34210.350717347945, 44968.200620198324, 1763.977320668378, 8073.4948007458215, 8076.0205478692715, 0.0, 0.0, 7671.275159272571, -26124.517753662796, 17672.0714774217, 5486.570952721948, -8022.510471643266, -31084.81688318454, 0.064, -0.007, 1.042, 192.0, 0.5, 120.0, 127.5, 104.0, 16.0, 72.0, 0.0, 0.0, 0.0, 1.747691196961376E9, 0.0, 2025-05-19 23:46:36.961
110.0, 22774.572405168106, 19310.610808206893, 48681.89825795869, 34231.406060624846, 44980.516431393204, 1791.0676349482103, 8119.472339090388, 8079.775640937763, 0.0, 0.0, 7683.278046045071, -26114.660634358006, 17680.855712992634, 5507.670999487758, -7992.156802672959, -31069.14831032137, 0.064, -0.007, 1.042, 192.0, 0.0, 0.0, 0.0, 0.0, 0.0, 0.0, 0.0, 0.0, 0.0, 1.747691196969409E9, 0.0, 2025-05-19 23:46:36.969
112.0, 22758.725018349294, 19293.377613231853, 48655.88082741271, 34203.4216765668, 44954.431945613855, 1783.1104139221209, 8067.3927745095225, 8046.78446612173, 0.0, 0.0, 7685.3791100238695, -26121.45556467242, 17687.091849695666, 5505.033493642031, -8008.92061101444, -31071.584650466997, 0.064, -0.007, 1.042, 192.0, 0.0, 0.0, 0.0, 0.0, 0.0, 0.0, 0.0, 0.0, 0.0, 1.747691196977441E9, 0.0, 2025-05-19 23:46:36.977
114.0, 22771.93489932238, 19304.15115405931, 48671.951731676076, 34211.825932481996, 44982.21516397181, 1782.395158099551, 8099.244010358336, 8057.982690093839, 0.0, 0.0, 7674.292644774037, -26131.84912584414, 17666.952927941435, 5475.931522361222, -8027.852538568085, -31098.96553742475, 0.064, -0.007, 1.042, 192.0, 0.0, 0.0, 0.0, 0.0, 0.0, 0.0, 0.0, 0.0, 0.0, 1.747691196985456E9, 0.0, 2025-05-19 23:46:36.985
116.0, 22768.805655098637, 19301.513648213586, 48663.882751927704, 34215.603377294945, 44982.37162618299, 1814.8051875597464, 8095.488917289844, 8051.657146412987, 0.0, 0.0, 7684.99913036813, -26123.40016644003, 17683.35910837163, 5508.632124499336, -7990.279256138713, -31069.461234743743, 0.064, -0.007, 1.042, 192.0, 0.0, 0.0, 0.0, 0.0, 0.0, 0.0, 0.0, 0.0, 0.0, 1.747691196993489E9, 0.0, 2025-05-19 23:46:36.993
118.0, 22759.999067783247, 19293.53407544304, 48654.51737100093, 34200.359487576425, 44965.71957656379, 1740.5079889903056, 8077.451059514411, 8051.679498157442, 0.0, 0.0, 7666.447182470225, -26133.950189822935, 17667.042334919257, 5481.0724235859425, -8025.282087955724, -31090.44952278728, 0.06, -0.0055, 1.0390000000000001, 192.0, 0.5, 96.0, 127.5, 112.0, 16.0, 48.0, 0.0, 0.0, 0.0, 1.747691197001498E9, 0.0, 2025-05-19 23:46:37.001
120.0, 22774.527701679195, 19308.06270933899, 48666.989644407, 34221.548941320056, 44990.64177163145, 1770.9957684273445, 8114.420844843489, 8055.725163903852, 0.0, 0.0, 7673.867961629387, -26129.83746884316, 17667.131741897076, 5496.964513893666, -7995.084881196604, -31079.228947070715, 0.06, -0.0055, 1.0390000000000001, 192.0, 0.0, 0.0, 0.0, 0.0, 0.0, 0.0, 0.0, 0.0, 0.0, 1.747691197009573E9, 0.0, 2025-05-19 23:46:37.009
122.0, 22763.865919574015, 19292.550598687005, 48648.527103486915, 34201.65588875483, 44969.65348358792, 1777.0977946636433, 8068.778582665752, 8042.82820735314, 0.0, 0.0, 7679.411194254303, -26126.663521130507, 17677.9723379579, 5504.854679686389, -7998.1247184425265, -31072.277554545115, 0.06, -0.0055, 1.0390000000000001, 192.0, 0.0, 0.0, 0.0, 0.0, 0.0, 0.0, 0.0, 0.0, 0.0, 1.747691197018642E9, 0.0, 2025-05-19 23:46:37.018
124.0, 22768.246861487256, 19297.557389444995, 48653.9362256451, 34203.84635971145, 44975.50964063521, 1764.983149168867, 8108.229411629369, 8050.539559190222, 0.0, 0.0, 7659.875769600364, -26143.896716105548, 17650.300878322232, 5475.663301427759, -8017.973067518839, -31099.01024091366, 0.06, -0.0055, 1.0390000000000001, 192.0, 0.0, 0.0, 0.0, 0.0, 0.0, 0.0, 0.0, 0.0, 0.0, 1.747691197025638E9, 0.0, 2025-05-19 23:46:37.025
126.0, 22764.514120163218, 19299.72550865716, 48648.504751742454, 34208.42846732479, 44975.979027268775, 1768.2241521148865, 8096.494745790333, 8036.4579601833775, 0.0, 0.0, 7669.934054605253, -26129.569247909698, 17671.423276832495, 5503.223002341152, -7991.732119528308, -31075.3844470244, 0.06, -0.0055, 1.0390000000000001, 192.0, 0.0, 0.0, 0.0, 0.0, 0.0, 0.0, 0.0, 0.0, 0.0, 1.747691197033633E9, 0.0, 2025-05-19 23:46:37.033
128.0, 22763.374181196, 19295.232808021643, 48650.896388399175, 34199.48776954267, 44961.31628290609, 1767.5983032701379, 8089.543353264732, 8058.653242427497, 0.0, 0.0, 7647.917586316775, -26142.68972190496, 17655.754703969324, 5474.9703973496435, -8025.907936800473, -31097.333860079514, 0.057999999999999996, -0.00475, 1.0355, 192.0, 0.5, 96.0, 127.5, 112.0, 16.0, 32.0, 0.0, 0.0, 0.0, 1.747691197040673E9, 0.0, 2025-05-19 23:46:37.040
130.0, 22777.74635288076, 19311.43782275174, 48665.82735369532, 34223.04650819856, 44990.12768150898, 1821.7565800853467, 8136.079685220681, 8068.59976871011, 0.0, 0.0, 7679.18767680975, -26121.433212927965, 17672.004422188333, 5500.607848239881, -7985.741852014286, -31072.72458943422, 0.057999999999999996, -0.00475, 1.0355, 192.0, 0.0, 0.0, 0.0, 0.0, 0.0, 0.0, 0.0, 0.0, 0.0, 1.747691197049809E9, 0.0, 2025-05-19 23:46:37.049
132.0, 22769.766780110214, 19303.994691848122, 48658.69714721408, 34206.729734746186, 44969.45231788782, 1806.7585595558357, 8087.59875149712, 8053.467637713867, 0.0, 0.0, 7674.314996518493, -26128.384605453564, 17676.586529801672, 5500.496089517605, -7998.214125420347, -31072.54577547858, 0.057999999999999996, -0.00475, 1.0355, 192.0, 0.0, 0.0, 0.0, 0.0, 0.0, 0.0, 0.0, 0.0, 0.0, 1.747691197057767E9, 0.0, 2025-05-19 23:46:37.057
134.0, 22777.299317991652, 19311.326064029465, 48669.068356641335, 34210.68599351478, 44974.12383247898, 1758.5458467657384, 8125.864938004606, 8067.862161143084, 0.0, 0.0, 7666.916569103786, -26138.733463136374, 17660.0685906492, 5480.580685207926, -8007.579506347121, -31091.321240821035, 0.057999999999999996, -0.00475, 1.0355, 192.0, 0.0, 0.0, 0.0, 0.0, 0.0, 0.0, 0.0, 0.0, 0.0, 1.747691197064788E9, 0.0, 2025-05-19 23:46:37.064
136.0, 22770.280870232687, 19307.190991305233, 48666.67671998462, 34221.124258175405, 44978.705940092324, 1784.8314982451795, 8112.923277964984, 8050.4278004679445, 0.0, 0.0, 7683.009825111607, -26116.85110531463, 17683.560274071726, 5515.672924002758, -7972.599026274565, -31059.179432294302, 0.057999999999999996, -0.00475, 1.0355, 192.0, 0.0, 0.0, 0.0, 0.0, 0.0, 0.0, 0.0, 0.0, 0.0, 1.7476911970728E9, 0.0, 2025-05-19 23:46:37.072
138.0, 22763.709457362827, 19297.289168511532, 48655.076164612314, 34200.918281187805, 44964.95961725231, 1745.6935937039368, 8086.101184618615, 8049.824303367652, 0.0, 0.0, 7664.122601046873, -26132.22910549988, 17663.622518017593, 5482.525286975538, -8013.525070372233, -31087.34263030799, 0.059, -0.004375, 1.0317500000000002, 192.0, 0.5, 112.0, 127.5, 112.0, 16.0, 16.0, 0.0, 0.0, 0.0, 1.747691197081822E9, 0.0, 2025-05-19 23:46:37.081
140.0, 22776.27113774671, 19308.35328201691, 48665.91676067314, 34220.073726186005, 44985.836146573565, 1767.0395096587552, 8125.529661837776, 8055.5910534371205, 0.0, 0.0, 7668.548246449023, -26129.524544420787, 17662.147302883543, 5495.019912126054, -7988.915799726939, -31078.401932525867, 0.059, -0.004375, 1.0317500000000002, 192.0, 0.0, 0.0, 0.0, 0.0, 0.0, 0.0, 0.0, 0.0, 0.0, 1.747691197088848E9, 0.0, 2025-05-19 23:46:37.088
142.0, 22763.865919574015, 19293.10939229839, 48648.504751742454, 34199.64423175385, 44966.52423936418, 1767.263027103308, 8072.913655389983, 8033.127550259537, 0.0, 0.0, 7668.727060404666, -26130.508021176818, 17671.065648921212, 5498.059749371976, -7996.805965519663, -31074.892708646385, 0.059, -0.004375, 1.0317500000000002, 192.0, 0.0, 0.0, 0.0, 0.0, 0.0, 0.0, 0.0, 0.0, 0.0, 1.747691197098883E9, 0.0, 2025-05-19 23:46:37.098
144.0, 22767.106922520034, 19299.747860401614, 48650.762277932445, 34200.515949787616, 44962.8138497846, 1750.8344949286575, 8112.722112264885, 8045.599823665599, 0.0, 0.0, 7657.260615499094, -26143.65084691654, 17650.77026495579, 5469.404812980272, -8017.995419263294, -31102.20654037077, 0.059, -0.004375, 1.0317500000000002, 192.0, 0.0, 0.0, 0.0, 0.0, 0.0, 0.0, 0.0, 0.0, 0.0, 1.747691197105868E9, 0.0, 2025-05-19 23:46:37.105
146.0, 22770.683201632884, 19309.58262796195, 48659.47945827001, 34213.34585110496, 44970.92753302187, 1784.6973877784478, 8098.685216746952, 8041.196530007903, 0.0, 0.0, 7668.637653426845, -26132.87730608908, 17667.712887252914, 5499.80318543949, -7997.1859451754035, -31077.731380192206, 0.059, -0.004375, 1.0317500000000002, 192.0, 0.0, 0.0, 0.0, 0.0, 0.0, 0.0, 0.0, 0.0, 0.0, 1.747691197113899E9, 0.0, 2025-05-19 23:46:37.113
148.0, 22793.906664121947, 19336.047093397035, 48675.930342189116, 34221.79481050907, 44973.18505921186, 1782.5963237996489, 8092.493783532833, 8067.884512887539, 0.0, 0.0, 7673.130354062361, -26125.747099607837, 17672.630271033082, 5496.584534237925, -8004.450262123378, -31079.944202893283, 0.058499999999999996, -0.0041875, 1.031875, 192.0, 0.5, 104.0, 127.5, 112.0, 16.0, 32.0, 0.0, 0.0, 0.0, 1.74769119712092E9, 0.0, 2025-05-19 23:46:37.120
150.0, 22803.339100282086, 19341.612677766407, 48697.5444790774, 34252.506107390655, 44997.012018801215, 1831.7701616013244, 8138.292507921757, 8083.486030517344, 0.0, 0.0, 7701.137089864861, -26093.672346314474, 17697.328948656195, 5529.9109852207885, -7961.5572645136435, -31046.349530976957, 0.058499999999999996, -0.0041875, 1.031875, 192.0, 0.0, 0.0, 0.0, 0.0, 0.0, 0.0, 0.0, 0.0, 0.0, 1.74769119712894E9, 0.0, 2025-05-19 23:46:37.128
152.0, 22792.386745498985, 19327.329913059464, 48672.711690987555, 34224.25350239915, 44964.33376840756, 1761.9880154118557, 8076.534637991744, 8049.712544645375, 0.0, 0.0, 7694.364511294903, -26107.239855198844, 17698.223018434408, 5523.741903751124, -7982.72436651282, -31050.99869382366, 0.058499999999999996, -0.0041875, 1.031875, 192.0, 0.0, 0.0, 0.0, 0.0, 0.0, 0.0, 0.0, 0.0, 0.0, 1.747691197137973E9, 0.0, 2025-05-19 23:46:37.137
154.0, 22798.108792079543, 19332.470814284185, 48684.40165333768, 34232.00955772514, 44981.47755640478, 1768.3806143260736, 8121.886327491561, 8069.695004188419, 0.0, 0.0, 7684.306226290015, -26112.850143057127, 17681.88389323758, 5498.953819150188, -7999.0634917096495, -31072.702237689766, 0.058499999999999996, -0.0041875, 1.031875, 192.0, 0.0, 0.0, 0.0, 0.0, 0.0, 0.0, 0.0, 0.0, 0.0, 1.747691197144954E9, 0.0, 2025-05-19 23:46:37.144
156.0, 22789.36925999752, 19323.172488590775, 48671.48234504251, 34230.64610131337, 44971.44162314435, 1756.2659688312972, 8103.22262087138, 8046.046858554704, 0.0, 0.0, 7694.923304906286, -26105.854047042616, 17694.713794554926, 5526.111188663386, -7973.761316986242, -31048.495298444668, 0.058499999999999996, -0.0041875, 1.031875, 192.0, 0.0, 0.0, 0.0, 0.0, 0.0, 0.0, 0.0, 0.0, 0.0, 1.747691197153051E9, 0.0, 2025-05-19 23:46:37.153
158.0, 22773.633631900982, 19309.023834350566, 48665.42502229512, 34209.34488884746, 44960.28810266115, 1775.4661173184058, 8079.88739966004, 8042.738800375319, 0.0, 0.0, 7671.677490672767, -26129.79276535425, 17671.11035241012, 5490.70602544618, -8014.374436661535, -31081.464121516245, 0.05925, -0.00209375, 1.0319375000000002, 192.0, 0.5, 112.0, 0.0, 0.0, 16.0, 32.0, 0.0, 0.0, 0.0, 1.747691197161086E9, 0.0, 2025-05-19 23:46:37.161
160.0, 22791.98441409879, 19321.25023856762, 48670.72238573103, 34225.527551833104, 44973.00624525622, 1748.4205065274843, 8127.161339183014, 8053.065306313671, 0.0, 0.0, 7680.372319265881, -26116.98521578136, 17678.665242036015, 5506.665170987269, -7986.993549703783, -31069.505938232654, 0.05925, -0.00209375, 1.0319375000000002, 192.0, 0.0, 0.0, 0.0, 0.0, 0.0, 0.0, 0.0, 0.0, 0.0, 1.747691197170139E9, 0.0, 2025-05-19 23:46:37.170
162.0, 22776.405248213443, 19309.023834350566, 48665.91676067314, 34215.893949972866, 44961.115117206, 1759.752840966325, 8068.800934410207, 8038.380210206535, 0.0, 0.0, 7678.338310520448, -26124.74127110735, 17680.96747171491, 5504.1394238638195, -8001.097500455082, -31070.310601033045, 0.05925, -0.00209375, 1.0319375000000002, 192.0, 0.0, 0.0, 0.0, 0.0, 0.0, 0.0, 0.0, 0.0, 0.0, 1.747691197177113E9, 0.0, 2025-05-19 23:46:37.177
164.0, 22791.64913793196, 19321.67492171227, 48671.8399729538, 34220.81133375303, 44975.24141970175, 1745.5818349816604, 8111.984504697861, 8051.768905135264, 0.0, 0.0, 7677.734813420155, -26120.092108260647, 17674.731335011882, 5487.08504284442, -8004.942000501395, -31084.68277271781, 0.05925, -0.00209375, 1.0319375000000002, 192.0, 0.0, 0.0, 0.0, 0.0, 0.0, 0.0, 0.0, 0.0, 0.0, 1.747691197186156E9, 0.0, 2025-05-19 23:46:37.186
166.0, 22785.278890762198, 19317.91982864378, 48667.459031040555, 34221.414830853326, 44976.5154691357, 1756.176561853476, 8099.065196402693, 8040.838902096618, 0.0, 0.0, 7687.882505402864, -26115.621759369584, 17687.78475377378, 5509.414435555272, -7985.853610736563, -31065.840252141985, 0.05925, -0.00209375, 1.0319375000000002, 192.0, 0.0, 0.0, 0.0, 0.0, 0.0, 0.0, 0.0, 0.0, 0.0, 1.747691197193156E9, 0.0, 2025-05-19 23:46:37.193
168.0, 22781.009707571237, 19313.740052430636, 48666.699071729076, 34207.60145277995, 44960.668082316886, 1772.2474661168417, 8085.855315429607, 8048.907881844984, 0.0, 0.0, 7671.319862761482, -26132.36321596661, 17673.680803022482, 5485.65453119928, -8011.938096515906, -31085.375676795924, 0.056624999999999995, -0.004046875, 1.03396875, 192.0, 0.5, 88.0, 127.5, 104.0, 16.0, 48.0, 0.0, 0.0, 0.0, 1.747691197201184E9, 0.0, 2025-05-19 23:46:37.201
170.0, 22795.65010018946, 19331.0626543835, 48676.73500498951, 34231.339005391485, 44979.4658994038, 1734.9647563653896, 8124.724999037386, 8044.281070742735, 0.0, 0.0, 7688.553057736523, -26113.386584924054, 17685.951910728447, 5504.586458752926, -7981.495020567778, -31068.05307484306, 0.056624999999999995, -0.004046875, 1.03396875, 192.0, 0.0, 0.0, 0.0, 0.0, 0.0, 0.0, 0.0, 0.0, 0.0, 1.747691197209221E9, 0.0, 2025-05-19 23:46:37.209
172.0, 22784.56363493963, 19319.35034028892, 48662.429888538114, 34212.07180167101, 44958.74583229373, 1745.8500559151241, 8077.36165253659, 8040.794198607708, 0.0, 0.0, 7685.736737935154, -26116.113497747603, 17691.137515442075, 5503.826499441445, -7994.257866651758, -31067.20370855376, 0.056624999999999995, -0.004046875, 1.03396875, 192.0, 0.0, 0.0, 0.0, 0.0, 0.0, 0.0, 0.0, 0.0, 0.0, 1.747691197216226E9, 0.0, 2025-05-19 23:46:37.216
174.0, 22798.93580662439, 19321.54081124554, 48671.54940027588, 34215.2233976392, 44966.05485273062, 1740.9773756238671, 8103.4908418048435, 8059.748477905808, 0.0, 0.0, 7668.414135982292, -26130.418614199, 17669.67984076498, 5475.842115383401, -8013.435663394412, -31091.611813498952, 0.056624999999999995, -0.004046875, 1.03396875, 192.0, 0.0, 0.0, 0.0, 0.0, 0.0, 0.0, 0.0, 0.0, 0.0, 1.747691197225247E9, 0.0, 2025-05-19 23:46:37.225
176.0, 22793.19140829938, 19326.83817468145, 48679.46191781306, 34234.24473217067, 44972.64861734493, 1756.3553758091184, 8104.586077283154, 8046.382134721534, 0.0, 0.0, 7696.867906673898, -26114.191247724444, 17698.401832390053, 5516.075255402953, -7974.901255953462, -31055.312580503534, 0.056624999999999995, -0.004046875, 1.03396875, 192.0, 0.0, 0.0, 0.0, 0.0, 0.0, 0.0, 0.0, 0.0, 0.0, 1.747691197233299E9, 0.0, 2025-05-19 23:46:37.233
178.0, 22785.12242855101, 19313.807107664004, 48664.55330426137, 34211.624766781904, 44955.2589601587, 1752.4438205294396, 8067.638643698531, 8042.045896297204, 0.0, 0.0, 7681.266389044094, -26121.679082116974, 17684.49904733885, 5487.599132966892, -8009.412349392456, -31080.10066510447, 0.0573125, -0.0060234375, 1.0339843750000002, 192.0, 0.5, 104.0, 127.5, 96.0, 16.0, 40.0, 0.0, 0.0, 0.0, 1.747691197241333E9, 0.0, 2025-05-19 23:46:37.241
180.0, 22791.358565254042, 19321.160831589797, 48675.505659044466, 34232.791868781074, 44974.302646434626, 1750.6780327174704, 8125.6190688155975, 8062.743611662819, 0.0, 0.0, 7681.355796021914, -26114.2135994689, 17682.129762426586, 5507.156909365286, -7979.550418800166, -31061.61577243993, 0.0573125, -0.0060234375, 1.0339843750000002, 192.0, 0.0, 0.0, 0.0, 0.0, 0.0, 0.0, 0.0, 0.0, 0.0, 1.747691197249335E9, 0.0, 2025-05-19 23:46:37.249
182.0, 22770.593794655062, 19302.363014502887, 48658.89831291417, 34209.47899931419, 44952.28617814615, 1742.2737768022748, 8071.192571066925, 8043.297593986702, 0.0, 0.0, 7679.411194254303, -26125.27771297428, 17682.93442522698, 5508.609772754881, -7988.222895648825, -31060.67699917281, 0.0573125, -0.0060234375, 1.0339843750000002, 192.0, 0.0, 0.0, 0.0, 0.0, 0.0, 0.0, 0.0, 0.0, 0.0, 1.747691197257361E9, 0.0, 2025-05-19 23:46:37.257
184.0, 22778.17103602541, 19309.739090173138, 48656.77489719092, 34205.79096147906, 44965.71957656379, 1703.1358722610323, 8093.723129477875, 8048.840826611618, 0.0, 0.0, 7666.000147581119, -26138.04055905826, 17660.649736005038, 5476.155039805775, -8010.284067426213, -31090.114246620447, 0.0573125, -0.0060234375, 1.0339843750000002, 192.0, 0.0, 0.0, 0.0, 0.0, 0.0, 0.0, 0.0, 0.0, 0.0, 1.747691197265399E9, 0.0, 2025-05-19 23:46:37.265
186.0, 22788.27402451921, 19316.06463385399, 48658.54068500289, 34214.88812147237, 44965.87603877497, 1740.2621198012973, 8094.259571344802, 8033.216957237359, 0.0, 0.0, 7679.008862854107, -26124.920085062993, 17679.44755309195, 5500.227868584141, -7990.033386949705, -31068.410702754347, 0.0573125, -0.0060234375, 1.0339843750000002, 192.0, 0.0, 0.0, 0.0, 0.0, 0.0, 0.0, 0.0, 0.0, 0.0, 1.747691197272399E9, 0.0, 2025-05-19 23:46:37.272
188.0, 22781.322631993608, 19306.095755826922, 48647.85655115325, 34194.05629564003, 44947.391146110436, 1719.8996806025125, 8073.271283301268, 8046.605652166088, 0.0, 0.0, 7665.240188269639, -26137.705282891427, 17667.221148874898, 5474.121031060342, -8020.163538475459, -31091.991793154695, 0.06065625, -0.006011718750000001, 1.0359921875000002, 192.0, 1.0, 0.0, 127.5, 104.0, 16.0, 56.0, 0.0, 0.0, 0.0, 1.747691197281413E9, 0.0, 2025-05-19 23:46:37.281
190.0, 22784.89891110646, 19313.225962308166, 48660.03825188139, 34214.977528450196, 44969.273503932185, 1740.753858179314, 8122.914507736506, 8066.588111709132, 0.0, 0.0, 7669.889351116342, -26129.815117098704, 17668.182273886476, 5490.683673701725, -7994.3696253740345, -31078.223118570226, 0.06065625, -0.006011718750000001, 1.0359921875000002, 192.0, 0.0, 0.0, 0.0, 0.0, 0.0, 0.0, 0.0, 0.0, 0.0, 1.747691197289456E9, 0.0, 2025-05-19 23:46:37.289
192.0, 22762.614221884516, 19292.885874853837, 48639.00526034895, 34186.590812991955, 44948.486381588744, 1706.6003926516048, 8074.2547600573025, 8039.0954660291045, 0.0, 0.0, 7666.80481038151, -26138.085262547167, 17671.669146021504, 5493.142365591809, -8000.829279521618, -31076.77025518063, 0.06065625, -0.006011718750000001, 1.0359921875000002, 192.0, 0.0, 0.0, 0.0, 0.0, 0.0, 0.0, 0.0, 0.0, 0.0, 1.747691197296492E9, 0.0, 2025-05-19 23:46:37.296
194.0, 22772.113713278024, 19297.758555145094, 48646.001356363464, 34193.81042645102, 44955.68364330335, 1696.564459391172, 8077.696928703419, 8044.996326565305, 0.0, 0.0, 7650.398629951314, -26154.737312166373, 17646.277564320277, 5459.502990186571, -8029.506567657777, -31106.49807530619, 0.06065625, -0.006011718750000001, 1.0359921875000002, 192.0, 0.0, 0.0, 0.0, 0.0, 0.0, 0.0, 0.0, 0.0, 0.0, 1.747691197304519E9, 0.0, 2025-05-19 23:46:37.304
196.0, 22774.550053423653, 19305.402851748808, 48649.39882152067, 34200.58300502098, 44955.4601258588, 1753.9860908968558, 8078.412184525989, 8037.933175317428, 0.0, 0.0, 7666.044851070029, -26137.83939335816, 17666.192968629955, 5489.074348100942, -8001.321017899635, -31082.469950016733, 0.06065625, -0.006011718750000001, 1.0359921875000002, 192.0, 0.0, 0.0, 0.0, 0.0, 0.0, 0.0, 0.0, 0.0, 0.0, 1.747691197313554E9, 0.0, 2025-05-19 23:46:37.313
198.0, 22777.79105636967, 19304.665244181782, 48643.38620226219, 34188.08837987046, 44954.14137293594, 1717.5750991791606, 8076.445231013922, 8034.535710160221, 0.0, 0.0, 7654.377240464359, -26151.11632956461, 17655.240613846854, 5469.98595833611, -8024.700942599887, -31099.926662436326, 0.061328125, -0.005005859375, 1.0359960937500001, 192.0, 0.5, 120.0, 127.5, 112.0, 16.0, 48.0, 0.0, 0.0, 0.0, 1.747691197321566E9, 0.0, 2025-05-19 23:46:37.321
200.0, 22783.84837911706, 19303.838229636935, 48653.48919075599, 34210.19425513676, 44968.3123789206, 1711.3166107316747, 8119.941725723949, 8043.096428286604, 0.0, 0.0, 7660.32280448947, -26134.419576456497, 17659.509797037816, 5485.341606776907, -8001.365721388545, -31082.782874439108, 0.061328125, -0.005005859375, 1.0359960937500001, 192.0, 0.0, 0.0, 0.0, 0.0, 0.0, 0.0, 0.0, 0.0, 0.0, 1.747691197328606E9, 0.0, 2025-05-19 23:46:37.328
202.0, 22758.926184049393, 19276.52439791255, 48641.598062705765, 34190.59177524946, 44950.94507347883, 1718.558575935194, 8080.177972337959, 8030.244175224802, 0.0, 0.0, 7661.261577756593, -26142.913239349517, 17663.622518017593, 5489.431976012227, -8012.183965704914, -31080.547699993578, 0.061328125, -0.005005859375, 1.0359960937500001, 192.0, 0.0, 0.0, 0.0, 0.0, 0.0, 0.0, 0.0, 0.0, 0.0, 1.747691197336664E9, 0.0, 2025-05-19 23:46:37.336
204.0, 22772.493692933764, 19288.19200851822, 48643.72147842902, 34189.116560115406, 44960.42221312788, 1690.6188953660603, 8107.134176151058, 8044.59399516511, 0.0, 0.0, 7649.37044970637, -26155.765492411316, 17641.561346240207, 5463.41454546625, -8029.01482927976, -31104.10643864947, 0.061328125, -0.005005859375, 1.0359960937500001, 192.0, 0.0, 0.0, 0.0, 0.0, 0.0, 0.0, 0.0, 0.0, 0.0, 1.747691197345688E9, 0.0, 2025-05-19 23:46:37.345
206.0, 22771.152588266443, 19286.11329628388, 48647.543626730876, 34198.43723755327, 44973.319169678594, 1716.4798637008505, 8092.784356210752, 8027.852538568085, 0.0, 0.0, 7663.787324880043, -26146.55657369573, 17658.861596448613, 5491.667150457758, -8001.946866744383, -31079.184243581803, 0.061328125, -0.005005859375, 1.0359960937500001, 192.0, 0.0, 0.0, 0.0, 0.0, 0.0, 0.0, 0.0, 0.0, 0.0, 1.747691197352756E9, 0.0, 2025-05-19 23:46:37.352
208.0, 22763.21771898481, 19274.66920312276, 48641.12867607221, 34180.98052513367, 44956.37654738147, 1704.0075902947892, 8071.103164089104, 8031.1158932585595, 0.0, 0.0, 7654.265481742083, -26160.638172702573, 17647.462206776407, 5469.807144380467, -8026.042047267205, -31100.194883369793, 0.059664062500000004, -0.004502929687500001, 1.0349980468750002, 192.0, 0.5, 104.0, 127.5, 112.0, 16.0, 40.0, 0.0, 0.0, 0.0, 1.747691197360712E9, 0.0, 2025-05-19 23:46:37.360
210.0, 22781.61320467153, 19296.260988266586, 48654.69618495658, 34203.46638005571, 44975.219067957296, 1717.1727677789652, 8099.93691443645, 8033.9322130599285, 0.0, 0.0, 7661.954481834708, -26149.305838263732, 17649.719732966394, 5480.51362997456, -8006.685436568909, -31089.711915220254, 0.059664062500000004, -0.004502929687500001, 1.0349980468750002, 192.0, 0.0, 0.0, 0.0, 0.0, 0.0, 0.0, 0.0, 0.0, 0.0, 1.747691197370808E9, 0.0, 2025-05-19 23:46:37.370
212.0, 22771.42080919991, 19284.86159859438, 48646.984833119495, 34187.842510681454, 44959.125811949474, 1725.3311545051522, 8055.345184248113, 8021.8399193096075, 0.0, 0.0, 7670.045813327529, -26145.573096939697, 17665.723581996393, 5493.2764760585405, -8002.5280121002215, -31080.95003139377, 0.059664062500000004, -0.004502929687500001, 1.0349980468750002, 192.0, 0.0, 0.0, 0.0, 0.0, 0.0, 0.0, 0.0, 0.0, 0.0, 1.747691197377778E9, 0.0, 2025-05-19 23:46:37.377
214.0, 22775.1759022684, 19291.589473675427, 48650.00231862096, 34193.34103981746, 44968.02180624269, 1691.6470756110043, 8087.732861963852, 8034.379247949034, 0.0, 0.0, 7656.6794701432555, -26154.89377437756, 17647.12693060958, 5464.621539666837, -8022.9575065323725, -31106.542778795098, 0.059664062500000004, -0.004502929687500001, 1.0349980468750002, 192.0, 0.0, 0.0, 0.0, 0.0, 0.0, 0.0, 0.0, 0.0, 0.0, 1.747691197384789E9, 0.0, 2025-05-19 23:46:37.384
216.0, 22786.821161129614, 19300.083136568446, 48652.013975621936, 34202.34879283295, 44974.928495279375, 1705.3039914731971, 8087.59875149712, 8029.484215913322, 0.0, 0.0, 7676.70663317521, -26136.49828869084, 17670.216282631907, 5498.171508094252, -7993.788480018196, -31074.75859817965, 0.059664062500000004, -0.004502929687500001, 1.0349980468750002, 192.0, 0.0, 0.0, 0.0, 0.0, 0.0, 0.0, 0.0, 0.0, 0.0, 1.747691197392797E9, 0.0, 2025-05-19 23:46:37.392
218.0, 22777.589890669573, 19290.58364517494, 48638.35705975975, 34178.7677024326, 44953.403765368916, 1688.4731278983509, 8053.378230736045, 8026.086750756115, 0.0, 0.0, 7660.389859722836, -26152.1221580651, 17654.68182023547, 5466.633196667814, -8029.953602546883, -31102.877092704428, 0.05783203125, -0.0012514648437500003, 1.0324990234375, 192.0, 0.5, 96.0, 0.0, 8.0, 16.0, 24.0, 0.0, 0.0, 0.0, 1.747691197401869E9, 0.0, 2025-05-19 23:46:37.401
220.0, 22787.670527418915, 19301.71481391368, 48650.337594787794, 34196.60439450794, 44980.40467267093, 1713.887061344035, 8105.234277872358, 8024.991515277806, 0.0, 0.0, 7669.866999371887, -26143.203812027434, 17659.107465637622, 5470.835324625412, -8013.0333319942165, -31098.339688580003, 0.05783203125, -0.0012514648437500003, 1.0324990234375, 192.0, 0.0, 0.0, 0.0, 0.0, 0.0, 0.0, 0.0, 0.0, 0.0, 1.747691197408857E9, 0.0, 2025-05-19 23:46:37.408
222.0, 22774.013611556722, 19291.92474984226, 48641.48630398349, 34186.00966763612, 44959.57284683858, 1702.6664856274708, 8058.429724982945, 8009.971143003839, 0.0, 0.0, 7670.492848216635, -26144.276695761288, 17669.67984076498, 5475.976225850132, -8018.06247449666, -31094.91987167834, 0.05783203125, -0.0012514648437500003, 1.0324990234375, 192.0, 0.0, 0.0, 0.0, 0.0, 0.0, 0.0, 0.0, 0.0, 0.0, 1.747691197418848E9, 0.0, 2025-05-19 23:46:37.418
224.0, 22788.85516987505, 19302.273607525065, 48653.846818667276, 34193.69866772874, 44974.14618422344, 1688.3613691760743, 8091.018568398782, 8043.766980620263, 0.0, 0.0, 7653.282004986049, -26149.998742341846, 17651.329058567175, 5453.624481394825, -8030.937079302917, -31115.3940695994, 0.05783203125, -0.0012514648437500003, 1.0324990234375, 192.0, 0.0, 0.0, 0.0, 0.0, 0.0, 0.0, 0.0, 0.0, 0.0, 1.747691197424926E9, 0.0, 2025-05-19 23:46:37.424
226.0, 22779.914472092925, 19298.697328412214, 48662.921626916126, 34211.31184235953, 44974.72732957928, 1701.2806774712417, 8092.426728299467, 8027.4949106568, 0.0, 0.0, 7684.753261179121, -26126.283541474768, 17681.436858348472, 5496.718644704658, -7990.413366605445, -31075.607964468953, 0.05783203125, -0.0012514648437500003, 1.0324990234375, 192.0, 0.0, 0.0, 0.0, 0.0, 0.0, 0.0, 0.0, 0.0, 0.0, 1.747691197433956E9, 0.0, 2025-05-19 23:46:37.433
228.0, 22770.236166743776, 19288.99667131861, 48658.00424313596, 34194.03394389557, 44962.56798059559, 1705.9521920624009, 8042.962317819873, 8029.372457191045, 0.0, 0.0, 7674.963197107697, -26140.163974781513, 17667.8693494641, 5479.708967174169, -8018.2636401967575, -31089.510749520156, 0.05783203125, -0.0012514648437500003, 1.0324990234375, 192.0, 0.0, 0.0, 0.0, 0.0, 0.0, 0.0, 0.0, 0.0, 0.0, 1.747691197440971E9, 0.0, 2025-05-19 23:46:37.440
230.0, 22788.117562308023, 19303.748822659116, 48672.354063076265, 34215.24574938366, 44987.98191404127, 1705.9521920624009, 8095.60067601212, 8027.204337978881, 0.0, 0.0, 7677.198371553228, -26132.564381666707, 17668.182273886476, 5488.672016700747, -8000.270485910236, -31082.604060483463, 0.062, -0.004, 1.038, 192.0, 0.5, 120.0, 127.5, 112.0, 16.0, 56.0, 0.0, 0.0, 0.0, 1.747691197448999E9, 0.0, 2025-05-19 23:46:37.448
232.0, 22775.198254012856, 19289.600168418907, 48662.854571682765, 34201.78999922157, 44974.436756901356, 1713.9317648329456, 8070.320853033168, 8019.716503586353, 0.0, 0.0, 7686.1390693353505, -26126.283541474768, 17686.242483406364, 5509.168566366264, -7989.742814271786, -31066.309638775547, 0.062, -0.004, 1.038, 192.0, 0.0, 0.0, 0.0, 0.0, 0.0, 0.0, 0.0, 0.0, 0.0, 1.747691197457035E9, 0.0, 2025-05-19 23:46:37.457
234.0, 22774.728867379294, 19287.320290484466, 48655.21027507905, 34190.368257804905, 44975.6661028464, 1670.9493602453902, 8086.279998574258, 8028.053704268183, 0.0, 0.0, 7667.6541766708115, -26147.517698707306, 17657.431084803473, 5475.618597938847, -8015.737893073308, -31098.764371724654, 0.062, -0.004, 1.038, 192.0, 0.0, 0.0, 0.0, 0.0, 0.0, 0.0, 0.0, 0.0, 0.0, 1.747691197465028E9, 0.0, 2025-05-19 23:46:37.465
236.0, 22760.51315790572, 19277.463171179676, 48643.207388306546, 34185.78615019157, 44970.18992545485, 1706.4886339293282, 8079.149792093014, 8004.986703990306, 0.0, 0.0, 7666.80481038151, -26150.468128975408, 17659.82272146019, 5487.308560288973, -8005.791366790697, -31089.600156497978, 0.062, -0.004, 1.038, 192.0, 0.0, 0.0, 0.0, 0.0, 0.0, 0.0, 0.0, 0.0, 0.0, 1.747691197473058E9, 0.0, 2025-05-19 23:46:37.473
238.0, 22763.620050385005, 19277.351412457396, 48646.73896393049, 34174.29735354154, 44963.84203002954, 1666.277845654231, 8069.806762910696, 8019.247116952792, 0.0, 0.0, 7651.85149334091, -26162.627477959097, 17648.423331787984, 5464.755650133568, -8029.595974635598, -31111.34840385299, 0.062, -0.004, 1.038, 192.0, 0.0, 0.0, 0.0, 0.0, 0.0, 0.0, 0.0, 0.0, 0.0, 1.747691197481091E9, 0.0, 2025-05-19 23:46:37.481
240.0, 22768.93976556537, 19281.91116832628, 48644.749658673965, 34186.00966763612, 44977.49894589173, 1681.8123080506693, 8105.614257528098, 8022.599878621088, 0.0, 0.0, 7662.557978935001, -26152.569192954208, 17653.608936501616, 5474.7915833940015, -8008.20535519187, -31102.050078159584, 0.06, -0.006, 1.042, 192.0, 0.5, 112.0, 127.5, 104.0, 16.0, 72.0, 0.0, 0.0, 0.0, 1.747691197490089E9, 0.0, 2025-05-19 23:46:37.490
242.0, 22762.658925373427, 19266.37670592984, 48641.307490027844, 34176.465472753705, 44960.444564872334, 1668.5577235886722, 8073.36069027909, 8018.353047174579, 0.0, 0.0, 7653.639632897334, -26160.45935874693, 17653.54188126825, 5473.025795582032, -8025.215032722358, -31101.357174081466, 0.06, -0.006, 1.042, 192.0, 0.0, 0.0, 0.0, 0.0, 0.0, 0.0, 0.0, 0.0, 0.0, 1.747691197498123E9, 0.0, 2025-05-19 23:46:37.498
244.0, 22755.238146214266, 19273.842188577913, 48650.62816746571, 34183.439217023755, 44972.559210367115, 1656.2195606493428, 8092.27026608828, 8035.005096793783, 0.0, 0.0, 7655.271310242571, -26159.11825407961, 17644.601183486127, 5465.537961189504, -8019.381227419523, -31109.96259569676, 0.06, -0.006, 1.042, 192.0, 0.0, 0.0, 0.0, 0.0, 0.0, 0.0, 0.0, 0.0, 0.0, 1.747691197505165E9, 0.0, 2025-05-19 23:46:37.505
246.0, 22750.20900371182, 19266.488464652117, 48645.800190663365, 34193.47515028419, 44959.14816369393, 1694.3739884345518, 8084.3577485511005, 8017.950715774384, 0.0, 0.0, 7667.721231904177, -26147.22712602939, 17662.05789590572, 5490.080176601431, -8001.544535344188, -31088.57197625303, 0.06, -0.006, 1.042, 192.0, 0.0, 0.0, 0.0, 0.0, 0.0, 0.0, 0.0, 0.0, 0.0, 1.747691197513218E9, 0.0, 2025-05-19 23:46:37.513
248.0, 22744.710474575815, 19261.48167389413, 48642.11215282824, 34177.493652998644, 44953.44846885782, 1660.0193572067449, 8063.660033185486, 8023.270430954747, 0.0, 0.0, 7647.828179338954, -26160.772283169306, 17646.34461955364, 5466.432030967717, -8032.389942692512, -31107.772124740142, 0.06, -0.006, 1.042, 192.0, 0.0, 0.0, 0.0, 0.0, 0.0, 0.0, 0.0, 0.0, 0.0, 1.747691197521363E9, 0.0, 2025-05-19 23:46:37.521
250.0, 22757.339210193066, 19273.708078111184, 48648.929434887104, 34193.27398458409, 44967.21714344229, 1676.9619795038677, 8096.897077190528, 8031.473521169844, 0.0, 0.0, 7656.99239456563, -26151.675123175995, 17648.691552721448, 5478.65843518477, -8010.73110231532, -31096.35038332348, 0.054, -0.004, 1.04, 192.0, 0.5, 88.0, 127.5, 112.0, 16.0, 64.0, 0.0, 0.0, 0.0, 1.747691197531265E9, 0.0, 2025-05-19 23:46:37.531
252.0, 22749.761968822717, 19264.856787306882, 48641.26278653894, 34181.9192984008, 44955.16955318088, 1684.203944707387, 8067.593940209621, 8025.080922255626, 0.0, 0.0, 7656.098324787417, -26152.74800690985, 17659.77801797128, 5488.7614236785685, -8011.893393026995, -31087.812016941552, 0.054, -0.004, 1.04, 192.0, 0.0, 0.0, 0.0, 0.0, 0.0, 0.0, 0.0, 0.0, 0.0, 1.747691197537254E9, 0.0, 2025-05-19 23:46:37.537
254.0, 22747.660904843917, 19263.046296006, 48639.80992314934, 34174.40911226381, 44956.57771308157, 1665.696700298393, 8086.190591596436, 8033.596936893098, 0.0, 0.0, 7643.067257769973, -26163.007457614836, 17637.761549682804, 5460.531170431515, -8032.25583222578, -31114.29883412109, 0.054, -0.004, 1.04, 192.0, 0.0, 0.0, 0.0, 0.0, 0.0, 0.0, 0.0, 0.0, 0.0, 1.747691197545338E9, 0.0, 2025-05-19 23:46:37.545
0.0, 22755.193442725355, 19273.95394730019, 48642.73800167299, 34187.28371707007, 44966.03250098616, 1710.690761886926, 8105.994237183838, 8027.092579256604, 0.0, 0.0, 7652.432638696747, -26155.65373368904, 17650.434988788962, 5487.017987611054, -8005.187869690403, -31091.991793154695, 0.054, -0.004, 1.04, 192.0, 0.0, 0.0, 0.0, 0.0, 0.0, 0.0, 0.0, 0.0, 0.0, 1.74769119755333E9, 0.0, 2025-05-19 23:46:37.553
2.0, 22728.930142990368, 19242.594449829394, 48636.01012659194, 34166.09426332644, 44946.385317609944, 1690.6188953660603, 8073.427745512456, 8024.879756555529, 0.0, 0.0, 7643.313126958982, -26165.622611716106, 17644.221203830388, 5469.807144380467, -8029.3501054465905, -31108.196807884793, 0.054, -0.004, 1.04, 192.0, 0.0, 0.0, 0.0, 0.0, 0.0, 0.0, 0.0, 0.0, 0.0, 1.747691197561389E9, 0.0, 2025-05-19 23:46:37.561
4.0, 22749.672561844895, 19260.207624460178, 48642.648594695165, 34180.53349024457, 44967.91004752041, 1643.6802320099155, 8104.094338905137, 8029.73008510233, 0.0, 0.0, 7642.955499047697, -26170.808216429738, 17635.034636859255, 5473.092850815398, -8015.134395973015, -31108.085049162513, 0.062, -0.006, 1.04, 192.0, 0.5, 120.0, 127.5, 104.0, 16.0, 64.0, 0.0, 0.0, 0.0, 1.747691197569412E9, 0.0, 2025-05-19 23:46:37.569
6.0, 22742.050616985634, 19254.66439183526, 48635.518388213924, 34174.83379540846, 44957.27061715968, 1675.464412625362, 8067.705698931897, 8017.1460529739925, 0.0, 0.0, 7650.331574717949, -26162.60512621464, 17650.725561466883, 5484.805164909979, -8016.4978523847885, -31094.58459551151, 0.062, -0.006, 1.04, 192.0, 0.0, 0.0, 0.0, 0.0, 0.0, 0.0, 0.0, 0.0, 0.0, 1.747691197577419E9, 0.0, 2025-05-19 23:46:37.577
8.0, 22746.051579243136, 19256.43017964723, 48641.86628363923, 34179.6170687219, 44960.33280615006, 1651.1680664024434, 8091.733824221352, 8033.261660726269, 0.0, 0.0, 7642.329650202948, -26165.779073927293, 17636.62161071558, 5465.0462228114875, -8028.523090901744, -31111.34840385299, 0.062, -0.006, 1.04, 192.0, 0.0, 0.0, 0.0, 0.0, 0.0, 0.0, 0.0, 0.0, 0.0, 1.747691197585445E9, 0.0, 2025-05-19 23:46:37.585
10.0, 22739.45781462882, 19253.23388019012, 48634.28904226888, 34185.45087402473, 44955.68364330335, 1692.205869222387, 8101.322722592679, 8020.63292510902, 0.0, 0.0, 7650.152760762306, -26156.100768578144, 17649.898546922035, 5490.683673701725, -8003.779709789719, -31088.326107064022, 0.062, -0.006, 1.04, 192.0, 0.0, 0.0, 0.0, 0.0, 0.0, 0.0, 0.0, 0.0, 0.0, 1.747691197594485E9, 0.0, 2025-05-19 23:46:37.594
12.0, 22732.75229129223, 19245.09784520839, 48628.99167883297, 34168.977638361175, 44945.40184085391, 1651.4586390803622, 8065.694041930919, 8021.30347744268, 0.0, 0.0, 7633.567766376468, -26177.938422910982, 17635.079340348166, 5462.565179176949, -8038.916652073462, -31113.40476434288, 0.062, -0.006, 1.04, 192.0, 0.0, 0.0, 0.0, 0.0, 0.0, 0.0, 0.0, 0.0, 0.0, 1.747691197603528E9, 0.0, 2025-05-19 23:46:37.603
14.0, 22740.709512318317, 19256.273717436045, 48639.40759174914, 34187.797807192546, 44954.655463058414, 1652.5315228142172, 8104.1390423940475, 8024.611535622065, 0.0, 0.0, 7641.793208336021, -26160.682876191484, 17637.49332874934, 5474.70217641618, -8013.703884327875, -31101.603043270476, 0.062, -0.004, 1.034, 192.0, 0.5, 120.0, 127.5, 112.0, 16.0, 40.0, 0.0, 0.0, 0.0, 1.747691197609554E9, 0.0, 2025-05-19 23:46:37.609
16.0, 22730.20419242432, 19244.516699852553, 48631.8303503788, 34171.79395816255, 44950.85566650101, 1664.668520053449, 8062.184818051436, 8016.095520984593, 0.0, 0.0, 7645.972984549164, -26161.532242480785, 17651.2172998449, 5482.9499701201885, -8013.905050027973, -31094.808112956063, 0.062, -0.004, 1.034, 192.0, 0.0, 0.0, 0.0, 0.0, 0.0, 0.0, 0.0, 0.0, 0.0, 1.747691197616617E9, 0.0, 2025-05-19 23:46:37.616
18.0, 22730.584172080064, 19242.52739459603, 48632.25503352345, 34169.93876337275, 44951.168590923386, 1658.4547350948735, 8086.727033463363, 8031.518224658755, 0.0, 0.0, 7631.444350653214, -26180.08419037869, 17626.876250133068, 5453.959757561655, -8032.635811881521, -31120.467915590754, 0.062, -0.004, 1.034, 192.0, 0.0, 0.0, 0.0, 0.0, 0.0, 0.0, 0.0, 0.0, 0.0, 1.74769119762663E9, 0.0, 2025-05-19 23:46:37.626
20.0, 22726.292637144645, 19240.85101376188, 48625.23658576448, 34179.460606510715, 44949.08987868904, 1666.0096247207673, 8089.722167220375, 8019.001247763783, 0.0, 0.0, 7641.7708565915655, -26164.773245426804, 17640.711979950902, 5479.999539852088, -8009.814680792651, -31093.981098411215, 0.062, -0.004, 1.034, 192.0, 0.0, 0.0, 0.0, 0.0, 0.0, 0.0, 0.0, 0.0, 0.0, 1.747691197634647E9, 0.0, 2025-05-19 23:46:37.634
22.0, 22729.667750557393, 19241.81213877346, 48626.845911365264, 34163.99319934764, 44934.583596537545, 1700.140738504021, 8053.914672602973, 8015.91670702895, 0.0, 0.0, 7630.326763430448, -26178.161940355534, 17631.50306123532, 5458.407754708262, -8034.982745049328, -31117.808058000574, 0.062, -0.004, 1.034, 192.0, 0.0, 0.0, 0.0, 0.0, 0.0, 0.0, 0.0, 0.0, 0.0, 1.747691197640692E9, 0.0, 2025-05-19 23:46:37.640
24.0, 22732.461718614308, 19256.251365691587, 48639.11701907123, 34192.33521131697, 44955.4601258588, 1680.1359272165214, 8097.522926035277, 8039.87777708504, 0.0, 0.0, 7641.8826153138425, -26164.572079726706, 17637.82860491617, 5472.042318825998, -8014.597954106088, -31101.848912459485, 0.064, -0.004, 1.034, 192.0, 1.0, 0.0, 127.5, 112.0, 16.0, 40.0, 0.0, 0.0, 0.0, 1.747691197650776E9, 0.0, 2025-05-19 23:46:37.650
26.0, 22715.317930617086, 19239.91224049476, 48627.829388121296, 34179.77353093309, 44943.0102041972, 1661.561627574161, 8058.474428471855, 8022.845747810095, 0.0, 0.0, 7644.8777490708535, -26154.40203599954, 17653.363067312606, 5485.453365499183, -8013.010980249761, -31087.588499497, 0.064, -0.004, 1.034, 192.0, 0.0, 0.0, 0.0, 0.0, 0.0, 0.0, 0.0, 0.0, 0.0, 1.747691197656748E9, 0.0, 2025-05-19 23:46:37.656
28.0, 22721.084680686556, 19239.62166781684, 48629.95280384455, 34175.616106464404, 44946.74294552123, 1664.243836908798, 8085.050652629216, 8043.722277131353, 0.0, 0.0, 7629.656211096789, -26172.618707730617, 17626.96565711089, 5458.854789597367, -8029.73008510233, -31111.124886408437, 0.064, -0.004, 1.034, 192.0, 0.0, 0.0, 0.0, 0.0, 0.0, 0.0, 0.0, 0.0, 0.0, 1.747691197665781E9, 0.0, 2025-05-19 23:46:37.665
30.0, 22722.045805698133, 19241.029827717524, 48630.5786526893, 34187.73075195918, 44953.403765368916, 1659.952301973379, 8088.671635230975, 8036.346201461101, 0.0, 0.0, 7638.060467011985, -26163.789768670773, 17638.72267469438, 5481.206534052674, -8009.993494748294, -31090.44952278728, 0.064, -0.004, 1.034, 192.0, 0.0, 0.0, 0.0, 0.0, 0.0, 0.0, 0.0, 0.0, 0.0, 1.747691197672779E9, 0.0, 2025-05-19 23:46:37.672
32.0, 22714.379157349966, 19230.926839223725, 48623.359039230236, 34165.691931926245, 44929.53210229064, 1648.9105402124574, 8065.761097164285, 8040.481274185333, 0.0, 0.0, 7630.751446575099, -26178.0278298888, 17631.547764724226, 5463.325138488429, -8032.658163625975, -31106.118095650447, 0.064, -0.004, 1.034, 192.0, 0.0, 0.0, 0.0, 0.0, 0.0, 0.0, 0.0, 0.0, 0.0, 1.747691197681821E9, 0.0, 2025-05-19 23:46:37.681
34.0, 22718.78245100766, 19237.744121282594, 48626.980021831994, 34184.19917633524, 44953.1578961799, 1649.1117059125552, 8101.725053992875, 8045.510416687777, 0.0, 0.0, 7631.265536697571, -26165.98023962739, 17626.563325710693, 5469.024833324532, -8017.794253563196, -31100.887787447908, 0.062, -0.008, 1.036, 192.0, 0.5, 120.0, 127.5, 96.0, 16.0, 48.0, 0.0, 0.0, 0.0, 1.747691197690788E9, 0.0, 2025-05-19 23:46:37.690
36.0, 22708.50064855822, 19224.198964142677, 48613.636030392176, 34165.64722843734, 44934.69535525982, 1650.6763280244265, 8057.870931371562, 8024.544480388699, 0.0, 0.0, 7630.170301219261, -26170.830568174195, 17636.085168848655, 5477.026757839532, -8021.169366975948, -31094.7410577227, 0.062, -0.008, 1.036, 192.0, 0.0, 0.0, 0.0, 0.0, 0.0, 0.0, 0.0, 0.0, 0.0, 1.747691197696856E9, 0.0, 2025-05-19 23:46:37.696
38.0, 22713.753308505216, 19227.976408955623, 48616.74292287147, 34166.42953949327, 44932.92956744785, 1638.5169790407394, 8077.629873470053, 8035.586242149621, 0.0, 0.0, 7617.273344668549, -26183.302841580255, 17615.655674416503, 5447.36599294734, -8044.236367253825, -31123.328938881034, 0.062, -0.008, 1.036, 192.0, 0.0, 0.0, 0.0, 0.0, 0.0, 0.0, 0.0, 0.0, 0.0, 1.747691197704878E9, 0.0, 2025-05-19 23:46:37.704
40.0, 22709.819401481083, 19225.383606598807, 48614.53010017039, 34173.26917329659, 44940.0597739291, 1660.7346130293147, 8074.187704823936, 8024.790349577707, 0.0, 0.0, 7624.090626727418, -26176.66437347703, 17628.552630967217, 5471.7964496369905, -8023.225727465836, -31100.86543570345, 0.062, -0.008, 1.036, 192.0, 0.0, 0.0, 0.0, 0.0, 0.0, 0.0, 0.0, 0.0, 0.0, 1.747691197712911E9, 0.0, 2025-05-19 23:46:37.712
42.0, 22710.02056718118, 19226.255324632566, 48612.585498402776, 34159.00876033411, 44926.51461678918, 1681.432328394929, 8066.342242520123, 8027.137282745515, 0.0, 0.0, 7620.8719755258535, -26180.30770782324, 17623.948171609423, 5452.752763361069, -8043.811684109174, -31117.897464978396, 0.062, -0.008, 1.036, 192.0, 0.0, 0.0, 0.0, 0.0, 0.0, 0.0, 0.0, 0.0, 0.0, 1.747691197720972E9, 0.0, 2025-05-19 23:46:37.720
44.0, 22716.346110862032, 19234.860746247858, 48620.699181640055, 34175.16907157529, 44943.256073386205, 1680.918238272457, 8101.814460970696, 8033.619288637554, 0.0, 0.0, 7625.7446558171105, -26181.335888068188, 17621.82475588617, 5459.815914608946, -8025.617364122554, -31112.935377709317, 0.056, -0.002, 1.03, 192.0, 0.5, 96.0, 127.5, 120.0, 16.0, 24.0, 0.0, 0.0, 0.0, 1.747691197732004E9, 0.0, 2025-05-19 23:46:37.732
46.0, 22698.844694953525, 19217.314626850442, 48606.32700995529, 34157.33237949996, 44918.1997678518, 1643.0543831651669, 8044.4375329539225, 8004.182041189914, 0.0, 0.0, 7626.504615128591, -26174.697419964963, 17634.609953714604, 5464.286263500007, -8032.769922348252, -31108.4426770738, 0.056, -0.002, 1.03, 192.0, 0.0, 0.0, 0.0, 0.0, 0.0, 0.0, 0.0, 0.0, 0.0, 1.74769119773901E9, 0.0, 2025-05-19 23:46:37.739
48.0, 22704.812610723093, 19225.674179276728, 48611.06557977982, 34153.77845213156, 44921.239605097726, 1629.1068946250552, 8077.853390914606, 8023.516300143755, 0.0, 0.0, 7613.630010322334, -26186.007402659347, 17612.034691814744, 5435.452513152661, -8051.791256879718, -31135.86826752046, 0.056, -0.002, 1.03, 192.0, 0.0, 0.0, 0.0, 0.0, 0.0, 0.0, 0.0, 0.0, 0.0, 1.747691197745035E9, 0.0, 2025-05-19 23:46:37.745
50.0, 22702.823305466572, 19216.71112975015, 48610.32797221279, 34167.033036593566, 44937.04228842763, 1643.9708046878345, 8086.637626485543, 8018.39775066349, 0.0, 0.0, 7619.866147025365, -26182.878158435604, 17619.567229696182, 5454.3620889618505, -8035.407428193978, -31118.702127778786, 0.056, -0.002, 1.03, 192.0, 0.0, 0.0, 0.0, 0.0, 0.0, 0.0, 0.0, 0.0, 0.0, 1.747691197753058E9, 0.0, 2025-05-19 23:46:37.753
52.0, 22698.710584486795, 19210.69851049167, 48608.33866695627, 34149.84454510743, 44923.56418652108, 1674.7044533138817, 8067.258664042791, 8028.053704268183, 0.0, 0.0, 7614.188803933716, -26190.097771894667, 17615.365101738586, 5446.538978402493, -8048.326736489146, -31125.36294762647, 0.056, -0.002, 1.03, 192.0, 0.0, 0.0, 0.0, 0.0, 0.0, 0.0, 0.0, 0.0, 0.0, 1.747691197761053E9, 0.0, 2025-05-19 23:46:37.761
54.0, 22699.895226942925, 19214.118327393335, 48607.399893689144, 34157.779414389064, 44934.2036168818, 1626.0447056346782, 8089.766870709285, 8013.390959905501, 0.0, 0.0, 7617.765083046566, -26187.773190471315, 17609.553648180205, 5443.655603367759, -8042.470579441855, -31127.911046494373, 0.056, -0.004, 1.038, 192.0, 0.5, 96.0, 127.5, 112.0, 16.0, 56.0, 0.0, 0.0, 0.0, 1.74769119776906E9, 0.0, 2025-05-19 23:46:37.769
56.0, 22687.601767492506, 19206.13875462279, 48599.35326568523, 34150.313931740995, 44925.62054701096, 1644.2166738768428, 8064.956434363894, 8011.714579071353, 0.0, 0.0, 7616.7592545460775, -26188.153170127058, 17620.036616329744, 5450.003498793066, -8043.901091086995, -31122.30075863609, 0.056, -0.004, 1.038, 192.0, 0.0, 0.0, 0.0, 0.0, 0.0, 0.0, 0.0, 0.0, 0.0, 1.747691197777102E9, 0.0, 2025-05-19 23:46:37.777
58.0, 22692.02741289466, 19202.13779236529, 48599.19680347405, 34139.02630079106, 44928.07923890105, 1621.3061358101531, 8072.667786200976, 8019.783558819719, 0.0, 0.0, 7605.829251507432, -26202.592397045184, 17598.914217819478, 5427.919975271222, -8055.233425525836, -31143.378453657446, 0.056, -0.004, 1.038, 192.0, 0.0, 0.0, 0.0, 0.0, 0.0, 0.0, 0.0, 0.0, 0.0, 1.74769119778519E9, 0.0, 2025-05-19 23:46:37.785
60.0, 22699.336433331544, 19209.916199435735, 48605.07531226579, 34159.746367901134, 44935.142390148925, 1673.497459113295, 8070.298501288713, 8007.601858091576, 0.0, 0.0, 7616.692199312712, -26195.238673119387, 17611.051215058713, 5448.796504592479, -8034.423951437945, -31126.01114821567, 0.056, -0.004, 1.038, 192.0, 0.0, 0.0, 0.0, 0.0, 0.0, 0.0, 0.0, 0.0, 0.0, 1.747691197793174E9, 0.0, 2025-05-19 23:46:37.793
62.0, 22693.972014662268, 19206.786955211992, 48601.119053497205, 34141.99908280362, 44915.584613750536, 1630.4479992923737, 8049.936062089928, 8012.988628505305, 0.0, 0.0, 7612.199498677194, -26201.921844711527, 17610.872401103068, 5432.211510206641, -8056.194550537414, -31142.059700734582, 0.056, -0.004, 1.038, 192.0, 0.0, 0.0, 0.0, 0.0, 0.0, 0.0, 0.0, 0.0, 0.0, 1.747691197800127E9, 0.0, 2025-05-19 23:46:37.800
64.0, 22697.30242458611, 19210.02795815801, 48601.18610873057, 34154.5607631875, 44930.02384066866, 1622.468426521829, 8090.236257342846, 8017.190756462903, 0.0, 0.0, 7616.334571401427, -26185.962699170435, 17610.1571452805, 5441.621594622326, -8036.882643328028, -31130.570904084554, 0.054, -0.002, 1.028, 192.0, 0.5, 88.0, 127.5, 120.0, 16.0, 16.0, 0.0, 0.0, 0.0, 1.747691197809193E9, 0.0, 2025-05-19 23:46:37.809
66.0, 22687.24413958122, 19201.020205142522, 48600.068521507805, 34148.99517881813, 44909.281421814136, 1666.0990316985885, 8054.607576681087, 8009.255887181269, 0.0, 0.0, 7611.216021921161, -26199.753725499362, 17614.851011616112, 5449.578815648415, -8039.833073596129, -31125.765279026662, 0.054, -0.002, 1.028, 192.0, 0.0, 0.0, 0.0, 0.0, 0.0, 0.0, 0.0, 0.0, 0.0, 1.747691197818221E9, 0.0, 2025-05-19 23:46:37.818
68.0, 22703.87383745597, 19217.336978594896, 48619.648649650655, 34167.27890578257, 44929.86737845748, 1632.951394671368, 8084.581265995654, 8035.563890405166, 0.0, 0.0, 7619.575574347446, -26186.387382315086, 17614.24751451582, 5443.40973417875, -8040.168349762959, -31129.363909883967, 0.054, -0.002, 1.028, 192.0, 0.0, 0.0, 0.0, 0.0, 0.0, 0.0, 0.0, 0.0, 0.0, 1.747691197825282E9, 0.0, 2025-05-19 23:46:37.825
70.0, 22700.610482765496, 19215.28061810501, 48613.27840248089, 34169.894059883845, 44937.33286110555, 1656.8007060051807, 8069.203265810403, 8012.005151749272, 0.0, 0.0, 7628.426865151748, -26179.52539676731, 17625.557497210204, 5467.303749001473, -8020.118834986549, -31106.92275845084, 0.054, -0.002, 1.028, 192.0, 0.0, 0.0, 0.0, 0.0, 0.0, 0.0, 0.0, 0.0, 0.0, 1.747691197834335E9, 0.0, 2025-05-19 23:46:37.834
72.0, 22686.975918647757, 19202.02603364301, 48604.136538998675, 34147.67642589527, 44922.58070976505, 1637.1982261178764, 8040.324811974146, 8011.289895926702, 0.0, 0.0, 7615.641667323312, -26185.023925903315, 17618.96373259589, 5446.047240024476, -8046.292727743713, -31125.474706348745, 0.054, -0.002, 1.028, 192.0, 0.0, 0.0, 0.0, 0.0, 0.0, 0.0, 0.0, 0.0, 0.0, 1.747691197841295E9, 0.0, 2025-05-19 23:46:37.841
74.0, 22689.009927393192, 19204.529429022008, 48607.77987334489, 34157.55589694451, 44934.67300351537, 1636.1029906395663, 8082.614312483587, 8020.722332086842, 0.0, 0.0, 7614.188803933716, -26192.064725406733, 17606.737328378837, 5444.728487101614, -8035.899166571995, -31126.994624971703, 0.058, -0.004, 1.03, 192.0, 0.5, 104.0, 127.5, 112.0, 16.0, 24.0, 0.0, 0.0, 0.0, 1.747691197849353E9, 0.0, 2025-05-19 23:46:37.849
76.0, 22674.05661035259, 19186.245702057568, 48592.06659699281, 34142.60257990391, 44907.73915144672, 1636.214749361843, 8044.035201553727, 8003.846765023085, 0.0, 0.0, 7607.259763152571, -26196.780943486803, 17611.38649122554, 5447.433048180706, -8042.671745141954, -31124.82650575954, 0.058, -0.004, 1.03, 192.0, 0.0, 0.0, 0.0, 0.0, 0.0, 0.0, 0.0, 0.0, 0.0, 1.747691197856388E9, 0.0, 2025-05-19 23:46:37.856
78.0, 22675.53182548664, 19184.636376456783, 48597.00633251743, 34139.09335602443, 44925.9558231778, 1635.052458650167, 8061.447210484411, 8016.810776807163, 0.0, 0.0, 7595.927428713731, -26204.916978468536, 17592.521618905263, 5427.249422937563, -8057.69211741592, -31144.674854835852, 0.058, -0.004, 1.03, 192.0, 0.0, 0.0, 0.0, 0.0, 0.0, 0.0, 0.0, 0.0, 0.0, 1.747691197864415E9, 0.0, 2025-05-19 23:46:37.864
80.0, 22680.762133689183, 19189.442001514675, 48599.48737615197, 34150.20217301872, 44929.487398801735, 1641.9591476868568, 8066.364594264579, 8006.551326102177, 0.0, 0.0, 7605.449271851692, -26205.699289524473, 17601.082337031643, 5447.7906760919905, -8037.843768339607, -31128.335729639024, 0.058, -0.004, 1.03, 192.0, 0.0, 0.0, 0.0, 0.0, 0.0, 0.0, 0.0, 0.0, 0.0, 1.747691197873405E9, 0.0, 2025-05-19 23:46:37.873
82.0, 22670.525034728653, 19179.40606825424, 48597.967457529005, 34138.13223101285, 44912.298907315606, 1621.1943770878765, 8053.065306313671, 8018.643619852498, 0.0, 0.0, 7602.655303794779, -26210.974301215923, 17601.641130643027, 5441.375725433317, -8049.466675456367, -31135.108308208983, 0.058, -0.004, 1.03, 192.0, 0.0, 0.0, 0.0, 0.0, 0.0, 0.0, 0.0, 0.0, 0.0, 1.747691197880467E9, 0.0, 2025-05-19 23:46:37.880
84.0, 22682.59497673452, 19196.281635318, 48610.99852454645, 34160.036940579055, 44934.293023859624, 1661.0251857072337, 8098.305237091213, 8029.9983060357945, 0.0, 0.0, 7606.812728263465, -26202.882969723105, 17597.930741063446, 5448.371821447829, -8033.306364215179, -31127.64282556091, 0.052000000000000005, -0.008, 1.032, 192.0, 0.5, 80.0, 127.5, 96.0, 16.0, 32.0, 0.0, 0.0, 0.0, 1.747691197888498E9, 0.0, 2025-05-19 23:46:37.888
86.0, 22684.137247101935, 19194.314681805932, 48607.77987334489, 34154.04667306503, 44922.26778534267, 1639.27693835222, 8059.793181394718, 8013.569773861143, 0.0, 0.0, 7621.676638326245, -26191.640042262083, 17622.651770431017, 5467.683728657214, -8024.857404811073, -31111.281348619625, 0.052000000000000005, -0.008, 1.032, 192.0, 0.0, 0.0, 0.0, 0.0, 0.0, 0.0, 0.0, 0.0, 0.0, 1.747691197896471E9, 0.0, 2025-05-19 23:46:37.896
88.0, 22677.856406909992, 19189.71022244814, 48603.04130352036, 34142.87080083738, 44919.29500333012, 1615.2711648072202, 8074.83590541314, 8021.616401865054, 0.0, 0.0, 7604.778719518033, -26210.77313551583, 17594.756793350793, 5432.8820625403005, -8051.92536734645, -31142.327921668046, 0.052000000000000005, -0.008, 1.032, 192.0, 0.0, 0.0, 0.0, 0.0, 0.0, 0.0, 0.0, 0.0, 0.0, 1.747691197905556E9, 0.0, 2025-05-19 23:46:37.905
90.0, 22675.44241850882, 19188.52557999201, 48602.862489564715, 34156.95239984422, 44926.91694818938, 1657.85123799458, 8072.5560274786985, 8012.809814549663, 0.0, 0.0, 7612.22185042165, -26194.18814112999, 17611.54295343673, 5457.848961096878, -8029.774788591241, -31118.009223700672, 0.052000000000000005, -0.008, 1.032, 192.0, 0.0, 0.0, 0.0, 0.0, 0.0, 0.0, 0.0, 0.0, 0.0, 1.747691197913584E9, 0.0, 2025-05-19 23:46:37.913
92.0, 22664.802988148094, 19177.08148683089, 48597.073387750796, 34142.624931648366, 44915.83048293954, 1612.052513605656, 8053.087658058126, 8012.943925016395, 0.0, 0.0, 7599.213135148661, -26208.068574436737, 17600.121212020065, 5443.45443766766, -8049.801951623196, -31130.325034895544, 0.052000000000000005, -0.008, 1.032, 192.0, 0.0, 0.0, 0.0, 0.0, 0.0, 0.0, 0.0, 0.0, 0.0, 1.747691197921627E9, 0.0, 2025-05-19 23:46:37.921
94.0, 22679.68924995533, 19192.258321316043, 48610.551489657344, 34169.067045339, 44929.24152961273, 1640.5062842972618, 8106.038940672749, 8039.855425340585, 0.0, 0.0, 7604.286981140016, -26200.401926088565, 17597.930741063446, 5457.983071563611, -8028.92542230194, -31115.036441688117, 0.052000000000000005, -0.008, 1.0310000000000001, 192.0, 0.5, 80.0, 127.5, 96.0, 16.0, 24.0, 0.0, 0.0, 0.0, 1.747691197930654E9, 0.0, 2025-05-19 23:46:37.930
96.0, 22658.209223533777, 19172.857007128838, 48598.123919740196, 34154.58311493196, 44907.381523535434, 1642.0932581535887, 8058.228559282847, 8026.176157733937, 0.0, 0.0, 7604.801071262488, -26197.965585942937, 17610.805345869703, 5480.334816018917, -8020.945849531395, -31092.885862932908, 0.052000000000000005, -0.008, 1.0310000000000001, 192.0, 0.0, 0.0, 0.0, 0.0, 0.0, 0.0, 0.0, 0.0, 0.0, 1.747691197938655E9, 0.0, 2025-05-19 23:46:37.938
98.0, 22664.780636403637, 19177.774390909006, 48601.5213848974, 34152.23618176415, 44912.32125906006, 1608.7891589151811, 8089.3421875646345, 8036.2791462277355, 0.0, 0.0, 7593.35697810137, -26215.46700185144, 17587.04544151371, 5448.327117958917, -8043.364649220068, -31123.530104581132, 0.052000000000000005, -0.008, 1.0310000000000001, 192.0, 0.0, 0.0, 0.0, 0.0, 0.0, 0.0, 0.0, 0.0, 0.0, 1.74769119794466E9, 0.0, 2025-05-19 23:46:37.944
100.0, 22665.182967803834, 19185.016356112523, 48598.30273369583, 34156.728882399664, 44921.03843939763, 1639.0087174187563, 8086.212943340892, 8022.77869257673, 0.0, 0.0, 7608.086777697418, -26190.477751550407, 17608.123136535065, 5472.556408948471, -8016.050817495682, -31101.580691526022, 0.052000000000000005, -0.008, 1.0310000000000001, 192.0, 0.0, 0.0, 0.0, 0.0, 0.0, 0.0, 0.0, 0.0, 0.0, 1.747691197952764E9, 0.0, 2025-05-19 23:46:37.952
102.0, 22661.852557879993, 19184.144638078767, 48589.27262893589, 34136.07587052296, 44907.94031714682, 1667.3507293880857, 8057.759172649286, 8018.129529730026, 0.0, 0.0, 7594.139289157306, -26205.47577207992, 17597.304892218697, 5437.263004453541, -8053.177065035948, -31136.047081476103, 0.052000000000000005, -0.008, 1.0310000000000001, 192.0, 0.0, 0.0, 0.0, 0.0, 0.0, 0.0, 0.0, 0.0, 0.0, 1.747691197961765E9, 0.0, 2025-05-19 23:46:37.961
104.0, 22675.464770253275, 19197.42157428522, 48597.967457529005, 34146.894114839335, 44928.19099762333, 1620.7473421987704, 8093.231391099858, 8025.192680977903, 0.0, 0.0, 7601.31419912746, -26206.83922849169, 17595.24853172881, 5434.334925929896, -8046.136265532526, -31138.12579371045, 0.054000000000000006, -0.007, 1.0305, 192.0, 0.5, 96.0, 127.5, 104.0, 16.0, 24.0, 0.0, 0.0, 0.0, 1.747691197968744E9, 0.0, 2025-05-19 23:46:37.968
106.0, 22669.541557972618, 19192.32537654941, 48592.78185281537, 34142.42376594827, 44913.192977093815, 1626.916423668435, 8055.971033092861, 8009.4570528813665, 0.0, 0.0, 7606.45510035218, -26204.93933021299, 17609.91127609149, 5444.3261557014175, -8044.4375329539225, -31131.174401184846, 0.054000000000000006, -0.007, 1.0305, 192.0, 0.0, 0.0, 0.0, 0.0, 0.0, 0.0, 0.0, 0.0, 0.0, 1.747691197976734E9, 0.0, 2025-05-19 23:46:37.976
108.0, 22673.47546499675, 19196.37104229582, 48599.48737615197, 34146.22356250567, 44913.10357011599, 1646.5859587891055, 8080.356786293601, 8025.080922255626, 0.0, 0.0, 7601.045978193996, -26199.440801076988, 17598.176610252456, 5426.288297925985, -8058.630890683043, -31147.222953703757, 0.054000000000000006, -0.007, 1.0305, 192.0, 0.0, 0.0, 0.0, 0.0, 0.0, 0.0, 0.0, 0.0, 0.0, 1.747691197984807E9, 0.0, 2025-05-19 23:46:37.984
110.0, 22675.57652897555, 19197.622739985316, 48605.85762332173, 34163.83673713645, 44926.268747600174, 1645.2672058662422, 8072.176047822959, 8015.469672139844, 0.0, 0.0, 7613.764120789066, -26188.51079803834, 17613.264037759785, 5460.039432053499, -8026.422026922945, -31115.43877308831, 0.054000000000000006, -0.007, 1.0305, 192.0, 0.0, 0.0, 0.0, 0.0, 0.0, 0.0, 0.0, 0.0, 0.0, 1.747691197993832E9, 0.0, 2025-05-19 23:46:37.993
112.0, 22664.24419453671, 19176.455637986142, 48594.7711580719, 34135.58413214495, 44916.67984922884, 1649.6034442905718, 8056.462771470878, 8015.134395973015, 0.0, 0.0, 7601.31419912746, -26208.76147851485, 17600.68000563145, 5441.174559733219, -8051.299518501702, -31133.566037841567, 0.054000000000000006, -0.007, 1.0305, 192.0, 0.0, 0.0, 0.0, 0.0, 0.0, 0.0, 0.0, 0.0, 0.0, 1.747691198001878E9, 0.0, 2025-05-19 23:46:38.001
114.0, 22669.720371928262, 19188.927911392202, 48602.728379097985, 34157.35473124441, 44931.879035458456, 1639.7686767302366, 8100.518059792288, 8024.455073410878, 0.0, 0.0, 7601.917696227753, -26208.873237237127, 17592.23104622734, 5447.611862136348, -8037.150864261493, -31127.97810172774, 0.057, -0.0035, 1.03025, 192.0, 0.5, 112.0, 0.0, 0.0, 16.0, 24.0, 0.0, 0.0, 0.0, 1.747691198009871E9, 0.0, 2025-05-19 23:46:38.009
116.0, 22662.25488928019, 19178.914329876225, 48600.470852908, 34153.82315562048, 44917.99860215171, 1637.9358336849016, 8053.937024347428, 8012.340427916101, 0.0, 0.0, 7604.532850329024, -26199.641966777082, 17608.279598746252, 5459.0559552974655, -8037.486140428322, -31116.48930507771, 0.057, -0.0035, 1.03025, 192.0, 0.0, 0.0, 0.0, 0.0, 0.0, 0.0, 0.0, 0.0, 0.0, 1.747691198018949E9, 0.0, 2025-05-19 23:46:38.018
118.0, 22679.845712166516, 19190.671347459716, 48605.20942273253, 34149.5092689406, 44926.31345108908, 1642.1603133869546, 8077.406356025501, 8028.634849624021, 0.0, 0.0, 7606.052768951985, -26192.64587076257, 17600.121212020065, 5438.805274820957, -8051.031297568238, -31133.856610519484, 0.057, -0.0035, 1.03025, 192.0, 0.0, 0.0, 0.0, 0.0, 0.0, 0.0, 0.0, 0.0, 0.0, 1.747691198025928E9, 0.0, 2025-05-19 23:46:38.025
120.0, 22670.48033123974, 19191.386603282288, 48598.01216101792, 34153.867859109385, 44924.57001502157, 1681.432328394929, 8080.446193271422, 8017.995419263294, 0.0, 0.0, 7605.73984452961, -26202.301824367267, 17603.809249855192, 5458.161885519253, -8033.954564804383, -31118.053927189583, 0.057, -0.0035, 1.03025, 192.0, 0.0, 0.0, 0.0, 0.0, 0.0, 0.0, 0.0, 0.0, 0.0, 1.747691198032961E9, 0.0, 2025-05-19 23:46:38.032
122.0, 22659.349162501, 19176.947376364158, 48591.17252721459, 34131.82903907645, 44911.98598289323, 1621.8425776770805, 8042.917614330961, 8014.77676806173, 0.0, 0.0, 7598.02849269253, -26210.504914582365, 17599.562418408685, 5437.55357713146, -8060.128457561548, -31138.081090221538, 0.057, -0.0035, 1.03025, 192.0, 0.0, 0.0, 0.0, 0.0, 0.0, 0.0, 0.0, 0.0, 0.0, 1.747691198042988E9, 0.0, 2025-05-19 23:46:38.042
124.0, 22676.939985387326, 19196.281635318, 48600.224983718996, 34150.179821274265, 44940.685622773846, 1608.5432897261728, 8077.78633568124, 8011.3345994156125, 0.0, 0.0, 7605.426920107237, -26197.071516164724, 17598.62364514156, 5438.492350398583, -8047.611480666576, -31137.388186143424, 0.0555, -0.00175, 1.030125, 192.0, 0.5, 88.0, 0.0, 0.0, 16.0, 24.0, 0.0, 0.0, 0.0, 1.747691198050019E9, 0.0, 2025-05-19 23:46:38.050
126.0, 22668.96041261678, 19184.74813517906, 48587.417434146104, 34136.96994030118, 44926.469913300265, 1631.2303103483093, 8052.461809213378, 8008.652390080976, 0.0, 0.0, 7605.717492785156, -26198.90435921006, 17608.838392357637, 5448.416524936739, -8046.426838210445, -31130.190924428814, 0.0555, -0.00175, 1.030125, 192.0, 0.0, 0.0, 0.0, 0.0, 0.0, 0.0, 0.0, 0.0, 0.0, 1.747691198057025E9, 0.0, 2025-05-19 23:46:38.057
128.0, 22670.88266263994, 19185.061059601434, 48594.257067949424, 34136.58996064543, 44930.20265462431, 1624.4130282894407, 8063.615329696576, 8020.275297197735, 0.0, 0.0, 7592.954646701175, -26214.639987306597, 17584.47499090135, 5415.470053609616, -8072.757193178796, -31158.868212564972, 0.0555, -0.00175, 1.030125, 192.0, 0.0, 0.0, 0.0, 0.0, 0.0, 0.0, 0.0, 0.0, 0.0, 1.747691198065042E9, 0.0, 2025-05-19 23:46:38.065
130.0, 22677.029392365148, 19196.32633880691, 48604.04713202085, 34161.02041733509, 44942.09378267453, 1658.8794182395243, 8067.102201831603, 8015.044988995193, 0.0, 0.0, 7614.054693466985, -26190.18717887249, 17611.34178773663, 5451.948100560678, -8037.195567750403, -31123.597159814497, 0.0555, -0.00175, 1.030125, 192.0, 0.0, 0.0, 0.0, 0.0, 0.0, 0.0, 0.0, 0.0, 0.0, 1.747691198073034E9, 0.0, 2025-05-19 23:46:38.073
132.0, 22659.371514245453, 19177.148542064257, 48591.396044659145, 34134.019510033075, 44924.882939443945, 1658.6782525394265, 8054.607576681087, 8018.040122752205, 0.0, 0.0, 7604.734016029122, -26198.457324320952, 17603.362214966084, 5438.022963765021, -8056.798047637707, -31135.667101820363, 0.0555, -0.00175, 1.030125, 192.0, 0.0, 0.0, 0.0, 0.0, 0.0, 0.0, 0.0, 0.0, 0.0, 1.747691198082101E9, 0.0, 2025-05-19 23:46:38.082
134.0, 22673.788389419125, 19194.60525448385, 48601.543736641856, 34155.36542598789, 44942.36200360799, 1640.9980226752787, 8096.047710901226, 8021.817567565152, 0.0, 0.0, 7602.185917161217, -26210.393155860085, 17590.37585143755, 5438.849978309868, -8047.276204499746, -31137.58935184352, 0.05575, 1.25E-4, 1.0300625, 192.0, 0.5, 96.0, 0.0, 8.0, 16.0, 24.0, 0.0, 0.0, 0.0, 1.747691198090147E9, 0.0, 2025-05-19 23:46:38.090
136.0, 22677.543482487617, 19195.2311033286, 48604.114187254214, 34159.85812662341, 44928.81684646808, 1661.2263514073315, 8056.2392540263245, 8018.934192530417, 0.0, 0.0, 7611.953629488186, -26183.504007280353, 17615.745081394325, 5464.778001878024, -8032.680515370431, -31110.275520119136, 0.05575, 1.25E-4, 1.0300625, 192.0, 0.0, 0.0, 0.0, 0.0, 0.0, 0.0, 0.0, 0.0, 0.0, 1.747691198098169E9, 0.0, 2025-05-19 23:46:38.098
138.0, 22683.310232557087, 19197.443926029675, 48604.829443076786, 34152.817327119985, 44939.79155299563, 1648.7540780012703, 8073.852428657106, 8034.423951437945, 0.0, 0.0, 7610.679580054233, -26193.539940540784, 17601.48466843184, 5441.308670199951, -8051.3665737350675, -31131.12969769594, 0.05575, 1.25E-4, 1.0300625, 192.0, 0.0, 0.0, 0.0, 0.0, 0.0, 0.0, 0.0, 0.0, 0.0, 1.747691198106189E9, 0.0, 2025-05-19 23:46:38.106
140.0, 22681.008002878192, 19199.768507453027, 48602.48250990898, 34163.54616445854, 44942.02672744116, 1669.0941654555995, 8068.465658243377, 8022.801044321185, 0.0, 0.0, 7613.875879511343, -26183.41460030253, 17614.44868021592, 5460.486466942605, -8035.698000871897, -31113.20359864278, 0.05575, 1.25E-4, 1.0300625, 192.0, 0.0, 0.0, 0.0, 0.0, 0.0, 0.0, 0.0, 0.0, 0.0, 1.747691198112195E9, 0.0, 2025-05-19 23:46:38.112
142.0, 22663.43953173632, 19178.780219409495, 48588.28915217986, 34134.19832398872, 44921.731343475745, 1665.182610175921, 8041.4423991969115, 8014.821471550641, 0.0, 0.0, 7605.493975340602, -26195.439838819486, 17608.748985379814, 5441.398077177772, -8059.0555738276935, -31133.40957563038, 0.05575, 1.25E-4, 1.0300625, 192.0, 0.0, 0.0, 0.0, 0.0, 0.0, 0.0, 0.0, 0.0, 0.0, 1.747691198121226E9, 0.0, 2025-05-19 23:46:38.121
144.0, 22681.29857555611, 19194.717013206126, 48604.31535295431, 34156.97475158868, 44948.19580891083, 1623.2283858333094, 8089.118670120081, 8026.891413556506, 0.0, 0.0, 7600.531888071524, -26204.827571490714, 17594.175647994954, 5443.253271967563, -8045.018678309761, -31133.454279119287, 0.056875, 0.0020625, 1.02703125, 192.0, 0.5, 104.0, 0.0, 16.0, 16.0, 0.0, 0.0, 0.0, 0.0, 1.747691198129263E9, 0.0, 2025-05-19 23:46:38.129
146.0, 22675.218901064265, 19191.61012072684, 48585.20461144503, 34139.49568742463, 44934.605948282, 1637.2652813512423, 8043.856387598084, 8003.332674900613, 0.0, 0.0, 7608.422053864248, -26192.556463784753, 17614.24751451582, 5458.631272152815, -8040.145998018504, -31117.852761489485, 0.056875, 0.0020625, 1.02703125, 192.0, 0.0, 0.0, 0.0, 0.0, 0.0, 0.0, 0.0, 0.0, 0.0, 1.747691198136217E9, 0.0, 2025-05-19 23:46:38.136
148.0, 22673.386058018932, 19190.872513159815, 48581.09189046525, 34137.64049263483, 44925.86641619998, 1626.8046649461587, 8066.610463453587, 8017.950715774384, 0.0, 0.0, 7584.7739082305325, -26212.918902983536, 17581.77042982226, 5418.442835622172, -8075.0817746021485, -31155.716616596776, 0.056875, 0.0020625, 1.02703125, 192.0, 0.0, 0.0, 0.0, 0.0, 0.0, 0.0, 0.0, 0.0, 0.0, 1.747691198144299E9, 0.0, 2025-05-19 23:46:38.144
150.0, 22661.874909624446, 19185.508094490542, 48589.85377429173, 34156.43830972175, 44943.546646064126, 1650.698679768882, 8068.488009987833, 8019.045951252694, 0.0, 0.0, 7597.872030481342, -26189.60603351665, 17604.39039521103, 5452.998632550077, -8043.789332364719, -31122.613683058466, 0.056875, 0.0020625, 1.02703125, 192.0, 0.0, 0.0, 0.0, 0.0, 0.0, 0.0, 0.0, 0.0, 0.0, 1.747691198153364E9, 0.0, 2025-05-19 23:46:38.153
152.0, 22648.68738039582, 19174.645146685263, 48583.46117537751, 34131.918446054275, 44920.14436961942, 1644.37313608803, 8046.806817866185, 8018.822433808141, 0.0, 0.0, 7592.127632156329, -26202.19006564499, 17598.847162586113, 5437.419466664728, -8060.486085472833, -31139.69041582232, 0.056875, 0.0020625, 1.02703125, 192.0, 0.0, 0.0, 0.0, 0.0, 0.0, 0.0, 0.0, 0.0, 0.0, 1.747691198163372E9, 0.0, 2025-05-19 23:46:38.163
154.0, 22643.94881057129, 19169.83952162737, 48585.47283237849, 34146.51413518359, 44932.773105236665, 1647.9270634564239, 8077.696928703419, 8025.885585056018, 0.0, 0.0, 7587.232600120617, -26205.878103480114, 17586.24077871332, 5437.352411431362, -8051.8359603686295, -31139.757471055684, 0.0574375, 0.00203125, 1.0255156250000002, 192.0, 0.5, 104.0, 0.0, 8.0, 16.0, 0.0, 0.0, 0.0, 0.0, 1.747691198169336E9, 0.0, 2025-05-19 23:46:38.169
156.0, 22640.707807625273, 19172.097047817355, 48590.61373360321, 34149.84454510743, 44930.58263428004, 1661.2263514073315, 8062.274225029258, 8012.474538382833, 0.0, 0.0, 7593.647550779289, -26196.445667319975, 17605.1056510336, 5456.284338985007, -8043.185835264425, -31121.809020258075, 0.0574375, 0.00203125, 1.0255156250000002, 192.0, 0.0, 0.0, 0.0, 0.0, 0.0, 0.0, 0.0, 0.0, 0.0, 1.747691198178413E9, 0.0, 2025-05-19 23:46:38.178
158.0, 22643.233554748724, 19175.36040250783, 48598.593306373754, 34149.553972429516, 44916.99277365122, 1651.3021768691751, 8072.466620500877, 8029.573622891144, 0.0, 0.0, 7594.206344390673, -26192.46705680693, 17597.170781751967, 5439.006440521055, -8053.892320858517, -31137.008206487684, 0.0574375, 0.00203125, 1.0255156250000002, 192.0, 0.0, 0.0, 0.0, 0.0, 0.0, 0.0, 0.0, 0.0, 0.0, 1.747691198186447E9, 0.0, 2025-05-19 23:46:38.186
160.0, 22656.845767122006, 19185.59750146836, 48601.14140524166, 34163.300295269524, 44938.04811692812, 1700.632476882038, 8067.258664042791, 8023.225727465836, 0.0, 0.0, 7608.466757353158, -26183.906338680546, 17613.845183115624, 5463.660414655258, -8033.194605492903, -31113.96355795426, 0.0574375, 0.00203125, 1.0255156250000002, 192.0, 0.0, 0.0, 0.0, 0.0, 0.0, 0.0, 0.0, 0.0, 0.0, 1.747691198193426E9, 0.0, 2025-05-19 23:46:38.193
162.0, 22649.648505407396, 19178.780219409495, 48590.85960279222, 34142.200248503716, 44919.40676205239, 1661.8745519965355, 8046.404486465989, 8025.997343778294, 0.0, 0.0, 7599.704873526678, -26198.94906269897, 17608.078433046154, 5445.287280712996, -8056.753344148797, -31128.894523250405, 0.0574375, 0.00203125, 1.0255156250000002, 192.0, 0.0, 0.0, 0.0, 0.0, 0.0, 0.0, 0.0, 0.0, 0.0, 1.747691198200458E9, 0.0, 2025-05-19 23:46:38.200
164.0, 22659.885604367926, 19187.27388230251, 48601.16375698611, 34162.249763280124, 44937.28815761664, 1646.6753657669267, 8075.528809491255, 8024.030390266227, 0.0, 0.0, 7606.768024774555, -26182.252309590855, 17607.162011523487, 5446.896606313778, -8048.416143466967, -31127.374604627446, 0.05871875, 0.001015625, 1.0267578125, 192.0, 0.5, 112.0, 0.0, 0.0, 16.0, 16.0, 0.0, 0.0, 0.0, 1.747691198208548E9, 0.0, 2025-05-19 23:46:38.208
166.0, 22651.86132810847, 19179.003736854047, 48596.224021461494, 34153.7113968982, 44932.840160470034, 1655.7501740157813, 8056.082791815137, 8019.91766928645, 0.0, 0.0, 7601.403606105281, -26185.13568462559, 17615.81213662769, 5459.860618097856, -8040.59303290761, -31116.891636477907, 0.05871875, 0.001015625, 1.0267578125, 192.0, 0.0, 0.0, 0.0, 0.0, 0.0, 0.0, 0.0, 0.0, 0.0, 1.747691198216574E9, 0.0, 2025-05-19 23:46:38.216
168.0, 22670.25681379519, 19192.861818416335, 48614.66421063712, 34160.52867895707, 44943.4572390863, 1661.1816479184208, 8085.967074151883, 8043.834035853629, 0.0, 0.0, 7603.772891017544, -26189.76249572784, 17603.138697521532, 5444.750838846068, -8046.516245188266, -31132.29198840761, 0.05871875, 0.001015625, 1.0267578125, 192.0, 0.0, 0.0, 0.0, 0.0, 0.0, 0.0, 0.0, 0.0, 0.0, 1.747691198224605E9, 0.0, 2025-05-19 23:46:38.224
170.0, 22655.63877292142, 19178.824922898402, 48600.94023954156, 34153.33141724246, 44940.93149196285, 1656.241912393798, 8072.287806545235, 8009.568811603644, 0.0, 0.0, 7615.239335923116, -26182.297013079766, 17618.024959328766, 5466.588493178903, -8024.790349577707, -31114.20942714327, 0.05871875, 0.001015625, 1.0267578125, 192.0, 0.0, 0.0, 0.0, 0.0, 0.0, 0.0, 0.0, 0.0, 0.0, 1.747691198232588E9, 0.0, 2025-05-19 23:46:38.232
172.0, 22658.857424122984, 19187.184475324688, 48598.682713351576, 34146.42472820577, 44937.35521285, 1659.4605635953621, 8055.814570881674, 8027.405503678979, 0.0, 0.0, 7602.6776555392335, -26195.95392894196, 17607.653749901503, 5437.844149809379, -8055.971033092861, -31138.50577336619, 0.05871875, 0.001015625, 1.0267578125, 192.0, 0.0, 0.0, 0.0, 0.0, 0.0, 0.0, 0.0, 0.0, 0.0, 1.747691198241699E9, 0.0, 2025-05-19 23:46:38.241
174.0, 22664.333601514532, 19195.745193451072, 48602.14723374215, 34163.300295269524, 44946.36296586549, 1683.3545784180856, 8084.26834157328, 8033.082846770627, 0.0, 0.0, 7603.50467008408, -26184.42042880302, 17607.139659779034, 5441.487484155594, -8045.219844009858, -31131.219104673757, 0.058359375000000005, 0.0025078125, 1.02837890625, 192.0, 0.5, 104.0, 0.0, 16.0, 16.0, 24.0, 0.0, 0.0, 0.0, 1.747691198249805E9, 0.0, 2025-05-19 23:46:38.249
176.0, 22673.855444652494, 19200.886094675792, 48607.66811462261, 34164.4625859812, 44941.3561751075, 1696.787976835725, 8051.455980712889, 8018.241288452303, 0.0, 0.0, 7609.383178875826, -26185.560367770242, 17622.942343108934, 5456.2396354960965, -8041.822378852651, -31118.143334167402, 0.058359375000000005, 0.0025078125, 1.02837890625, 192.0, 0.0, 0.0, 0.0, 0.0, 0.0, 0.0, 0.0, 0.0, 0.0, 1.7476911982578E9, 0.0, 2025-05-19 23:46:38.257
178.0, 22673.654278952396, 19197.689795218685, 48613.27840248089, 34169.245859294635, 44946.810000754595, 1669.116517200055, 8072.399565267511, 8038.559024162177, 0.0, 0.0, 7618.480338869136, -26171.2776030633, 17621.57888669716, 5447.388344691795, -8046.158617276981, -31126.704052293786, 0.058359375000000005, 0.0025078125, 1.02837890625, 192.0, 0.0, 0.0, 0.0, 0.0, 0.0, 0.0, 0.0, 0.0, 0.0, 1.747691198266763E9, 0.0, 2025-05-19 23:46:38.266
180.0, 22672.268470796167, 19197.153353351754, 48608.42807393409, 34169.7152459282, 44946.76529726569, 1681.8123080506693, 8071.751364678307, 8014.240326194803, 0.0, 0.0, 7621.676638326245, -26169.51181525133, 17629.267886789785, 5468.801315879979, -8026.958468789872, -31110.700203263787, 0.058359375000000005, 0.0025078125, 1.02837890625, 192.0, 0.0, 0.0, 0.0, 0.0, 0.0, 0.0, 0.0, 0.0, 0.0, 1.747691198273802E9, 0.0, 2025-05-19 23:46:38.273
182.0, 22667.44049399382, 19189.46435325913, 48607.51165241142, 34158.561725445004, 44929.50975054619, 1653.984386203812, 8050.025469067749, 8028.903070557484, 0.0, 0.0, 7606.2539346520825, -26189.740143983385, 17616.01330232779, 5453.110391272354, -8050.785428379229, -31126.815811016062, 0.058359375000000005, 0.0025078125, 1.02837890625, 192.0, 0.0, 0.0, 0.0, 0.0, 0.0, 0.0, 0.0, 0.0, 0.0, 1.747691198281812E9, 0.0, 2025-05-19 23:46:38.281
184.0, 22664.11008406998, 19193.197094583167, 48611.24439373546, 34170.81048140651, 44945.26773038718, 1644.1943221323875, 8087.755213708308, 8033.01579153726, 0.0, 0.0, 7606.79037651901, -26181.626460746105, 17610.24655225832, 5461.64875765428, -8034.803931093685, -31118.277444634135, 0.05817968750000001, 0.00125390625, 1.030189453125, 192.0, 0.5, 104.0, 0.0, 0.0, 16.0, 32.0, 0.0, 0.0, 0.0, 1.747691198288842E9, 0.0, 2025-05-19 23:46:38.288
186.0, 22663.417179991866, 19183.51878923402, 48599.75559708543, 34154.98544633215, 44937.399916338916, 1660.8463717515913, 8059.010870338782, 8023.717465843853, 0.0, 0.0, 7608.489109097613, -26184.062800891734, 17622.607066942106, 5473.472830471138, -8032.568756648155, -31108.174456140336, 0.05817968750000001, 0.00125390625, 1.030189453125, 192.0, 0.0, 0.0, 0.0, 0.0, 0.0, 0.0, 0.0, 0.0, 0.0, 1.747691198296867E9, 0.0, 2025-05-19 23:46:38.296
188.0, 22651.1460722859, 19174.242815285066, 48589.585553358265, 34140.68032988076, 44929.822674968564, 1631.7667522152367, 8068.309196032191, 8027.092579256604, 0.0, 0.0, 7591.859411222865, -26204.93933021299, 17591.113459004577, 5435.653678852758, -8060.821361639662, -31142.730253068243, 0.05817968750000001, 0.00125390625, 1.030189453125, 192.0, 0.0, 0.0, 0.0, 0.0, 0.0, 0.0, 0.0, 0.0, 0.0, 1.747691198303875E9, 0.0, 2025-05-19 23:46:38.303
190.0, 22645.982819316723, 19174.622794940806, 48582.723567810484, 34149.17399277377, 44938.003413439204, 1671.5975608345939, 8081.563780494187, 8023.292782699202, 0.0, 0.0, 7588.908980954765, -26205.878103480114, 17595.270883473266, 5453.356260461362, -8044.303422487191, -31127.26284590517, 0.05817968750000001, 0.00125390625, 1.030189453125, 192.0, 0.0, 0.0, 0.0, 0.0, 0.0, 0.0, 0.0, 0.0, 0.0, 1.747691198312919E9, 0.0, 2025-05-19 23:46:38.312
192.0, 22646.876889094936, 19162.619908168308, 48580.846021276244, 34128.11864949687, 44928.503922045704, 1652.598578047583, 8055.814570881674, 8027.249041467791, 0.0, 0.0, 7580.97411167313, -26214.103545439666, 17588.38654618103, 5437.911205042745, -8064.30823377469, -31140.092747222516, 0.05817968750000001, 0.00125390625, 1.030189453125, 192.0, 0.0, 0.0, 0.0, 0.0, 0.0, 0.0, 0.0, 0.0, 0.0, 1.747691198320933E9, 0.0, 2025-05-19 23:46:38.320
194.0, 22654.34237174301, 19173.1252280623, 48588.78089055788, 34147.56466717299, 44939.4562768288, 1658.4323833504181, 8099.176955124969, 8035.653297382987, 0.0, 0.0, 7582.806954718466, -26210.28139713781, 17576.718935575358, 5436.614803864337, -8052.1265330465485, -31141.12092746746, 0.060089843750000003, -3.73046875E-4, 1.0310947265625, 192.0, 0.5, 120.0, 127.5, 120.0, 16.0, 32.0, 0.0, 0.0, 0.0, 1.747691198328978E9, 0.0, 2025-05-19 23:46:38.328
196.0, 22633.57760114403, 19155.17677726469, 48572.95585548352, 34131.627873376354, 44926.67107900036, 1665.0261479647338, 8058.653242427497, 8023.404541421479, 0.0, 0.0, 7583.790431474499, -26209.208513403955, 17591.091107260123, 5453.020984294532, -8046.695059143908, -31124.53593308162, 0.060089843750000003, -3.73046875E-4, 1.0310947265625, 192.0, 0.0, 0.0, 0.0, 0.0, 0.0, 0.0, 0.0, 0.0, 0.0, 1.747691198336029E9, 0.0, 2025-05-19 23:46:38.336
198.0, 22650.90020309689, 19168.49841696005, 48586.88099227918, 34135.22650423366, 44936.99758493872, 1629.6880399808933, 8083.843658428629, 8038.134341017526, 0.0, 0.0, 7563.427992275714, -26227.17931594602, 17562.547929590695, 5420.700361812158, -8071.080812344649, -31155.046064263115, 0.060089843750000003, -3.73046875E-4, 1.0310947265625, 192.0, 0.0, 0.0, 0.0, 0.0, 0.0, 0.0, 0.0, 0.0, 0.0, 1.747691198346044E9, 0.0, 2025-05-19 23:46:38.346
200.0, 22649.804967618584, 19168.453713471143, 48582.34358815475, 34146.58119041696, 44946.98881471024, 1674.0115492357672, 8084.491859017833, 8024.298611199691, 0.0, 0.0, 7590.719472255644, -26203.039431934292, 17590.75583109329, 5454.630309895314, -8036.547367161199, -31123.86538074796, 0.060089843750000003, -3.73046875E-4, 1.0310947265625, 192.0, 0.0, 0.0, 0.0, 0.0, 0.0, 0.0, 0.0, 0.0, 0.0, 1.74769119835308E9, 0.0, 2025-05-19 23:46:38.353
202.0, 22650.25200250769, 19172.611137939828, 48584.71287306701, 34135.919408311776, 44932.59429128102, 1645.110743655055, 8061.983652351339, 8026.39967517849, 0.0, 0.0, 7572.167524357739, -26215.42229836253, 17582.61979611156, 5433.016173007032, -8064.174123307958, -31144.339578669023, 0.060089843750000003, -3.73046875E-4, 1.0310947265625, 192.0, 0.0, 0.0, 0.0, 0.0, 0.0, 0.0, 0.0, 0.0, 0.0, 1.747691198360109E9, 0.0, 2025-05-19 23:46:38.360
204.0, 22659.684438667828, 19181.596539210863, 48591.686617337065, 34150.62685616337, 44928.146294134414, 1646.1389238999993, 8092.829059699662, 8024.209204221869, 0.0, 0.0, 7599.280190382027, -26198.41262083204, 17593.840371828126, 5444.482617912605, -8041.285936985724, -31135.57769484254, 0.060044921875000004, -0.0041865234375, 1.03154736328125, 192.0, 0.5, 112.0, 127.5, 96.0, 16.0, 32.0, 0.0, 0.0, 0.0, 1.747691198369122E9, 0.0, 2025-05-19 23:46:38.369
206.0, 22643.52412742664, 19168.878396615793, 48578.27557066388, 34140.41210894729, 44923.49713128771, 1656.174857160432, 8060.061402328182, 8019.850614053084, 0.0, 0.0, 7591.635893778312, -26206.347490113676, 17601.417613198475, 5451.03167903801, -8047.075038799649, -31127.464011605265, 0.060044921875000004, -0.0041865234375, 1.03154736328125, 192.0, 0.0, 0.0, 0.0, 0.0, 0.0, 0.0, 0.0, 0.0, 0.0, 1.747691198377132E9, 0.0, 2025-05-19 23:46:38.377
208.0, 22666.3005550266, 19191.006623626545, 48599.68854185207, 34155.074853309976, 44937.377564594455, 1670.7481945452923, 8084.402452040012, 8040.481274185333, 0.0, 0.0, 7582.7175477406445, -26201.810085989247, 17588.81122932568, 5433.060876495943, -8058.720297660863, -31143.043177490614, 0.060044921875000004, -0.0041865234375, 1.03154736328125, 192.0, 0.0, 0.0, 0.0, 0.0, 0.0, 0.0, 0.0, 0.0, 0.0, 1.74769119838418E9, 0.0, 2025-05-19 23:46:38.384
210.0, 22660.734970657228, 19186.446867757662, 48589.38438765817, 34159.880478367864, 44948.95576822231, 1676.2020201923872, 8075.97584438036, 8029.171291490948, 0.0, 0.0, 7604.823423006943, -26185.381553814597, 17610.693587147427, 5462.565179176949, -8031.205300236381, -31113.270653876145, 0.060044921875000004, -0.0041865234375, 1.03154736328125, 192.0, 0.0, 0.0, 0.0, 0.0, 0.0, 0.0, 0.0, 0.0, 0.0, 1.747691198392183E9, 0.0, 2025-05-19 23:46:38.392
212.0, 22655.325848499044, 19179.51782697652, 48584.24348643345, 34140.27799848056, 44945.60300655401, 1664.3555956310745, 8055.948681348405, 8028.701904857387, 0.0, 0.0, 7583.0081204185635, -26206.302786624765, 17594.510924161783, 5437.285356197996, -8062.318928518168, -31136.561171598576, 0.060044921875000004, -0.0041865234375, 1.03154736328125, 192.0, 0.0, 0.0, 0.0, 0.0, 0.0, 0.0, 0.0, 0.0, 0.0, 1.747691198401225E9, 0.0, 2025-05-19 23:46:38.401
214.0, 22663.148959058402, 19192.66065271624, 48599.28621045187, 34156.14773704383, 44952.219122912786, 1661.2934066406974, 8093.901943433517, 8028.366628690556, 0.0, 0.0, 7601.962399716664, -26192.377649829108, 17600.657653886992, 5445.622556879825, -8044.973974820849, -31131.666139562865, 0.060044921875000004, -0.0041865234375, 1.03154736328125, 192.0, 0.0, 0.0, 0.0, 0.0, 0.0, 0.0, 0.0, 0.0, 0.0, 1.747691198410236E9, 0.0, 2025-05-19 23:46:38.410
216.0, 22657.024581077647, 19189.55376023695, 48585.36107365621, 34141.350882214414, 44942.607872797, 1658.655900794971, 8058.854408127596, 8010.1052534705705, 0.0, 0.0, 7606.589210818913, -26199.597263288175, 17610.447717958417, 5454.920882573233, -8041.218881752358, -31126.324072638046, 0.06, -0.008, 1.03, 192.0, 0.5, 112.0, 127.5, 96.0, 16.0, 24.0, 0.0, 0.0, 0.0, 1.747691198417253E9, 0.0, 2025-05-19 23:46:38.417
218.0, 22655.325848499044, 19177.774390909006, 48594.346474927246, 34148.0117020621, 44940.7079745183, 1650.3187001131416, 8088.157545108503, 8038.246099739802, 0.0, 0.0, 7584.058652407963, -26212.04718494978, 17586.330185691142, 5432.032696250999, -8061.603672695598, -31146.5524013701, 0.06, -0.008, 1.03, 192.0, 0.0, 0.0, 0.0, 0.0, 0.0, 0.0, 0.0, 0.0, 0.0, 1.747691198424288E9, 0.0, 2025-05-19 23:46:38.424
220.0, 22661.80785439108, 19187.966786380624, 48596.447538906046, 34162.36152200241, 44956.7118235483, 1681.6781975839374, 8086.83879218564, 8027.53961414571, 0.0, 0.0, 7611.998332977097, -26194.94810044147, 17614.135755793544, 5469.650682169281, -8027.606669379076, -31111.21429338626, 0.06, -0.008, 1.03, 192.0, 0.0, 0.0, 0.0, 0.0, 0.0, 0.0, 0.0, 0.0, 0.0, 1.747691198433332E9, 0.0, 2025-05-19 23:46:38.433
222.0, 22667.73106667174, 19186.98330962459, 48599.2191552185, 34153.48787945365, 44937.5563785501, 1636.0806388951112, 8063.59297795212, 8028.5901461351095, 0.0, 0.0, 7600.487184582614, -26193.361126585143, 17610.179497024954, 5455.770248862535, -8046.78446612173, -31122.233703402726, 0.06, -0.008, 1.03, 192.0, 0.0, 0.0, 0.0, 0.0, 0.0, 0.0, 0.0, 0.0, 0.0, 1.747691198440315E9, 0.0, 2025-05-19 23:46:38.440
224.0, 22672.693153940818, 19187.966786380624, 48604.29300120986, 34163.76968190309, 44955.52718109217, 1643.2779006097198, 8097.6793882464635, 8037.173216005947, 0.0, 0.0, 7599.9730944601415, -26195.32808009721, 17600.61295039808, 5453.870350583834, -8041.218881752358, -31125.854686004484, 0.06, -0.008, 1.03, 192.0, 0.0, 0.0, 0.0, 0.0, 0.0, 0.0, 0.0, 0.0, 0.0, 1.747691198450377E9, 0.0, 2025-05-19 23:46:38.450
226.0, 22684.070191868566, 19197.488629518586, 48608.27161172291, 34167.74829241613, 44957.53883809315, 1670.3011596561862, 8061.514265717777, 8025.0138670222605, 0.0, 0.0, 7623.353019160393, -26183.99574565837, 17629.49140423434, 5477.429089239728, -8027.1819862344255, -31102.5418165376, 0.06, -0.008, 1.03, 192.0, 0.5, 112.0, 127.5, 96.0, 16.0, 24.0, 0.0, 0.0, 0.0, 1.747691198456385E9, 0.0, 2025-05-19 23:46:38.456
228.0, 22680.87389241146, 19196.32633880691, 48608.33866695627, 34158.02528357808, 44945.89357923193, 1681.0747004836442, 8081.764946194286, 8042.492931186311, 0.0, 0.0, 7617.675676068745, -26189.98601317239, 17614.895715105024, 5452.573949405426, -8045.063381798671, -31126.92756973834, 0.06, -0.008, 1.03, 192.0, 0.0, 0.0, 0.0, 0.0, 0.0, 0.0, 0.0, 0.0, 0.0, 1.747691198465431E9, 0.0, 2025-05-19 23:46:38.465
230.0, 22694.26258734019, 19208.84331570188, 48616.69821938255, 34179.66177221081, 44959.23757067175, 1649.826961735125, 8091.733824221352, 8034.088675271115, 0.0, 0.0, 7627.085760484429, -26186.163864870534, 17626.608029199604, 5477.585551450915, -8022.577526876632, -31104.57582528303, 0.06, -0.008, 1.03, 192.0, 0.0, 0.0, 0.0, 0.0, 0.0, 0.0, 0.0, 0.0, 0.0, 1.747691198472441E9, 0.0, 2025-05-19 23:46:38.472
232.0, 22677.610537720986, 19190.403126526253, 48604.6729808656, 34157.645303922334, 44945.357137365005, 1656.3313193716192, 8057.267434271269, 8028.500739157288, 0.0, 0.0, 7613.6523620667895, -26184.062800891734, 17625.9598286104, 5465.493257700594, -8039.944832318406, -31112.130714908926, 0.06, -0.008, 1.03, 192.0, 0.0, 0.0, 0.0, 0.0, 0.0, 0.0, 0.0, 0.0, 0.0, 1.747691198480455E9, 0.0, 2025-05-19 23:46:38.480
234.0, 22690.127514615957, 19198.695623719173, 48616.60881240473, 34173.738559930156, 44960.82454452808, 1655.6384152935047, 8098.931085935961, 8037.195567750403, 0.0, 0.0, 7620.290830170015, -26186.007402659347, 17617.28735176174, 5466.968472834644, -8026.734951345319, -31112.734212009218, 0.06, -0.008, 1.03, 192.0, 0.0, 0.0, 0.0, 0.0, 0.0, 0.0, 0.0, 0.0, 0.0, 1.74769119848947E9, 0.0, 2025-05-19 23:46:38.489
236.0, 22680.426857522354, 19194.873475417313, 48607.399893689144, 34161.489803968645, 44956.264788659195, 1672.0222439792449, 8060.21786453937, 8022.219898965347, 0.0, 0.0, 7622.123673215351, -26187.840245704683, 17629.40199725652, 5478.636083440314, -8025.662067611464, -31103.413534571355, 0.06, -0.008, 1.028, 192.0, 0.5, 112.0, 127.5, 96.0, 16.0, 16.0, 0.0, 0.0, 0.0, 1.747691198496486E9, 0.0, 2025-05-19 23:46:38.496
238.0, 22687.177084347855, 19193.934702150193, 48599.84500406325, 34152.59380967543, 44949.31339613359, 1650.5869210466053, 8077.540466492233, 8028.344276946102, 0.0, 0.0, 7613.294734155505, -26201.69832726697, 17609.66540690248, 5452.261024983051, -8045.242195754314, -31128.000453472192, 0.06, -0.008, 1.028, 192.0, 0.0, 0.0, 0.0, 0.0, 0.0, 0.0, 0.0, 0.0, 0.0, 1.74769119850449E9, 0.0, 2025-05-19 23:46:38.504
240.0, 22682.080886612046, 19196.37104229582, 48601.7225505975, 34165.49076622615, 44951.10153569002, 1664.824982264636, 8076.244065313825, 8016.073169240138, 0.0, 0.0, 7608.511460842069, -26191.595338773175, 17613.420499970973, 5466.543789689993, -8034.289840971213, -31114.790572499107, 0.06, -0.008, 1.028, 192.0, 0.0, 0.0, 0.0, 0.0, 0.0, 0.0, 0.0, 0.0, 0.0, 1.747691198512531E9, 0.0, 2025-05-19 23:46:38.512
242.0, 22682.01383137868, 19195.052289372958, 48601.78960583086, 34152.839678864446, 44961.27157941718, 1643.3002523541752, 8045.108085287582, 8017.414273907456, 0.0, 0.0, 7606.7233212856445, -26198.05499292076, 17613.308741248697, 5451.143437760286, -8051.3665737350675, -31131.621436073954, 0.06, -0.008, 1.028, 192.0, 0.0, 0.0, 0.0, 0.0, 0.0, 0.0, 0.0, 0.0, 0.0, 1.747691198521612E9, 0.0, 2025-05-19 23:46:38.521
244.0, 22707.83009622456, 19222.969618197636, 48633.3279172573, 34185.5179292581, 44983.51156515021, 1706.756854862792, 8084.827135184662, 8028.791311835207, 0.0, 0.0, 7629.164472718772, -26179.50304502285, 17624.574020454173, 5465.068574555943, -8026.913765300962, -31116.668119033355, 0.06, -0.008, 1.028, 192.0, 0.0, 0.0, 0.0, 0.0, 0.0, 0.0, 0.0, 0.0, 0.0, 1.747691198528776E9, 0.0, 2025-05-19 23:46:38.528
246.0, 22712.948645704826, 19227.12704266632, 48636.077181825305, 34195.03977239606, 44981.790480827156, 1683.175764462443, 8058.742649405319, 8026.310268200668, 0.0, 0.0, 7648.342269461426, -26164.996762871357, 17654.63711674656, 5493.589400480914, -8008.808852292163, -31090.538929765098, 0.052000000000000005, -0.01, 1.026, 192.0, 0.5, 80.0, 127.5, 88.0, 16.0, 8.0, 0.0, 0.0, 0.0, 1.747691198541904E9, 0.0, 2025-05-19 23:46:38.541
248.0, 22731.142965691444, 19245.23195567512, 48647.878902897704, 34201.36531607692, 44983.04217851665, 1702.107692016088, 8092.091452132637, 8049.421971967456, 0.0, 0.0, 7648.968118306175, -26155.51962322231, 17649.742084710848, 5487.196801566697, -8014.642657594998, -31093.779932711117, 0.052000000000000005, -0.01, 1.026, 192.0, 0.0, 0.0, 0.0, 0.0, 0.0, 0.0, 0.0, 0.0, 0.0, 1.74769119854462E9, 0.0, 2025-05-19 23:46:38.544
250.0, 22724.392738865943, 19242.214470173654, 48644.86141739624, 34213.18938889377, 44983.55626863912, 1684.7180348298593, 8080.5356002492435, 8024.991515277806, 0.0, 0.0, 7662.245054512627, -26138.12996603608, 17667.0199831748, 5513.817729212968, -7990.033386949705, -31070.19884231077, 0.052000000000000005, -0.01, 1.026, 192.0, 0.0, 0.0, 0.0, 0.0, 0.0, 0.0, 0.0, 0.0, 0.0, 1.747691198569712E9, 0.0, 2025-05-19 23:46:38.569
252.0, 22709.0594421696, 19220.980312941112, 48624.610736919734, 34173.20211806323, 44963.596160840534, 1659.2817496397197, 8050.830131868141, 8017.950715774384, 0.0, 0.0, 7635.333554188437, -26162.806291914738, 17648.177462598975, 5485.051034098988, -8024.164500732959, -31097.937357179806, 0.052000000000000005, -0.01, 1.026, 192.0, 0.0, 0.0, 0.0, 0.0, 0.0, 0.0, 0.0, 0.0, 0.0, 1.747691198575752E9, 0.0, 2025-05-19 23:46:38.575
254.0, 22713.485087571753, 19226.65765603276, 48628.9246235996, 34182.679257712276, 44983.15393723893, 1681.7229010728481, 8091.1079753766035, 8019.537689630711, 0.0, 0.0, 7632.047847753507, -26176.37380079911, 17628.753796667315, 5480.580685207926, -8017.838957052107, -31105.894578205895, 0.052000000000000005, -0.01, 1.026, 192.0, 0.0, 0.0, 0.0, 0.0, 0.0, 0.0, 0.0, 0.0, 0.0, 1.747691198582776E9, 0.0, 2025-05-19 23:46:38.582
0.0, 22704.387927578442, 19220.51092630755, 48617.681696138585, 34176.62193496489, 44966.03250098616, 1659.7287845288258, 8058.675594171953, 8014.463843639356, 0.0, 0.0, 7630.483225641636, -26178.988954900382, 17639.214413072397, 5493.56704873646, -8014.106215728071, -31092.885862932908, 0.054, -0.008, 1.032, 192.0, 0.5, 88.0, 127.5, 96.0, 16.0, 32.0, 0.0, 0.0, 0.0, 1.747691198589702E9, 0.0, 2025-05-19 23:46:38.589
2.0, 22710.93698870385, 19224.89186822079, 48631.048039322864, 34180.84641466694, 44969.31820742109, 1661.1816479184208, 8085.274170073769, 8034.692172371409, 0.0, 0.0, 7628.0915889849175, -26174.004515886845, 17628.61968620058, 5475.350377005384, -8027.003172278783, -31110.409630585866, 0.054, -0.008, 1.032, 192.0, 0.0, 0.0, 0.0, 0.0, 0.0, 0.0, 0.0, 0.0, 0.0, 1.747691198595781E9, 0.0, 2025-05-19 23:46:38.595
4.0, 22705.438459567842, 19217.89577220628, 48627.561167187836, 34187.26136532562, 44984.45033841734, 1675.9561510033789, 8089.275132331269, 8023.940983288406, 0.0, 0.0, 7637.635783867334, -26168.66244896203, 17638.476805505372, 5499.981999395132, -8001.231610921814, -31088.10258961947, 0.054, -0.008, 1.032, 192.0, 0.0, 0.0, 0.0, 0.0, 0.0, 0.0, 0.0, 0.0, 0.0, 1.747691198602819E9, 0.0, 2025-05-19 23:46:38.602
6.0, 22701.63866301044, 19212.598408770373, 48610.842062335265, 34158.60642893391, 44968.46884113179, 1699.7384071038257, 8056.0604400706825, 8022.823396065641, 0.0, 0.0, 7619.597926091901, -26188.264928849334, 17624.48461347635, 5473.383423493317, -8032.188776992414, -31111.370755597447, 0.054, -0.008, 1.032, 192.0, 0.0, 0.0, 0.0, 0.0, 0.0, 0.0, 0.0, 0.0, 0.0, 1.747691198609846E9, 0.0, 2025-05-19 23:46:38.609
8.0, 22712.255741626712, 19223.729577509115, 48618.64282115016, 34174.81144366401, 44970.4134428994, 1656.5771885606277, 8102.417958070989, 8028.388980435012, 0.0, 0.0, 7628.0915889849175, -26183.593414258172, 17620.57305819667, 5473.919865360244, -8020.856442553573, -31111.63897653091, 0.054, -0.008, 1.032, 192.0, 0.0, 0.0, 0.0, 0.0, 0.0, 0.0, 0.0, 0.0, 0.0, 1.747691198615869E9, 0.0, 2025-05-19 23:46:38.615
10.0, 22704.946721189826, 19217.1358128948, 48616.0276670489, 34169.98346686166, 44963.104422462515, 1681.2311626948313, 8063.123591318559, 8018.174233218937, 0.0, 0.0, 7626.437559895225, -26187.2814520933, 17630.45252924592, 5480.312464274462, -8027.53961414571, -31103.033554915615, 0.058, -0.002, 1.026, 192.0, 0.5, 104.0, 127.5, 120.0, 16.0, 8.0, 0.0, 0.0, 0.0, 1.747691198622874E9, 0.0, 2025-05-19 23:46:38.622
12.0, 22721.64347429794, 19234.659580547763, 48631.740943400975, 34177.38189427637, 44983.91389655041, 1654.8784559820242, 8090.616236998587, 8038.514320673266, 0.0, 0.0, 7629.723266330156, -26183.816931702728, 17624.35050300962, 5466.074403056432, -8030.221823480347, -31117.048098689094, 0.058, -0.002, 1.026, 192.0, 0.0, 0.0, 0.0, 0.0, 0.0, 0.0, 0.0, 0.0, 0.0, 1.747691198628939E9, 0.0, 2025-05-19 23:46:38.628
14.0, 22723.297503387632, 19234.592525314394, 48633.79730389086, 34192.178749105784, 44986.66316111841, 1686.95320927539, 8107.111824406604, 8028.567794390655, 0.0, 0.0, 7648.364621205881, -26161.88987039207, 17646.098750364632, 5500.227868584141, -7996.96242773085, -31086.694429718787, 0.058, -0.002, 1.026, 192.0, 0.0, 0.0, 0.0, 0.0, 0.0, 0.0, 0.0, 0.0, 0.0, 1.747691198635932E9, 0.0, 2025-05-19 23:46:38.635
16.0, 22723.811593510105, 19231.686798535204, 48629.7292864, 34174.923202386286, 44971.37456791098, 1671.5752090901387, 8068.465658243377, 8027.807835079174, 0.0, 0.0, 7637.054638511496, -26179.50304502285, 17637.515680493794, 5482.055900341976, -8022.4881198988105, -31103.72645899373, 0.058, -0.002, 1.026, 192.0, 0.0, 0.0, 0.0, 0.0, 0.0, 0.0, 0.0, 0.0, 0.0, 1.747691198642953E9, 0.0, 2025-05-19 23:46:38.642
18.0, 22729.60069532403, 19237.81117651596, 48635.98777484748, 34190.7705892051, 44984.74091109526, 1696.0056657797893, 8108.542336051743, 8033.999268293294, 0.0, 0.0, 7649.549263662013, -26161.55459422524, 17642.79069218525, 5488.7614236785685, -8009.524108114733, -31099.30081359158, 0.058, -0.002, 1.026, 192.0, 0.0, 0.0, 0.0, 0.0, 0.0, 0.0, 0.0, 0.0, 0.0, 1.74769119865096E9, 0.0, 2025-05-19 23:46:38.650
20.0, 22717.396642851432, 19229.898658978782, 48628.164664288124, 34183.57332749049, 44973.49798363423, 1685.343883674608, 8065.783448908741, 8015.290858184202, 0.0, 0.0, 7645.034211282041, -26169.1765390845, 17648.95977365491, 5498.104452860886, -8008.652390080976, -31089.801322198073, 0.06, -0.008, 1.03, 192.0, 0.5, 112.0, 127.5, 96.0, 16.0, 24.0, 0.0, 0.0, 0.0, 1.747691198658029E9, 0.0, 2025-05-19 23:46:38.658
22.0, 22734.249858170733, 19241.968600984645, 48632.99264109047, 34183.6180309794, 44974.97319876828, 1674.95032250289, 8092.69494923293, 8032.92638455944, 0.0, 0.0, 7636.697010600211, -26172.596355986163, 17635.794596170737, 5477.876124128834, -8022.264602454258, -31108.889711962907, 0.06, -0.008, 1.03, 192.0, 0.0, 0.0, 0.0, 0.0, 0.0, 0.0, 0.0, 0.0, 0.0, 1.747691198665029E9, 0.0, 2025-05-19 23:46:38.665
24.0, 22726.694968544838, 19241.745083540092, 48632.94793760156, 34197.7219817307, 44986.77491984069, 1737.8704831445793, 8093.4549085444105, 8046.605652166088, 0.0, 0.0, 7644.207196737194, -26160.571117469208, 17649.026828888276, 5499.981999395132, -8001.253962666269, -31087.364982052444, 0.06, -0.008, 1.03, 192.0, 0.0, 0.0, 0.0, 0.0, 0.0, 0.0, 0.0, 0.0, 0.0, 1.747691198675019E9, 0.0, 2025-05-19 23:46:38.675
26.0, 22727.20905866731, 19239.532260839016, 48629.61752767772, 34185.540281002555, 44970.860477788505, 1672.3575201460744, 8063.1682948074695, 8041.285936985724, 0.0, 0.0, 7642.150836247306, -26164.572079726706, 17651.999610900835, 5488.850830656389, -8019.4929861417995, -31092.841159443997, 0.06, -0.008, 1.03, 192.0, 0.0, 0.0, 0.0, 0.0, 0.0, 0.0, 0.0, 0.0, 0.0, 1.747691198682041E9, 0.0, 2025-05-19 23:46:38.682
28.0, 22732.59582908104, 19247.91416500976, 48634.892539369175, 34201.320612588, 44983.08688200556, 1683.9804272628342, 8085.654149729508, 8044.348125976101, 0.0, 0.0, 7646.330612460449, -26156.3242860227, 17646.858709676115, 5490.236638812618, -8012.675704082931, -31091.544758265587, 0.06, -0.008, 1.03, 192.0, 0.0, 0.0, 0.0, 0.0, 0.0, 0.0, 0.0, 0.0, 0.0, 1.747691198689107E9, 0.0, 2025-05-19 23:46:38.689
30.0, 22720.950570219826, 19233.541993324994, 48631.316260256324, 34192.06699038351, 44981.634018615965, 1713.5517851772054, 8076.892265903029, 8038.000230550794, 0.0, 0.0, 7645.213025237683, -26160.1240825801, 17654.92768942448, 5506.262839587073, -8006.037235979705, -31076.14440633588, 0.062, -0.006, 1.034, 192.0, 0.5, 120.0, 127.5, 104.0, 16.0, 40.0, 0.0, 0.0, 0.0, 1.747691198696067E9, 0.0, 2025-05-19 23:46:38.696
32.0, 22734.003988981724, 19245.43312137522, 48630.75746664494, 34182.612202478915, 44990.19473674235, 1674.592694591605, 8095.891248690039, 8049.712544645375, 0.0, 0.0, 7638.038115267529, -26176.59731824366, 17634.900526392525, 5484.738109676613, -8018.040122752205, -31099.747848480685, 0.062, -0.006, 1.034, 192.0, 0.0, 0.0, 0.0, 0.0, 0.0, 0.0, 0.0, 0.0, 0.0, 1.74769119870411E9, 0.0, 2025-05-19 23:46:38.704
34.0, 22729.22071566829, 19240.47103410614, 48635.585443447286, 34197.7219817307, 44985.210297728816, 1701.8841745715351, 8093.7454812223295, 8035.854463083085, 0.0, 0.0, 7650.80096135151, -26162.292201792265, 17648.088055621156, 5503.647685485803, -8003.1762126894255, -31083.654592472863, 0.062, -0.006, 1.034, 192.0, 0.0, 0.0, 0.0, 0.0, 0.0, 0.0, 0.0, 0.0, 0.0, 1.747691198713126E9, 0.0, 2025-05-19 23:46:38.713
36.0, 22716.189648650845, 19228.42344384473, 48626.26476600942, 34176.21960356469, 44965.5631143526, 1676.8725725260465, 8064.576454708154, 8035.027448538238, 0.0, 0.0, 7636.0711617554625, -26172.976335641903, 17640.756683439813, 5490.28134230153, -8019.425930908434, -31093.31054607756, 0.062, -0.006, 1.034, 192.0, 0.0, 0.0, 0.0, 0.0, 0.0, 0.0, 0.0, 0.0, 0.0, 1.747691198720201E9, 0.0, 2025-05-19 23:46:38.720
38.0, 22736.552087849628, 19248.9423452547, 48642.358022017244, 34197.40905730832, 45002.57760317059, 1703.269982727764, 8106.374216839578, 8046.382134721534, 0.0, 0.0, 7646.420019438269, -26166.471978005407, 17639.460282261407, 5494.550525492493, -8003.511488856255, -31092.125903621425, 0.062, -0.006, 1.034, 192.0, 0.0, 0.0, 0.0, 0.0, 0.0, 0.0, 0.0, 0.0, 0.0, 1.747691198730249E9, 0.0, 2025-05-19 23:46:38.730
40.0, 22723.342206876543, 19234.32430438093, 48631.115094556226, 34185.38381879137, 44983.26569596121, 1694.2845814567306, 8072.824248412163, 8029.9983060357945, 0.0, 0.0, 7655.383068964848, -26158.671219190506, 17659.241576104352, 5509.213269855174, -7999.197602176381, -31076.05499935806, 0.068, -0.006, 1.038, 192.0, 1.0, 16.0, 127.5, 104.0, 16.0, 56.0, 0.0, 0.0, 0.0, 1.747691198737202E9, 0.0, 2025-05-19 23:46:38.737
42.0, 22733.445195370343, 19239.152281183277, 48630.3774869892, 34177.11367334291, 44985.970257040295, 1672.178706190432, 8088.604579997609, 8044.973974820849, 0.0, 0.0, 7639.625089123856, -26178.161940355534, 17633.470014747385, 5475.305673516474, -8027.785483334718, -31107.88388346242, 0.068, -0.006, 1.038, 192.0, 0.0, 0.0, 0.0, 0.0, 0.0, 0.0, 0.0, 0.0, 0.0, 1.747691198744196E9, 0.0, 2025-05-19 23:46:38.744
44.0, 22747.347980421542, 19253.68091507923, 48628.11996079922, 34188.848339181946, 44997.034370545676, 1686.6179331085602, 8083.150754350514, 8028.1207595015485, 0.0, 0.0, 7646.554129905001, -26168.707152450937, 17644.288259063753, 5491.734205691124, -8012.005151749272, -31092.327069321524, 0.068, -0.006, 1.038, 192.0, 0.0, 0.0, 0.0, 0.0, 0.0, 0.0, 0.0, 0.0, 0.0, 1.747691198752292E9, 0.0, 2025-05-19 23:46:38.752
46.0, 22726.940837733848, 19236.313609637455, 48636.85949288124, 34186.90373741433, 44968.55824810961, 1720.8384538696355, 8063.1682948074695, 8042.202358508392, 0.0, 0.0, 7654.019612553074, -26162.94040238147, 17655.17355861349, 5486.0568625994765, -8021.459939653867, -31092.4388280438, 0.068, -0.006, 1.038, 192.0, 0.0, 0.0, 0.0, 0.0, 0.0, 0.0, 0.0, 0.0, 0.0, 1.7476911987603E9, 0.0, 2025-05-19 23:46:38.760
