%OpenBCI Raw EXG Data
%Number of channels = 16
%Sample Rate = 125 Hz
%Board = OpenBCI_GUI$BoardCytonSerialDaisy
Sample Index, EXG Channel 0, EXG Channel 1, EXG Channel 2, EXG Channel 3, EXG Channel 4, EXG Channel 5, EXG Channel 6, EXG Channel 7, EXG Channel 8, EXG Channel 9, EXG Channel 10, EXG Channel 11, EXG Channel 12, EXG Channel 13, EXG Channel 14, EXG Channel 15, Accel Channel 0, Accel Channel 1, Accel Channel 2, Not Used, Digital Channel 0 (D11), Digital Channel 1 (D12), Digital Channel 2 (D13), Digital Channel 3 (D17), Not Used, Digital Channel 4 (D18), Analog Channel 0, Analog Channel 1, Analog Channel 2, Timestamp, Marker Channel, Timestamp (Formatted)
198.0, 22282.07406783987, 18849.248450904903, 47510.55508977832, 30309.926606407957, 37478.15340496939, 4232.16870214566, 9363.413973261593, 1197.42765395971, 0.0, 0.0, 15294.65053017742, -13610.804213381316, 6909.728873935804, -177.76342365305706, -26692.296766316507, -34050.58044798141, 0.066, 0.0, 1.024, 192.0, 1.0, 8.0, 0.0, 0.0, 16.0, 0.0, 0.0, 0.0, 0.0, 1.747688271990092E9, 0.0, 2025-05-19 22:57:51.990
0.0, 11679.345271509323, 9924.15218641188, 23889.11979068754, 15368.433638624389, 19056.605584216784, 2270.6466639812784, 5211.6444959216715, 825.1593500565708, 0.0, 0.0, 7646.12944676035, -6802.77577671716, 3446.951919430723, -94.10084415684274, -13349.467617209866, -17034.80089125644, 0.061, 0.001, 1.028, 192.0, 0.5, 96.0, 0.0, 8.0, 16.0, 32.0, 0.0, 0.0, 0.0, 1.747688272087649E9, 0.0, 2025-05-19 22:57:52.087
2.0, 23357.32708660687, 19851.61243100315, 47781.81586048793, 30759.554297870913, 38125.59403486181, 4560.180552027292, 10434.755436748916, 1630.7385719702927, 0.0, 0.0, 15335.107187641524, -13794.557904548396, 7696.554982251523, 310.2198612952067, -26604.141486184777, -33727.03894699084, 0.061, 0.001, 1.028, 192.0, 0.0, 0.0, 0.0, 0.0, 0.0, 0.0, 0.0, 0.0, 0.0, 1.747688272093616E9, 0.0, 2025-05-19 22:57:52.093
4.0, 23339.400987553716, 19832.43463426049, 47759.88879917727, 30729.200628900606, 38095.06155193586, 4583.426366260811, 10391.124831572155, 1634.1360371274993, 0.0, 0.0, 15322.70196946883, -13804.370320364276, 7700.622999742389, 296.3617797329163, -26629.197791719176, -33728.827086547266, 0.061, 0.001, 1.028, 192.0, 0.0, 0.0, 0.0, 0.0, 0.0, 0.0, 0.0, 0.0, 0.0, 1.747688272101643E9, 0.0, 2025-05-19 22:57:52.101
6.0, 23363.742037265547, 19850.137215869097, 47783.73811051108, 30745.249181419516, 38120.92252027065, 4514.203013682725, 10447.920614233091, 1646.5412553001947, 0.0, 0.0, 15324.64657123644, -13807.879544243759, 7681.199333810728, 286.7058261282237, -26626.35912017335, -33744.205086732516, 0.061, 0.001, 1.028, 192.0, 0.0, 0.0, 0.0, 0.0, 0.0, 0.0, 0.0, 0.0, 0.0, 1.747688272109629E9, 0.0, 2025-05-19 22:57:52.109
8.0, 23346.978228924065, 19832.412282516038, 47774.26097086203, 30744.243352919028, 38129.37147967476, 4527.725819078186, 10418.438663296542, 1629.2857085806977, 0.0, 0.0, 15336.381237075477, -13802.06809068538, 7704.735720722166, 321.64160271186864, -26602.241587906075, -33714.92430149607, 0.058, 0.0, 1.03, 192.0, 0.5, 104.0, 0.0, 0.0, 16.0, 24.0, 0.0, 0.0, 0.0, 1.747688272117638E9, 0.0, 2025-05-19 22:57:52.117
10.0, 23343.021970155474, 19827.003160357854, 47756.49133402006, 30717.533018294936, 38090.56885130034, 4536.8453308159515, 10433.973125692979, 1648.7987814901808, 0.0, 0.0, 15311.928428641371, -13824.330428162864, 7674.583217451956, 272.04308176554224, -26647.302704727976, -33748.87660132368, 0.058, 0.0, 1.03, 192.0, 0.0, 0.0, 0.0, 0.0, 0.0, 0.0, 0.0, 0.0, 0.0, 1.747688272124691E9, 0.0, 2025-05-19 22:57:52.124
12.0, 23354.600173783325, 19836.145023840076, 47782.10643316584, 30751.351207655815, 38146.58232290534, 4564.405031729345, 10430.463901813497, 1643.65788026546, 0.0, 0.0, 15326.010027648215, -13808.192468666133, 7683.56861872299, 304.4531112257375, -26613.50686711155, -33730.45876389251, 0.058, 0.0, 1.03, 192.0, 0.0, 0.0, 0.0, 0.0, 0.0, 0.0, 0.0, 0.0, 0.0, 1.747688272133697E9, 0.0, 2025-05-19 22:57:52.133
14.0, 23335.57883925186, 19817.749538153355, 47757.273645076, 30717.08598340583, 38114.529921356436, 4515.588821838954, 10390.275465282853, 1640.1933598748876, 0.0, 0.0, 15318.499841511231, -13823.190489195644, 7687.167249580294, 293.6348669093689, -26626.582637617903, -33732.82804880477, 0.058, 0.0, 1.03, 192.0, 0.0, 0.0, 0.0, 0.0, 0.0, 0.0, 0.0, 0.0, 0.0, 1.747688272140728E9, 0.0, 2025-05-19 22:57:52.140
16.0, 23342.23965909954, 19825.05855859024, 47762.81687770091, 30726.36195735478, 38113.50174111149, 4517.5334236065655, 10443.606727553217, 1646.0718686666332, 0.0, 0.0, 15311.45904200781, -13829.270163687488, 7660.680432400755, 277.1616312458076, -26635.143355744287, -33752.00584554742, 0.058, 0.0, 1.03, 192.0, 0.0, 0.0, 0.0, 0.0, 0.0, 0.0, 0.0, 0.0, 0.0, 1.74768827214875E9, 0.0, 2025-05-19 22:57:52.148
18.0, 23336.785833452446, 19821.661093433035, 47772.6739970057, 30745.338588397335, 38125.772848817454, 4542.701487863242, 10418.952753419013, 1641.4897610532953, 0.0, 0.0, 15318.857469422517, -13821.245887428033, 7684.350929778926, 313.41616075231565, -26613.21629443363, -33719.93109225405, 0.058, 0.0, 1.03, 192.0, 0.5, 104.0, 0.0, 0.0, 16.0, 24.0, 0.0, 0.0, 0.0, 1.747688272156789E9, 0.0, 2025-05-19 22:57:52.156
20.0, 23339.91507767619, 19821.906962622044, 47766.750784725045, 30728.261855633482, 38092.222880390036, 4529.871586545895, 10418.438663296542, 1655.9513397158792, 0.0, 0.0, 15316.823460677084, -13820.910611261203, 7679.679415187767, 290.37151221889405, -26628.79546031898, -33734.415022661095, 0.058, 0.0, 1.03, 192.0, 0.0, 0.0, 0.0, 0.0, 0.0, 0.0, 0.0, 0.0, 0.0, 1.747688272165877E9, 0.0, 2025-05-19 22:57:52.165
22.0, 23347.71583649109, 19829.01481735883, 47771.087023149375, 30752.04411173393, 38115.80397079039, 4557.610101414932, 10456.838960270758, 1642.7414587427925, 0.0, 0.0, 15317.605771733019, -13810.964084978592, 7679.768822165588, 313.8855473858771, -26611.53991359948, -33723.12739171117, 0.058, 0.0, 1.03, 192.0, 0.0, 0.0, 0.0, 0.0, 0.0, 0.0, 0.0, 0.0, 0.0, 1.747688272172847E9, 0.0, 2025-05-19 22:57:52.172
24.0, 23345.48066204556, 19835.183898828494, 47774.35037783985, 30741.069405206374, 38107.91380499766, 4558.660633404331, 10401.160764832588, 1656.823057749636, 0.0, 0.0, 15322.947838657838, -13807.141936676733, 7700.801813698032, 317.3053642875391, -26615.89850376827, -33708.64346130413, 0.058, 0.0, 1.03, 192.0, 0.0, 0.0, 0.0, 0.0, 0.0, 0.0, 0.0, 0.0, 0.0, 1.74768827218094E9, 0.0, 2025-05-19 22:57:52.180
26.0, 23346.0618074014, 19834.222773816917, 47773.09868015035, 30740.93529473964, 38105.991554974506, 4512.526632848577, 10447.54063457735, 1654.1632001594544, 0.0, 0.0, 15320.802071190128, -13811.58993382334, 7675.700804674721, 299.178099534285, -26620.12298347032, -33731.24107494844, 0.058, 0.0, 1.03, 192.0, 0.0, 0.0, 0.0, 0.0, 0.0, 0.0, 0.0, 0.0, 0.0, 1.747688272188968E9, 0.0, 2025-05-19 22:57:52.188
28.0, 23346.508842290503, 19830.624142959612, 47775.8255929739, 30751.84294603383, 38118.1956074471, 4552.178627512291, 10408.91682015858, 1630.112723125544, 0.0, 0.0, 15325.27242008119, -13807.231343654556, 7698.052549130029, 328.59299523746915, -26602.465105350628, -33704.79896125782, 0.062, 0.002, 1.03, 192.0, 0.5, 120.0, 0.0, 8.0, 16.0, 24.0, 0.0, 0.0, 0.0, 1.747688272197026E9, 0.0, 2025-05-19 22:57:52.197
30.0, 23347.313505090893, 19832.43463426049, 47770.90820919374, 30724.685576520635, 38110.41720037666, 4518.315734662501, 10401.585447977239, 1634.9406999278904, 0.0, 0.0, 15318.723358955785, -13822.586992095352, 7681.109926832906, 286.8175848505002, -26632.50584989856, -33739.53357214136, 0.062, 0.002, 1.03, 192.0, 0.0, 0.0, 0.0, 0.0, 0.0, 0.0, 0.0, 0.0, 0.0, 1.747688272205019E9, 0.0, 2025-05-19 22:57:52.205
32.0, 23355.449540072626, 19843.029361132307, 47785.280380878496, 30757.632047847757, 38134.04299426592, 4529.379848167879, 10430.10627390221, 1639.947490685879, 0.0, 0.0, 15331.352094573032, -13807.11958493228, 7688.821278669987, 317.17125382080724, -26602.822733261914, -33726.0107667459, 0.062, 0.002, 1.03, 192.0, 0.0, 0.0, 0.0, 0.0, 0.0, 0.0, 0.0, 0.0, 0.0, 1.747688272214074E9, 0.0, 2025-05-19 22:57:52.214
34.0, 23341.300885832417, 19826.10909057964, 47775.155040640246, 30737.873105749266, 38120.96722375956, 4563.578017184498, 10392.823564150758, 1641.4450575643848, 0.0, 0.0, 15330.055693394626, -13807.164288421189, 7702.612304998912, 313.70673343023464, -26612.255169422053, -33719.08172596475, 0.062, 0.002, 1.03, 192.0, 0.0, 0.0, 0.0, 0.0, 0.0, 0.0, 0.0, 0.0, 0.0, 1.747688272222143E9, 0.0, 2025-05-19 22:57:52.222
36.0, 23365.351362866328, 19845.197480344472, 47795.070444949924, 30759.129614726262, 38130.89139829772, 4543.036764030071, 10450.222843911988, 1648.4635053233512, 0.0, 0.0, 15331.195632361847, -13801.35283486281, 7684.775612923577, 306.9788583491872, -26604.83439026289, -33728.49181038044, 0.062, 0.002, 1.03, 192.0, 0.0, 0.0, 0.0, 0.0, 0.0, 0.0, 0.0, 0.0, 0.0, 1.747688272229114E9, 0.0, 2025-05-19 22:57:52.229
38.0, 23338.0598828864, 19825.01385510133, 47776.540848796474, 30758.213193203595, 38108.47259860904, 4541.606252384931, 10426.284125600354, 1637.8687784515357, 0.0, 0.0, 15338.437597565366, -13794.177924892656, 7709.7425114801545, 337.9360244197875, -26591.333936611885, -33698.49576932142, 0.06, 0.0, 1.034, 192.0, 0.5, 112.0, 0.0, 0.0, 16.0, 40.0, 0.0, 0.0, 0.0, 1.747688272237176E9, 0.0, 2025-05-19 22:57:52.237
40.0, 23347.313505090893, 19833.50751799435, 47777.61373253033, 30740.13063193925, 38123.22474994955, 4548.75881061063, 10403.999436378412, 1653.760868759259, 0.0, 0.0, 15321.047940379136, -13809.131241933257, 7688.396595525336, 294.3948262208493, -26631.12004174233, -33728.02242374688, 0.06, 0.0, 1.034, 192.0, 0.0, 0.0, 0.0, 0.0, 0.0, 0.0, 0.0, 0.0, 0.0, 1.747688272245194E9, 0.0, 2025-05-19 22:57:52.245
42.0, 23355.114263905798, 19842.761140198843, 47783.64870353326, 30762.974114772573, 38124.43174415013, 4542.299156463046, 10446.557157821317, 1646.6530140224713, 0.0, 0.0, 15334.391931818955, -13798.87179122827, 7693.828069427976, 325.6872684582792, -26594.88786398028, -33711.79505727233, 0.06, 0.0, 1.034, 192.0, 0.0, 0.0, 0.0, 0.0, 0.0, 0.0, 0.0, 0.0, 0.0, 1.747688272253191E9, 0.0, 2025-05-19 22:57:52.253
44.0, 23340.47387128757, 19828.992465614374, 47761.20755210013, 30731.480506835047, 38092.40169434568, 4558.593578170965, 10397.316264786275, 1642.920272698435, 0.0, 0.0, 15324.020722391693, -13805.86788724278, 7703.036988143563, 311.4268554957933, -26622.9840067606, -33712.24209216143, 0.06, 0.0, 1.034, 192.0, 0.0, 0.0, 0.0, 0.0, 0.0, 0.0, 0.0, 0.0, 0.0, 1.747688272261218E9, 0.0, 2025-05-19 22:57:52.261
46.0, 23356.254202873017, 19843.945782654977, 47782.553468054946, 30742.499916851513, 38114.32875565634, 4532.665554602809, 10429.97216343548, 1642.6520517649712, 0.0, 0.0, 15322.433748535366, -13813.243962913033, 7681.221685555182, 287.62224765089127, -26628.527239385516, -33743.44512742104, 0.06, 0.0, 1.034, 192.0, 0.0, 0.0, 0.0, 0.0, 0.0, 0.0, 0.0, 0.0, 0.0, 1.747688272269277E9, 0.0, 2025-05-19 22:57:52.269
48.0, 23341.81497595489, 19831.02647435981, 47771.31054059393, 30744.46687036358, 38119.0449737364, 4559.889979349373, 10409.922648659069, 1623.6754207224155, 0.0, 0.0, 15330.41332130591, -13800.816392995883, 7704.355741066425, 321.68630620077926, -26603.515637340028, -33714.94665324052, 0.058, -0.006, 1.03, 192.0, 0.5, 104.0, 127.5, 104.0, 16.0, 24.0, 0.0, 0.0, 0.0, 1.747688272277275E9, 0.0, 2025-05-19 22:57:52.277
50.0, 23346.218269612586, 19832.45698600495, 47773.97039818411, 30731.74872776851, 38110.93129049913, 4527.0999702334375, 10412.649561482616, 1654.56553155965, 0.0, 0.0, 15314.565934487098, -13818.518974604485, 7677.511295975602, 286.3481982169388, -26632.08116675391, -33739.77944133037, 0.058, -0.006, 1.03, 192.0, 0.0, 0.0, 0.0, 0.0, 0.0, 0.0, 0.0, 0.0, 0.0, 1.747688272284311E9, 0.0, 2025-05-19 22:57:52.284
52.0, 23354.823691227877, 19843.297582065774, 47782.620523288315, 30759.531946126455, 38127.49393314051, 4539.751057595141, 10450.379306123175, 1643.4120110764518, 0.0, 0.0, 15335.93420218637, -13798.648273783718, 7691.861115915909, 323.563852735025, -26596.296023880965, -33717.31593815279, 0.058, -0.006, 1.03, 192.0, 0.0, 0.0, 0.0, 0.0, 0.0, 0.0, 0.0, 0.0, 0.0, 1.747688272293393E9, 0.0, 2025-05-19 22:57:52.293
54.0, 23331.91315316119, 19824.767985912324, 47758.65945323223, 30729.580608556345, 38097.9896304595, 4538.7228773501965, 10401.339578788231, 1643.501418054273, 0.0, 0.0, 15317.896344410938, -13812.841631512838, 7695.638560728856, 310.01869559510897, -26621.821716048922, -33717.33828989724, 0.058, -0.006, 1.03, 192.0, 0.0, 0.0, 0.0, 0.0, 0.0, 0.0, 0.0, 0.0, 0.0, 1.747688272303414E9, 0.0, 2025-05-19 22:57:52.303
56.0, 23350.554508036916, 19841.040055875786, 47780.318293609416, 30742.142288940227, 38118.82145629185, 4532.4196854138, 10435.06836117129, 1650.206941390865, 0.0, 0.0, 15318.164565344403, -13816.596724581328, 7674.404403496314, 296.49589019964816, -26622.291102682484, -33737.18663897355, 0.058, -0.006, 1.03, 192.0, 0.0, 0.0, 0.0, 0.0, 0.0, 0.0, 0.0, 0.0, 0.0, 1.74768827231144E9, 0.0, 2025-05-19 22:57:52.311
58.0, 23338.41751079768, 19830.69119819298, 47765.297921335456, 30743.863373263288, 38111.98182248853, 4561.923988094805, 10407.083977113245, 1628.2575283357537, 0.0, 0.0, 15326.769986959695, -13807.074881443368, 7701.114738120406, 325.17317833580717, -26608.991814731577, -33712.24209216143, 0.06, -0.004, 1.03, 192.0, 0.5, 112.0, 127.5, 112.0, 16.0, 24.0, 0.0, 0.0, 0.0, 1.747688272317433E9, 0.0, 2025-05-19 22:57:52.317
60.0, 23342.217307355084, 19831.87584064911, 47771.26583710502, 30729.17827715615, 38114.44051437861, 4559.532351438088, 10409.117985858678, 1647.3906215894965, 0.0, 0.0, 15314.45417576482, -13818.675436815673, 7683.859191400909, 285.6999976277349, -26636.685626111703, -33741.79109833135, 0.06, -0.004, 1.03, 192.0, 0.0, 0.0, 0.0, 0.0, 0.0, 0.0, 0.0, 0.0, 0.0, 1.747688272325479E9, 0.0, 2025-05-19 22:57:52.325
62.0, 23351.292115603937, 19839.006047130355, 47780.76532849853, 30758.392007159237, 38117.994441747, 4556.537217681077, 10441.975050207979, 1639.4557523078624, 0.0, 0.0, 15329.027513149682, -13802.738643019038, 7691.034101371062, 315.13724507537427, -26606.22019841912, -33725.49667662343, 0.06, -0.004, 1.03, 192.0, 0.0, 0.0, 0.0, 0.0, 0.0, 0.0, 0.0, 0.0, 0.0, 1.747688272333451E9, 0.0, 2025-05-19 22:57:52.333
64.0, 23331.935504905643, 19819.91765736552, 47761.94515966716, 30728.261855633482, 38101.789427016905, 4527.435246400267, 10400.065529354279, 1643.8143424766472, 0.0, 0.0, 15322.120824112992, -13810.137070433746, 7699.3489503084365, 308.20820429422906, -26620.882942781802, -33717.87473176417, 0.06, -0.004, 1.03, 192.0, 0.0, 0.0, 0.0, 0.0, 0.0, 0.0, 0.0, 0.0, 0.0, 1.747688272340533E9, 0.0, 2025-05-19 22:57:52.340
66.0, 23348.34168533584, 19840.97300064242, 47783.84986923336, 30750.300675666414, 38110.26073816547, 4558.079488048493, 10454.246157913944, 1659.1923426618985, 0.0, 0.0, 15319.930353156371, -13814.696826302628, 7674.516162218591, 296.048855310542, -26620.74883231507, -33735.08557499475, 0.06, -0.004, 1.03, 192.0, 0.0, 0.0, 0.0, 0.0, 0.0, 0.0, 0.0, 0.0, 0.0, 1.747688272349565E9, 0.0, 2025-05-19 22:57:52.349
68.0, 23345.52536553447, 19837.664942463034, 47781.74880525456, 30758.48141413706, 38126.957491273584, 4556.581921169987, 10429.927459946568, 1660.6675577959488, 0.0, 0.0, 15332.22381260679, -13799.363529606288, 7704.176927110783, 335.03029764059755, -26598.061811692933, -33696.752333253906, 0.06, -0.006, 1.034, 192.0, 0.5, 112.0, 127.5, 104.0, 16.0, 40.0, 0.0, 0.0, 0.0, 1.747688272357582E9, 0.0, 2025-05-19 22:57:52.357
70.0, 23343.357246322306, 19830.624142959612, 47779.044244175464, 30736.71081503759, 38112.630023077734, 4546.881264076384, 10423.959544177002, 1681.119403972555, 0.0, 0.0, 15322.858431680017, -13811.254657656511, 7687.793098425043, 304.83309088147774, -26616.32318691292, -33717.71826955298, 0.06, -0.006, 1.034, 192.0, 0.0, 0.0, 0.0, 0.0, 0.0, 0.0, 0.0, 0.0, 0.0, 1.747688272366644E9, 0.0, 2025-05-19 22:57:52.366
72.0, 23348.542851035938, 19839.229564574907, 47783.26872387752, 30763.42114966168, 38121.995404004505, 4548.021203043604, 10464.706774319027, 1668.8706480110466, 0.0, 0.0, 15330.927411428382, -13801.285779629443, 7691.212915326705, 329.4423615267708, -26593.74792501306, -33704.73190602445, 0.06, -0.006, 1.034, 192.0, 0.0, 0.0, 0.0, 0.0, 0.0, 0.0, 0.0, 0.0, 0.0, 1.747688272372581E9, 0.0, 2025-05-19 22:57:52.372
74.0, 23332.38253979475, 19822.06342483323, 47766.03552890248, 30734.922675481164, 38092.15582515667, 4541.114514006915, 10411.599029493216, 1665.47318285384, 0.0, 0.0, 15317.56106824411, -13810.740567534038, 7697.069072373995, 316.81362590952233, -26615.45146887916, -33703.99429845742, 0.06, -0.006, 1.034, 192.0, 0.0, 0.0, 0.0, 0.0, 0.0, 0.0, 0.0, 0.0, 0.0, 1.74768827238263E9, 0.0, 2025-05-19 22:57:52.382
76.0, 23348.96753418059, 19838.179032585507, 47781.704101765645, 30746.344416897824, 38115.20047369009, 4554.3914502133675, 10448.948794478036, 1666.210790420865, 0.0, 0.0, 15320.824422934584, -13817.468442615085, 7676.170191308283, 301.05564606853085, -26615.719689812624, -33727.374223157676, 0.06, -0.006, 1.034, 192.0, 0.0, 0.0, 0.0, 0.0, 0.0, 0.0, 0.0, 0.0, 0.0, 1.747688272389712E9, 0.0, 2025-05-19 22:57:52.389
78.0, 23339.356284064805, 19833.172241827517, 47771.98109292759, 30749.451309377113, 38108.80787477588, 4522.450807386734, 10429.525128546373, 1647.3459181005858, 0.0, 0.0, 15331.866184695506, -13804.705596531106, 7704.467499788702, 332.1469226058629, -26596.094858180866, -33699.79217049982, 0.056, -0.006, 1.03, 192.0, 0.5, 96.0, 127.5, 104.0, 16.0, 24.0, 0.0, 0.0, 0.0, 1.747688272396724E9, 0.0, 2025-05-19 22:57:52.396
80.0, 23342.485528288547, 19832.25582030485, 47774.01510167302, 30729.982939956542, 38109.07609570934, 4536.018316271105, 10398.72442468696, 1655.370194360041, 0.0, 0.0, 15317.65047522193, -13822.631695584261, 7684.529743734568, 287.93517207326556, -26632.282332454008, -33734.37031917219, 0.056, -0.006, 1.03, 192.0, 0.0, 0.0, 0.0, 0.0, 0.0, 0.0, 0.0, 0.0, 0.0, 1.747688272404848E9, 0.0, 2025-05-19 22:57:52.404
82.0, 23350.442749314636, 19846.337419311694, 47790.801261758956, 30768.115015997293, 38124.18587496113, 4570.3058922655455, 10455.78842828136, 1648.3293948566193, 0.0, 0.0, 15342.147987144946, -13795.429622582153, 7702.791118954554, 326.0001928806535, -26593.63616629078, -33709.85045550471, 0.056, -0.006, 1.03, 192.0, 0.0, 0.0, 0.0, 0.0, 0.0, 0.0, 0.0, 0.0, 0.0, 1.747688272413789E9, 0.0, 2025-05-19 22:57:52.413
84.0, 23332.360188050294, 19824.83504114569, 47771.846982460855, 30739.5047830945, 38095.709752525065, 4518.2933829180465, 10400.937247388036, 1658.4100316059628, 0.0, 0.0, 15327.708760226818, -13804.593837808829, 7706.434453300769, 316.83597765397764, -26616.211428190643, -33706.83297000325, 0.056, -0.006, 1.03, 192.0, 0.0, 0.0, 0.0, 0.0, 0.0, 0.0, 0.0, 0.0, 0.0, 1.747688272420901E9, 0.0, 2025-05-19 22:57:52.420
86.0, 23350.286287103452, 19837.754349440856, 47788.901363480254, 30755.776853057967, 38119.626119092245, 4550.368136211412, 10438.488178072952, 1658.1194589280437, 0.0, 0.0, 15325.071254381091, -13806.40432910971, 7683.23334255616, 306.7106374157235, -26608.790649031478, -33723.86499927819, 0.056, -0.006, 1.03, 192.0, 0.0, 0.0, 0.0, 0.0, 0.0, 0.0, 0.0, 0.0, 0.0, 1.747688272428819E9, 0.0, 2025-05-19 22:57:52.428
88.0, 23337.925772419665, 19833.01577961633, 47783.045206432966, 30762.683542094655, 38124.74466857251, 4564.449735218255, 10408.983875391947, 1642.9649761873457, 0.0, 0.0, 15334.861318452517, -13795.764898748983, 7710.770691725099, 339.81357095403325, -26589.188169144174, -33692.416094829576, 0.056, -0.007, 1.0310000000000001, 192.0, 0.5, 96.0, 127.5, 96.0, 16.0, 32.0, 0.0, 0.0, 0.0, 1.747688272436965E9, 0.0, 2025-05-19 22:57:52.436
90.0, 23341.367941065782, 19834.245125561374, 47779.468927320115, 30741.18116392865, 38103.197586917595, 4557.341880481467, 10427.580526778762, 1661.8969037409906, 0.0, 0.0, 15325.27242008119, -13809.287704144444, 7695.549153751034, 301.12270130189677, -26621.64290209328, -33720.17696144307, 0.056, -0.007, 1.0310000000000001, 192.0, 0.0, 0.0, 0.0, 0.0, 0.0, 0.0, 0.0, 0.0, 0.0, 1.747688272445948E9, 0.0, 2025-05-19 22:57:52.445
92.0, 23352.521461548982, 19842.11293960964, 47789.21428790263, 30766.90802179671, 38121.79423830441, 4561.432249716789, 10442.77971300837, 1651.9280257139237, 0.0, 0.0, 15332.424978306888, -13796.502506316008, 7699.907743919819, 328.2577190706395, -26595.35725061384, -33707.011783958886, 0.056, -0.007, 1.0310000000000001, 192.0, 0.0, 0.0, 0.0, 0.0, 0.0, 0.0, 0.0, 0.0, 0.0, 1.747688272452979E9, 0.0, 2025-05-19 22:57:52.452
94.0, 23325.744071691523, 19818.844773631667, 47759.419412543706, 30729.781774256444, 38082.5892785298, 4567.467220719722, 10407.799232935815, 1645.7812959887144, 0.0, 0.0, 15323.014893891204, -13807.611323310295, 7706.322694578493, 316.791274165067, -26611.428154877205, -33708.9563857265, 0.056, -0.007, 1.0310000000000001, 192.0, 0.0, 0.0, 0.0, 0.0, 0.0, 0.0, 0.0, 0.0, 0.0, 1.747688272461001E9, 0.0, 2025-05-19 22:57:52.461
96.0, 23345.503013790014, 19841.97882914291, 47784.49806982256, 30746.61263783129, 38118.82145629185, 4547.015374543116, 10444.143169420144, 1660.3546333735746, 0.0, 0.0, 15313.247181564235, -13818.854250771315, 7675.119659318884, 290.2150500077069, -26628.0355010075, -33739.041833763345, 0.056, -0.007, 1.0310000000000001, 192.0, 0.0, 0.0, 0.0, 0.0, 0.0, 0.0, 0.0, 0.0, 0.0, 1.747688272471065E9, 0.0, 2025-05-19 22:57:52.471
98.0, 23343.938391678144, 19834.44629126147, 47779.29011336448, 30756.715626325087, 38125.839904050816, 4549.518769922111, 10410.526145759362, 1634.694830738882, 0.0, 0.0, 15332.760254473718, -13805.979645965059, 7706.546212023046, 333.75624820664507, -26590.64103253377, -33703.5025600794, 0.054000000000000006, -0.0055, 1.0305, 192.0, 0.5, 80.0, 127.5, 112.0, 16.0, 24.0, 0.0, 0.0, 0.0, 1.747688272477055E9, 0.0, 2025-05-19 22:57:52.477
100.0, 23341.32323757687, 19836.30148605126, 47779.73714825358, 30739.191858672126, 38096.04502869189, 4518.4721968736885, 10416.359951062197, 1654.118496670544, 0.0, 0.0, 15322.836079935561, -13810.07001520038, 7693.537496750057, 297.30055300003926, -26623.475745138618, -33724.93788301205, 0.054000000000000006, -0.0055, 1.0305, 192.0, 0.0, 0.0, 0.0, 0.0, 0.0, 0.0, 0.0, 0.0, 0.0, 1.747688272485082E9, 0.0, 2025-05-19 22:57:52.485
102.0, 23348.38638882475, 19842.425864032015, 47785.68271227869, 30757.967324014586, 38116.07219172385, 4531.0338772575715, 10448.546463077839, 1640.7074499973596, 0.0, 0.0, 15333.587269018564, -13802.850401741314, 7695.280932817571, 322.0886376009748, -26598.39708785976, -33715.10311545171, 0.054000000000000006, -0.0055, 1.0305, 192.0, 0.0, 0.0, 0.0, 0.0, 0.0, 0.0, 0.0, 0.0, 0.0, 1.747688272493153E9, 0.0, 2025-05-19 22:57:52.493
104.0, 23333.589533995335, 19824.946799867965, 47771.6234650163, 30730.98876845703, 38102.3929241172, 4531.369153424401, 10394.72346242946, 1646.0718686666332, 0.0, 0.0, 15323.707797969319, -13812.372244879276, 7702.612304998912, 310.62219269540225, -26617.440774135684, -33717.27123466387, 0.054000000000000006, -0.0055, 1.0305, 192.0, 0.0, 0.0, 0.0, 0.0, 0.0, 0.0, 0.0, 0.0, 0.0, 1.747688272502148E9, 0.0, 2025-05-19 22:57:52.502
106.0, 23337.791661952935, 19830.937067381987, 47769.902380693246, 30736.241428404028, 38091.28410712291, 4533.246699958647, 10444.813721753802, 1649.1340576570103, 0.0, 0.0, 15320.466795023298, -13818.384864137754, 7676.9301506197635, 293.45605295372644, -26622.156992215754, -33736.784307573354, 0.054000000000000006, -0.0055, 1.0305, 192.0, 0.0, 0.0, 0.0, 0.0, 0.0, 0.0, 0.0, 0.0, 0.0, 1.74768827251017E9, 0.0, 2025-05-19 22:57:52.510
108.0, 23330.214420582586, 19820.54350621027, 47765.20851435763, 30740.465908106078, 38108.986688731515, 4560.068793305015, 10407.754529446904, 1631.6549934929603, 0.0, 0.0, 15318.343379300044, -13817.311980403898, 7693.0681101164955, 314.6008032084469, -26617.038442735487, -33715.84072301874, 0.054000000000000006, -0.00375, 1.02925, 192.0, 0.5, 88.0, 127.5, 120.0, 16.0, 16.0, 0.0, 0.0, 0.0, 1.747688272517201E9, 0.0, 2025-05-19 22:57:52.517
110.0, 23336.718778219078, 19826.131442324095, 47772.472831305604, 30726.585474799333, 38103.957546229074, 4543.528502408088, 10407.978046891458, 1654.0961449260885, 0.0, 0.0, 15311.034358863159, -13831.505338133018, 7677.0419093420405, 285.4317766942712, -26635.948018544677, -33738.684205852056, 0.054000000000000006, -0.00375, 1.02925, 192.0, 0.0, 0.0, 0.0, 0.0, 0.0, 0.0, 0.0, 0.0, 0.0, 1.747688272525218E9, 0.0, 2025-05-19 22:57:52.525
112.0, 23346.9111736907, 19838.82723317471, 47781.860563976836, 30752.42409138967, 38128.94679653011, 4552.715069379219, 10446.646564799139, 1644.3284325991194, 0.0, 0.0, 15327.328780571079, -13813.489832102041, 7687.368415280393, 321.06045735603067, -26598.933529726688, -33717.852380019714, 0.054000000000000006, -0.00375, 1.02925, 192.0, 0.0, 0.0, 0.0, 0.0, 0.0, 0.0, 0.0, 0.0, 0.0, 1.747688272533234E9, 0.0, 2025-05-19 22:57:52.533
114.0, 23325.453499013605, 19817.906000364543, 47758.502991021036, 30720.37168984076, 38104.58339507382, 4548.267072232613, 10399.752604931904, 1648.2623396232534, 0.0, 0.0, 15311.16846932989, -13827.54907936443, 7688.508354247613, 307.13532056037434, -26618.580713102903, -33720.5569410988, 0.054000000000000006, -0.00375, 1.02925, 192.0, 0.0, 0.0, 0.0, 0.0, 0.0, 0.0, 0.0, 0.0, 0.0, 1.747688272541255E9, 0.0, 2025-05-19 22:57:52.541
116.0, 23339.870374187278, 19830.467680748425, 47768.36011032583, 30731.32404462386, 38105.276299151934, 4533.939604036761, 10442.243271141442, 1656.7560025162702, 0.0, 0.0, 15308.776832673173, -13832.645277100239, 7664.368470235881, 288.22574475118455, -26630.02480626402, -33741.23230471996, 0.054000000000000006, -0.00375, 1.02925, 192.0, 0.0, 0.0, 0.0, 0.0, 0.0, 0.0, 0.0, 0.0, 0.0, 1.747688272549294E9, 0.0, 2025-05-19 22:57:52.549
118.0, 23333.991865395532, 19825.595000457168, 47771.35524408284, 30746.925562253662, 38111.19951143259, 4551.306909478535, 10409.028578880856, 1644.7307639993148, 0.0, 0.0, 15316.666998465897, -13820.463576372096, 7690.564714737501, 324.144998090863, -26606.01903271902, -33708.77757177086, 0.053000000000000005, -0.005875, 1.0306250000000001, 192.0, 0.5, 80.0, 127.5, 96.0, 16.0, 32.0, 0.0, 0.0, 0.0, 1.74768827255733E9, 0.0, 2025-05-19 22:57:52.557
120.0, 23340.876202687767, 19826.757291168844, 47764.78383121298, 30730.6534922902, 38088.490139066, 4521.266164930602, 10415.264715583888, 1659.7064327843707, 0.0, 0.0, 15311.88372515246, -13821.938791506147, 7678.830048898465, 295.08773029896383, -26629.89069579729, -33724.37908940066, 0.053000000000000005, -0.005875, 1.0306250000000001, 192.0, 0.0, 0.0, 0.0, 0.0, 0.0, 0.0, 0.0, 0.0, 0.0, 1.747688272564415E9, 0.0, 2025-05-19 22:57:52.564
122.0, 23349.99571442553, 19840.011875630844, 47776.09381390737, 30754.50280362401, 38129.5502936304, 4541.4721419182, 10420.24915459742, 1633.3984295604741, 0.0, 0.0, 15318.343379300044, -13809.265352399989, 7682.540438478046, 315.40546600883795, -26611.249340921564, -33717.1594759416, 0.053000000000000005, -0.005875, 1.0306250000000001, 192.0, 0.0, 0.0, 0.0, 0.0, 0.0, 0.0, 0.0, 0.0, 0.0, 1.747688272573401E9, 0.0, 2025-05-19 22:57:52.573
124.0, 23339.9597811651, 19828.992465614374, 47763.889761434766, 30727.010157943983, 38099.01781070445, 4536.822979071496, 10383.212314034978, 1638.405220318463, 0.0, 0.0, 15318.321027555588, -13817.580201337363, 7696.644389229345, 303.02259958059784, -26625.643864350783, -33723.462667878, 0.053000000000000005, -0.005875, 1.0306250000000001, 192.0, 0.0, 0.0, 0.0, 0.0, 0.0, 0.0, 0.0, 0.0, 0.0, 1.74768827258142E9, 0.0, 2025-05-19 22:57:52.581
126.0, 23345.23479285655, 19835.29565755077, 47772.204610372144, 30735.86144874829, 38105.5445200854, 4540.75688609563, 10431.49208205844, 1644.3507843435748, 0.0, 0.0, 15315.012969376205, -13819.2118786826, 7673.510333718102, 289.1868697627628, -26627.007320762554, -33740.852325064225, 0.053000000000000005, -0.005875, 1.0306250000000001, 192.0, 0.0, 0.0, 0.0, 0.0, 0.0, 0.0, 0.0, 0.0, 0.0, 1.747688272588449E9, 0.0, 2025-05-19 22:57:52.588
128.0, 23332.404891539205, 19821.415224244025, 47761.721642222605, 30735.36971037027, 38107.42206661965, 4560.649938660853, 10406.703997457505, 1632.437304548896, 0.0, 0.0, 15313.895382153438, -13818.854250771315, 7689.558886237012, 315.3160590310167, -26613.0821839669, -33716.42186837457, 0.05550000000000001, -0.0079375, 1.0303125, 192.0, 0.5, 104.0, 127.5, 88.0, 16.0, 24.0, 0.0, 0.0, 0.0, 1.747688272596473E9, 0.0, 2025-05-19 22:57:52.596
130.0, 23326.436975769637, 19817.704834664444, 47756.44663053115, 30715.87898920524, 38093.22870889053, 4556.112534536425, 10414.124776616667, 1665.1379066870102, 0.0, 0.0, 15296.796297645129, -13841.720085349094, 7663.139124290839, 277.96629404619864, -26643.480556426115, -33744.18273498806, 0.05550000000000001, -0.0079375, 1.0303125, 192.0, 0.0, 0.0, 0.0, 0.0, 0.0, 0.0, 0.0, 0.0, 0.0, 1.747688272605458E9, 0.0, 2025-05-19 22:57:52.605
132.0, 23339.825670698367, 19834.06631160573, 47775.08798540688, 30753.161698956694, 38123.336508671826, 4516.862871272907, 10438.957564706512, 1649.178761145921, 0.0, 0.0, 15315.012969376205, -13823.88339327376, 7673.733851162655, 314.3102305305279, -26604.566169329428, -33719.64051957614, 0.05550000000000001, -0.0079375, 1.0303125, 192.0, 0.0, 0.0, 0.0, 0.0, 0.0, 0.0, 0.0, 0.0, 0.0, 1.747688272613524E9, 0.0, 2025-05-19 22:57:52.613
134.0, 23330.527345004957, 19819.716491665422, 47761.0734416334, 30729.200628900606, 38101.722371783544, 4546.009546042627, 10395.885753141136, 1648.7093745123595, 0.0, 0.0, 15308.687425695352, -13819.725968805073, 7690.8999909043305, 307.20237579374026, -26620.435907892694, -33714.45491486251, 0.05550000000000001, -0.0079375, 1.0303125, 192.0, 0.0, 0.0, 0.0, 0.0, 0.0, 0.0, 0.0, 0.0, 0.0, 1.747688272620596E9, 0.0, 2025-05-19 22:57:52.620
136.0, 23337.389330552738, 19827.941933624978, 47765.94612192466, 30731.614617301777, 38103.71167704006, 4556.783086870085, 10447.294765388342, 1657.3147961276527, 0.0, 0.0, 15304.954684371316, -13827.504375875518, 7665.441353969736, 290.1926982632516, -26625.0850707394, -33738.97477852998, 0.05550000000000001, -0.0079375, 1.0303125, 192.0, 0.0, 0.0, 0.0, 0.0, 0.0, 0.0, 0.0, 0.0, 0.0, 1.747688272628586E9, 0.0, 2025-05-19 22:57:52.628
138.0, 23336.56231600789, 19828.92541038101, 47759.5758747549, 30739.41537611668, 38102.23646190602, 4523.993077754149, 10417.34342781823, 1637.019412162234, 0.0, 0.0, 15306.720472183284, -13825.49271887454, 7685.222647812682, 316.4783497426927, -26613.439811878183, -33715.32663289626, 0.05475000000000001, -0.008968750000000001, 1.02915625, 192.0, 0.5, 88.0, 127.5, 88.0, 16.0, 16.0, 0.0, 0.0, 0.0, 1.747688272637638E9, 0.0, 2025-05-19 22:57:52.637
140.0, 23334.7071212181, 19824.6785789345, 47772.18225862769, 30733.492163836025, 38093.899261224185, 4525.468292888199, 10414.169480105576, 1664.7579270312701, 0.0, 0.0, 15303.16654481489, -13826.006808997014, 7675.8125633969985, 286.6834743837684, -26634.539858643995, -33732.805697060314, 0.05475000000000001, -0.008968750000000001, 1.02915625, 192.0, 0.0, 0.0, 0.0, 0.0, 0.0, 0.0, 0.0, 0.0, 0.0, 1.747688272644614E9, 0.0, 2025-05-19 22:57:52.644
142.0, 23348.56520278039, 19836.16737558453, 47785.280380878496, 30761.18597521615, 38119.87198828125, 4547.775333854596, 10451.586300323761, 1656.2866158827087, 0.0, 0.0, 15322.79137644665, -13803.990340708535, 7688.418947269792, 326.38017253639373, -26593.278538379498, -33707.637632803635, 0.05475000000000001, -0.008968750000000001, 1.02915625, 192.0, 0.0, 0.0, 0.0, 0.0, 0.0, 0.0, 0.0, 0.0, 0.0, 1.747688272652635E9, 0.0, 2025-05-19 22:57:52.652
144.0, 23327.487507759037, 19813.033320073286, 47765.990825413566, 30728.66418703368, 38095.88856648071, 4545.786028598074, 10400.803136921304, 1659.2593978952646, 0.0, 0.0, 15314.588286231554, -13817.155518192712, 7697.6502177298335, 313.79614040805586, -26616.83727703539, -33710.11867643818, 0.05475000000000001, -0.008968750000000001, 1.02915625, 192.0, 0.0, 0.0, 0.0, 0.0, 0.0, 0.0, 0.0, 0.0, 0.0, 1.747688272660663E9, 0.0, 2025-05-19 22:57:52.660
146.0, 23344.00544691151, 19830.311218537237, 47776.09381390737, 30735.973207470564, 38100.58243281632, 4536.4206476713, 10445.68543978756, 1664.4002991199852, 0.0, 0.0, 15313.180126330868, -13824.531593862963, 7673.264464529093, 289.63390465186893, -26626.113250984345, -33738.63950236315, 0.05475000000000001, -0.008968750000000001, 1.02915625, 192.0, 0.0, 0.0, 0.0, 0.0, 0.0, 0.0, 0.0, 0.0, 0.0, 1.747688272669742E9, 0.0, 2025-05-19 22:57:52.669
148.0, 23340.876202687767, 19823.851564389654, 47781.03354943199, 30746.12089945327, 38114.68638356762, 4577.614912702431, 10411.151994604112, 1645.5801302886166, 0.0, 0.0, 15333.341399829556, -13809.39946286672, 7705.741549222655, 329.86704467142164, -26592.764448257025, -33705.91654848058, 0.05637500000000001, -0.0064843750000000006, 1.030578125, 192.0, 0.5, 104.0, 127.5, 112.0, 16.0, 32.0, 0.0, 0.0, 0.0, 1.747688272676846E9, 0.0, 2025-05-19 22:57:52.676
150.0, 23333.94716190662, 19816.810764886235, 47768.53892428147, 30725.13261140974, 38089.831243733315, 4521.914365519806, 10409.743834703426, 1656.6218920495382, 0.0, 0.0, 15310.922600140882, -13828.644314842739, 7678.718290176188, 284.2024307492293, -26630.762413831046, -33740.40529017512, 0.05637500000000001, -0.0064843750000000006, 1.030578125, 192.0, 0.0, 0.0, 0.0, 0.0, 0.0, 0.0, 0.0, 0.0, 0.0, 1.747688272684835E9, 0.0, 2025-05-19 22:57:52.684
152.0, 23347.42526381317, 19826.958456868942, 47784.296904122464, 30756.17918445816, 38114.999307989994, 4578.710148180741, 10440.633945540661, 1644.7531157437702, 0.0, 0.0, 15326.434710792866, -13809.824146011371, 7688.508354247613, 320.0769805999971, -26598.240625648574, -33717.852380019714, 0.05637500000000001, -0.0064843750000000006, 1.030578125, 192.0, 0.0, 0.0, 0.0, 0.0, 0.0, 0.0, 0.0, 0.0, 0.0, 1.747688272693904E9, 0.0, 2025-05-19 22:57:52.693
154.0, 23328.068653114875, 19810.50757294984, 47761.31931082241, 30721.01989042996, 38096.760284514465, 4534.565452881509, 10389.873133882658, 1652.5762263031277, 0.0, 0.0, 15319.349207800533, -13827.146747964234, 7693.537496750057, 309.30343977253915, -26617.999567747065, -33716.310109652295, 0.05637500000000001, -0.0064843750000000006, 1.030578125, 192.0, 0.0, 0.0, 0.0, 0.0, 0.0, 0.0, 0.0, 0.0, 0.0, 1.747688272700909E9, 0.0, 2025-05-19 22:57:52.700
156.0, 23346.7100079906, 19829.797128414768, 47771.77992722749, 30737.56018132689, 38097.56494731485, 4512.280763659569, 10451.854521257224, 1664.4002991199852, 0.0, 0.0, 15311.213172818801, -13831.237117199555, 7666.514237703591, 289.32098022949464, -26627.253189951563, -33737.76778432939, 0.05637500000000001, -0.0064843750000000006, 1.030578125, 192.0, 0.0, 0.0, 0.0, 0.0, 0.0, 0.0, 0.0, 0.0, 0.0, 1.747688272708959E9, 0.0, 2025-05-19 22:57:52.708
158.0, 23335.467080529583, 19819.023587587308, 47759.88879917727, 30736.017910959472, 38107.958508486576, 4543.662612874819, 10420.115044130689, 1644.3954878324853, 0.0, 0.0, 15315.59411473204, -13819.502451360519, 7689.827107170476, 320.0993323444524, -26607.494247853072, -33709.64928980461, 0.0571875, -0.0052421875, 1.0292890625, 192.0, 0.5, 104.0, 127.5, 112.0, 16.0, 16.0, 0.0, 0.0, 0.0, 1.747688272717998E9, 0.0, 2025-05-19 22:57:52.717
160.0, 23339.758615465, 19822.21988704442, 47757.094831120354, 30714.98491942703, 38091.082941422814, 4522.428455642278, 10405.027616623356, 1657.6500722944825, 0.0, 0.0, 15299.277341279667, -13835.461596901609, 7669.0623365714955, 276.13345100086343, -26644.0393500375, -33743.15455474312, 0.0571875, -0.0052421875, 1.0292890625, 192.0, 0.0, 0.0, 0.0, 0.0, 0.0, 0.0, 0.0, 0.0, 0.0, 1.747688272726013E9, 0.0, 2025-05-19 22:57:52.726
162.0, 23351.00154292602, 19834.35688428365, 47773.54571503946, 30746.07619596436, 38111.15480794368, 4549.004679799638, 10426.217070366987, 1643.5684732876389, 0.0, 0.0, 15314.811803676106, -13820.664742072195, 7675.834915141454, 301.8379571244666, -26614.199771189666, -33733.34213892724, 0.0571875, -0.0052421875, 1.0292890625, 192.0, 0.0, 0.0, 0.0, 0.0, 0.0, 0.0, 0.0, 0.0, 0.0, 1.747688272733012E9, 0.0, 2025-05-19 22:57:52.733
164.0, 23335.310618318395, 19817.414261986527, 47761.96751141161, 30723.07625091985, 38096.53676706991, 4547.507112921133, 10383.212314034978, 1647.9717669453344, 0.0, 0.0, 15314.655341464919, -13823.235192684555, 7690.989397882152, 299.468672212204, -26625.35329167286, -33723.55207485582, 0.0571875, -0.0052421875, 1.0292890625, 192.0, 0.0, 0.0, 0.0, 0.0, 0.0, 0.0, 0.0, 0.0, 0.0, 1.747688272741052E9, 0.0, 2025-05-19 22:57:52.741
166.0, 23349.705141747614, 19828.92541038101, 47766.72843298059, 30732.598094057812, 38092.692267023594, 4539.616947128409, 10450.088733445256, 1654.4984763262842, 0.0, 0.0, 15311.235524563257, -13828.0631694869, 7667.296548759527, 288.22574475118455, -26627.767280074037, -33740.427641919574, 0.0571875, -0.0052421875, 1.0292890625, 192.0, 0.0, 0.0, 0.0, 0.0, 0.0, 0.0, 0.0, 0.0, 0.0, 1.747688272749106E9, 0.0, 2025-05-19 22:57:52.749
168.0, 23344.6089440118, 19823.337474267184, 47768.04718590346, 30736.26378014848, 38108.53965384241, 4560.04644156056, 10392.890619384125, 1631.2079586038542, 0.0, 0.0, 15315.147079842936, -13823.458710129109, 7690.2517903151265, 321.4404370117709, -26611.226989177107, -33712.44325786153, 0.05859375, -0.00462109375, 1.0286445312499999, 192.0, 0.5, 112.0, 127.5, 112.0, 16.0, 16.0, 0.0, 0.0, 0.0, 1.747688272757124E9, 0.0, 2025-05-19 22:57:52.757
170.0, 23346.732359735055, 19831.65232320456, 47771.019967916014, 30725.98197769904, 38094.54746181339, 4514.404179382823, 10400.870192154669, 1664.4897060978064, 0.0, 0.0, 15309.290922795646, -13837.74147483605, 7671.722194161677, 289.1868697627628, -26633.914009799246, -33735.57731337277, 0.05859375, -0.00462109375, 1.0286445312499999, 192.0, 0.0, 0.0, 0.0, 0.0, 0.0, 0.0, 0.0, 0.0, 0.0, 1.747688272765134E9, 0.0, 2025-05-19 22:57:52.765
172.0, 23357.058865673407, 19842.582326243202, 47778.59720928636, 30751.46296637809, 38116.80979929087, 4537.13590349387, 10440.321021118287, 1659.4605635953621, 0.0, 0.0, 15328.4687195383, -13811.008788467501, 7686.831973413465, 324.6143847244245, -26600.922834983212, -33710.05162120481, 0.05859375, -0.00462109375, 1.0286445312499999, 192.0, 0.0, 0.0, 0.0, 0.0, 0.0, 0.0, 0.0, 0.0, 0.0, 1.747688272773163E9, 0.0, 2025-05-19 22:57:52.773
174.0, 23348.96753418059, 19839.095454108174, 47763.1745056122, 30731.27934113495, 38103.28699389541, 4555.263168247124, 10395.952808374503, 1667.1272119435325, 0.0, 0.0, 15319.639780478452, -13819.658913571706, 7695.52680200658, 305.12366355939673, -26627.923742285224, -33714.25374916241, 0.05859375, -0.00462109375, 1.0286445312499999, 192.0, 0.0, 0.0, 0.0, 0.0, 0.0, 0.0, 0.0, 0.0, 0.0, 1.747688272781188E9, 0.0, 2025-05-19 22:57:52.781
176.0, 23355.762464495, 19847.25384083436, 47766.23669460257, 30734.98973071453, 38102.72820028403, 4539.169912239303, 10428.943983190535, 1667.3730811325408, 0.0, 0.0, 15318.902172911427, -13815.009750725003, 7678.539476220546, 288.8962970848438, -26628.638998107792, -33734.50442963892, 0.05859375, -0.00462109375, 1.0286445312499999, 192.0, 0.0, 0.0, 0.0, 0.0, 0.0, 0.0, 0.0, 0.0, 0.0, 1.747688272789156E9, 0.0, 2025-05-19 22:57:52.789
178.0, 23340.116243376287, 19828.858355147644, 47755.32904330839, 30734.475640592056, 38098.88370023772, 4547.484761176677, 10409.833241681248, 1649.3575751015635, 0.0, 0.0, 15315.258838565212, -13817.311980403898, 7692.531668249568, 308.856404883433, -26622.51462012704, -33717.02536547487, 0.058296875, -0.006310546875, 1.0293222656249998, 192.0, 0.5, 104.0, 127.5, 96.0, 16.0, 24.0, 0.0, 0.0, 0.0, 1.747688272798251E9, 0.0, 2025-05-19 22:57:52.798
180.0, 23346.53119403496, 19835.16154708404, 47763.398023056754, 30723.098602664308, 38096.268546136445, 4556.581921169987, 10401.496040999418, 1667.9989299772897, 0.0, 0.0, 15303.434765748354, -13830.11952997679, 7674.292644774037, 274.85940156691095, -26647.347408216883, -33738.57244712978, 0.058296875, -0.006310546875, 1.0293222656249998, 192.0, 0.0, 0.0, 0.0, 0.0, 0.0, 0.0, 0.0, 0.0, 0.0, 1.747688272806262E9, 0.0, 2025-05-19 22:57:52.806
182.0, 23359.517557563493, 19843.766968699332, 47781.16765989872, 30755.32981816886, 38113.07705796684, 4626.498177826188, 10423.288991843343, 1650.6092727910607, 0.0, 0.0, 15330.07804513908, -13808.952427977614, 7690.430604270769, 313.03618109657543, -26610.60114033236, -33715.86307476319, 0.058296875, -0.006310546875, 1.0293222656249998, 192.0, 0.0, 0.0, 0.0, 0.0, 0.0, 0.0, 0.0, 0.0, 0.0, 1.747688272815316E9, 0.0, 2025-05-19 22:57:52.815
184.0, 23344.273667844973, 19833.44046276098, 47777.25610461904, 30742.589323829336, 38103.2422904065, 4709.4231497553765, 10383.81581113527, 1661.1816479184208, 0.0, 0.0, 15333.453158551833, -13808.170116921678, 7708.33435157947, 316.6571636983352, -26615.07148922342, -33701.78147575635, 0.058296875, -0.006310546875, 1.0293222656249998, 192.0, 0.0, 0.0, 0.0, 0.0, 0.0, 0.0, 0.0, 0.0, 0.0, 1.747688272822277E9, 0.0, 2025-05-19 22:57:52.822
186.0, 23351.00154292602, 19837.240259318383, 47781.368825598816, 30748.08785296534, 38116.183950446124, 4760.295720135656, 10434.375457093174, 1668.7365375443146, 0.0, 0.0, 15325.562992759109, -13810.91938148968, 7682.898066389331, 306.55417520453636, -26615.674986323713, -33718.210007931, 0.058296875, -0.006310546875, 1.0293222656249998, 192.0, 0.0, 0.0, 0.0, 0.0, 0.0, 0.0, 0.0, 0.0, 0.0, 1.747688272829348E9, 0.0, 2025-05-19 22:57:52.829
188.0, 23338.886897431243, 19822.689273677977, 47763.93446492368, 30740.756480784, 38087.4396070766, 4808.933116070404, 10407.262791068888, 1641.0874296531, 0.0, 0.0, 15321.629085734974, -13812.998093724025, 7697.449052029736, 328.88356791538814, -26609.036518220488, -33701.62501354516, 0.0591484375, -0.0071552734375, 1.0276611328124998, 192.0, 0.5, 112.0, 127.5, 96.0, 16.0, 8.0, 0.0, 0.0, 0.0, 1.747688272837423E9, 0.0, 2025-05-19 22:57:52.837
190.0, 23356.254202873017, 19837.64259071858, 47772.31636909442, 30729.245332389517, 38092.20052864558, 4762.441487603365, 10401.361930532687, 1656.3313193716192, 0.0, 0.0, 15315.88468740996, -13821.134128705757, 7687.413118769303, 287.28697148406167, -26641.021864536033, -33732.69393833804, 0.0591484375, -0.0071552734375, 1.0276611328124998, 192.0, 0.0, 0.0, 0.0, 0.0, 0.0, 0.0, 0.0, 0.0, 0.0, 1.747688272844354E9, 0.0, 2025-05-19 22:57:52.844
192.0, 23364.211423899105, 19852.0371141478, 47788.54373556897, 30760.7612920715, 38123.09063948281, 4804.306304968155, 10424.808910466303, 1643.3896593319964, 0.0, 0.0, 15334.235469607767, -13803.565657563884, 7702.120566620894, 314.46669274171506, -26611.674024066215, -33720.087554465244, 0.0591484375, -0.0071552734375, 1.0276611328124998, 192.0, 0.0, 0.0, 0.0, 0.0, 0.0, 0.0, 0.0, 0.0, 0.0, 1.747688272852378E9, 0.0, 2025-05-19 22:57:52.852
194.0, 23339.445691042627, 19829.77477667031, 47760.58170325538, 30725.870218976765, 38095.03920019141, 4780.367586656522, 10384.776936146849, 1644.6190052770385, 0.0, 0.0, 15328.535774771664, -13813.333369890854, 7711.307133592026, 311.8068351515335, -26621.84406779338, -33711.72800203896, 0.0591484375, -0.0071552734375, 1.0276611328124998, 192.0, 0.0, 0.0, 0.0, 0.0, 0.0, 0.0, 0.0, 0.0, 0.0, 1.747688272861462E9, 0.0, 2025-05-19 22:57:52.861
196.0, 23360.836310486357, 19850.9865821584, 47782.620523288315, 30747.104376209307, 38115.60280509029, 4779.249999433756, 10421.67966624256, 1657.1583339164656, 0.0, 0.0, 15321.405568290422, -13820.508279861007, 7682.540438478046, 289.2539249961287, -26633.422271421226, -33737.87954305167, 0.0591484375, -0.0071552734375, 1.0276611328124998, 192.0, 0.0, 0.0, 0.0, 0.0, 0.0, 0.0, 0.0, 0.0, 0.0, 1.74768827286843E9, 0.0, 2025-05-19 22:57:52.868
198.0, 23350.75567373701, 19842.49291926538, 47777.61373253033, 30755.307466424405, 38112.96529924456, 4856.654090482484, 10407.888639913635, 1649.3128716126528, 0.0, 0.0, 15337.99056267626, -13799.721157517572, 7718.280877862082, 333.1527511063518, -26602.018070461523, -33695.277118119855, 0.05957421875, -0.00457763671875, 1.02983056640625, 192.0, 0.5, 112.0, 127.5, 120.0, 16.0, 32.0, 0.0, 0.0, 0.0, 1.747688272876474E9, 0.0, 2025-05-19 22:57:52.876
200.0, 23352.342647593337, 19841.844718676177, 47768.06953764791, 30729.334739367336, 38091.35116235628, 4781.775746557206, 10408.872116669669, 1662.075717696633, 0.0, 0.0, 15319.058635122614, -13817.647256570728, 7692.978703138674, 288.65042789583543, -26638.31730345694, -33726.793077801834, 0.05957421875, -0.00457763671875, 1.02983056640625, 192.0, 0.0, 0.0, 0.0, 0.0, 0.0, 0.0, 0.0, 0.0, 0.0, 1.747688272886533E9, 0.0, 2025-05-19 22:57:52.886
202.0, 23352.275592359973, 19839.296619808272, 47769.410642315226, 30741.739957540034, 38111.73595329952, 4820.958354587359, 10432.699076259027, 1639.791028474692, 0.0, 0.0, 15329.765120716707, -13805.152631420211, 7696.487927018157, 310.30926827302795, -26614.89267526778, -33719.84168527623, 0.05957421875, -0.00457763671875, 1.02983056640625, 192.0, 0.0, 0.0, 0.0, 0.0, 0.0, 0.0, 0.0, 0.0, 0.0, 1.747688272893578E9, 0.0, 2025-05-19 22:57:52.893
204.0, 23330.9073246607, 19817.928352109, 47754.68084271918, 30711.252178102994, 38094.234537391014, 4793.041025762681, 10383.614645435173, 1642.4732378093288, 0.0, 0.0, 15311.526097241176, -13829.694846832139, 7691.6152467269, 293.2548872536287, -26634.673969110725, -33727.86596153569, 0.05957421875, -0.00457763671875, 1.02983056640625, 192.0, 0.0, 0.0, 0.0, 0.0, 0.0, 0.0, 0.0, 0.0, 0.0, 1.747688272900552E9, 0.0, 2025-05-19 22:57:52.900
206.0, 23343.37959806676, 19831.02647435981, 47765.923770180205, 30725.646701532212, 38099.129569426725, 4779.495868622765, 10416.96344816249, 1637.7793714737145, 0.0, 0.0, 15306.251085549724, -13835.014562012502, 7665.888388858842, 273.0489102660311, -26643.480556426115, -33754.95627581552, 0.05957421875, -0.00457763671875, 1.02983056640625, 192.0, 0.0, 0.0, 0.0, 0.0, 0.0, 0.0, 0.0, 0.0, 0.0, 1.747688272908614E9, 0.0, 2025-05-19 22:57:52.908
208.0, 23341.34558932133, 19831.808785415746, 47769.25418010404, 30745.182126186148, 38111.53478759942, 4820.466616209343, 10403.284180555842, 1635.723010983826, 0.0, 0.0, 15323.238411335757, -13814.763881535993, 7700.488889275657, 317.88650964337705, -26612.344576399875, -33714.074935206765, 0.05957421875, -0.00457763671875, 1.02983056640625, 192.0, 0.0, 0.0, 0.0, 0.0, 0.0, 0.0, 0.0, 0.0, 0.0, 1.747688272918675E9, 0.0, 2025-05-19 22:57:52.918
210.0, 23343.491356789036, 19834.35688428365, 47761.364014311315, 30720.617559029768, 38084.57858378632, 4787.2519239487565, 10398.210334564488, 1650.206941390865, 0.0, 0.0, 15309.357978029011, -13823.905745018214, 7684.082708845462, 282.48134642617066, -26644.374626204328, -33736.60549361772, 0.06, -0.004, 1.032, 192.0, 0.5, 112.0, 127.5, 112.0, 16.0, 32.0, 0.0, 0.0, 0.0, 1.747688272925694E9, 0.0, 2025-05-19 22:57:52.925
212.0, 23361.015124441998, 19853.802901959767, 47767.35428182534, 30740.93529473964, 38113.188816689115, 4785.307322181145, 10420.785596464348, 1624.949470156368, 0.0, 0.0, 15316.465832765798, -13814.003922224514, 7687.7260431916775, 303.9166693588101, -26620.860591037344, -33731.37518541517, 0.06, -0.004, 1.032, 192.0, 0.0, 0.0, 0.0, 0.0, 0.0, 0.0, 0.0, 0.0, 0.0, 1.747688272932712E9, 0.0, 2025-05-19 22:57:52.932
214.0, 23333.880106673256, 19819.336512009682, 47754.07734561889, 30715.677823505146, 38089.764188499954, 4784.6144181030295, 10380.664215167071, 1638.18170287391, 0.0, 0.0, 15310.78848967415, -13826.990285753047, 7694.632732228367, 292.8972593423438, -26638.09378601239, -33730.27994993686, 0.06, -0.004, 1.032, 192.0, 0.0, 0.0, 0.0, 0.0, 0.0, 0.0, 0.0, 0.0, 0.0, 1.747688272940736E9, 0.0, 2025-05-19 22:57:52.940
216.0, 23354.04138017194, 19836.033265117796, 47769.79062197097, 30729.64766378971, 38107.71263929756, 4789.017711760725, 10424.54068953284, 1644.3954878324853, 0.0, 0.0, 15313.850678664528, -13832.734684078061, 7672.906836617808, 278.5697911464919, -26640.351312202372, -33750.59768564674, 0.06, -0.004, 1.032, 192.0, 0.0, 0.0, 0.0, 0.0, 0.0, 0.0, 0.0, 0.0, 0.0, 1.747688272949794E9, 0.0, 2025-05-19 22:57:52.949
218.0, 23354.53311854996, 19833.753387183355, 47774.708005751134, 30740.89059125073, 38123.247101694, 4801.311171211144, 10399.573790976261, 1633.756057471759, 0.0, 0.0, 15331.173280617391, -13816.015579225492, 7705.741549222655, 318.758227677134, -26611.428154877205, -33712.77853402836, 0.06, -0.004, 1.032, 192.0, 0.0, 0.0, 0.0, 0.0, 0.0, 0.0, 0.0, 0.0, 0.0, 1.747688272956732E9, 0.0, 2025-05-19 22:57:52.956
220.0, 23352.566165037893, 19831.540564482282, 47765.78965971347, 30716.70600375009, 38111.378325388236, 4746.7505629957395, 10391.996549605912, 1646.4965518112842, 0.0, 0.0, 15313.001312375227, -13836.243907957543, 7680.238208799149, 278.05570102401987, -26642.005341292068, -33745.613246633206, 0.058, -0.01, 1.032, 192.0, 0.5, 104.0, 127.5, 88.0, 16.0, 32.0, 0.0, 0.0, 0.0, 1.747688272965821E9, 0.0, 2025-05-19 22:57:52.965
222.0, 23373.15212168123, 19844.817500688732, 47779.44657557566, 30746.56793434238, 38136.63579662273, 4798.204278731857, 10416.62817199566, 1626.1564643569548, 0.0, 0.0, 15327.284077082168, -13820.932963005658, 7688.061319358507, 308.65523918333525, -26612.99277698908, -33728.558865613806, 0.058, -0.01, 1.032, 192.0, 0.0, 0.0, 0.0, 0.0, 0.0, 0.0, 0.0, 0.0, 0.0, 1.747688272973892E9, 0.0, 2025-05-19 22:57:52.973
224.0, 23358.779949996468, 19825.0809103347, 47756.73720320907, 30713.062669403873, 38114.32875565634, 4764.922531237904, 10367.566092916262, 1621.887281165991, 0.0, 0.0, 15318.79041418915, -13839.015524270002, 7692.464613016202, 292.9196110867991, -26635.009245277553, -33733.789173816345, 0.058, -0.01, 1.032, 192.0, 0.0, 0.0, 0.0, 0.0, 0.0, 0.0, 0.0, 0.0, 0.0, 1.747688272980883E9, 0.0, 2025-05-19 22:57:52.980
226.0, 23392.039345745965, 19852.46179729245, 47784.74393901157, 30738.968341227574, 38138.73686060153, 4757.457048589832, 10427.692285501038, 1648.1282291565217, 0.0, 0.0, 15328.759292216218, -13836.757998080016, 7678.226551798171, 280.76026210311204, -26634.249285966074, -33749.39069144615, 0.058, -0.01, 1.032, 192.0, 0.0, 0.0, 0.0, 0.0, 0.0, 0.0, 0.0, 0.0, 0.0, 1.747688272988907E9, 0.0, 2025-05-19 22:57:52.988
228.0, 23377.086028705362, 19840.771834942323, 47756.31252006442, 30726.116088165774, 38117.21213069107, 4778.4453366333655, 10398.523258986863, 1627.5869760020944, 0.0, 0.0, 15335.978905675282, -13828.823128798382, 7701.070034631495, 309.57166070600283, -26618.200733447164, -33723.462667878, 0.058, -0.01, 1.032, 192.0, 0.0, 0.0, 0.0, 0.0, 0.0, 0.0, 0.0, 0.0, 0.0, 1.747688272996972E9, 0.0, 2025-05-19 22:57:52.996
230.0, 23375.141426937753, 19836.457948262447, 47745.82955191488, 30696.79059944041, 38104.11400844026, 4728.712705220307, 10380.977139589446, 1642.5402930426949, 0.0, 0.0, 15302.384233758956, -13861.926062336692, 7664.413173724792, 251.6135873333916, -26672.493120729105, -33769.998999833944, 0.064, -0.008, 1.028, 192.0, 1.0, 0.0, 127.5, 96.0, 16.0, 16.0, 0.0, 0.0, 0.0, 1.747688273005998E9, 0.0, 2025-05-19 22:57:53.005
232.0, 23402.701127851145, 19866.051657921274, 47774.573895284404, 30746.14325119773, 38131.27137795346, 4789.5988571165635, 10434.174291393078, 1633.8678161940356, 0.0, 0.0, 15323.193707846845, -13832.555870122418, 7682.51808673359, 294.14895703184095, -26625.97914051761, -33740.9640837865, 0.064, -0.008, 1.028, 192.0, 0.0, 0.0, 0.0, 0.0, 0.0, 0.0, 0.0, 0.0, 0.0, 1.747688273011991E9, 0.0, 2025-05-19 22:57:53.011
234.0, 23387.412534643714, 19853.869957193132, 47761.11814512231, 30718.427088073146, 38111.020697476946, 4809.313095726144, 10374.092802297211, 1638.3828685740077, 0.0, 0.0, 15326.233545092768, -13836.869756802293, 7697.672569474289, 291.98083781967614, -26639.636056379804, -33733.45389764952, 0.064, -0.008, 1.028, 192.0, 0.0, 0.0, 0.0, 0.0, 0.0, 0.0, 0.0, 0.0, 0.0, 1.747688273021067E9, 0.0, 2025-05-19 22:57:53.021
236.0, 23400.197732472152, 19864.442332320494, 47769.56710452642, 30734.676806292155, 38114.41816263416, 4747.465818818309, 10427.82639596777, 1643.6355285210047, 0.0, 0.0, 15319.438614778355, -13840.915422548704, 7675.589045952445, 277.0945760124417, -26642.81000409246, -33751.11177576921, 0.064, -0.008, 1.028, 192.0, 0.0, 0.0, 0.0, 0.0, 0.0, 0.0, 0.0, 0.0, 0.0, 1.747688273029093E9, 0.0, 2025-05-19 22:57:53.029
238.0, 23392.799305057444, 19857.870919450634, 47771.154078382744, 30742.075233706862, 38120.00609874798, 4779.786441300684, 10404.245305567421, 1628.5257492692174, 0.0, 0.0, 15344.673734268395, -13820.374169394276, 7712.782348726077, 317.7971026655558, -26616.390242146284, -33715.08076370726, 0.064, -0.008, 1.028, 192.0, 0.0, 0.0, 0.0, 0.0, 0.0, 0.0, 0.0, 0.0, 0.0, 1.74768827303804E9, 0.0, 2025-05-19 22:57:53.038
240.0, 23396.15206672574, 19858.429713062014, 47768.94125568167, 30718.851771217796, 38125.3481656728, 4726.343420308044, 10381.357119245187, 1634.4713132943289, 0.0, 0.0, 15320.690312467852, -13845.385771439764, 7684.105060589917, 265.8069450625116, -26658.076245555432, -33758.37609271718, 0.064, -0.004, 1.032, 192.0, 1.0, 0.0, 127.5, 112.0, 16.0, 32.0, 0.0, 0.0, 0.0, 1.747688273045129E9, 0.0, 2025-05-19 22:57:53.045
242.0, 23403.99752902955, 19867.951556199976, 47775.847944718356, 30739.817707516875, 38144.41420369318, 4753.232568887779, 10400.91489564358, 1615.338220040586, 0.0, 0.0, 15343.17616738989, -13821.06707347239, 7699.527764264079, 301.9720675911984, -26615.809096790446, -33739.08653725225, 0.064, -0.004, 1.032, 192.0, 0.0, 0.0, 0.0, 0.0, 0.0, 0.0, 0.0, 0.0, 0.0, 1.747688273054157E9, 0.0, 2025-05-19 22:57:53.054
244.0, 23395.19094171416, 19856.30629733876, 47763.01804340101, 30718.427088073146, 38131.20432272009, 4748.359888596522, 10357.284290466821, 1613.0806938506, 0.0, 0.0, 15325.227716592279, -13840.244870215043, 7696.398520040336, 280.60379989192484, -26646.185117505207, -33746.864944322704, 0.064, -0.004, 1.032, 192.0, 0.0, 0.0, 0.0, 0.0, 0.0, 0.0, 0.0, 0.0, 0.0, 1.74768827306223E9, 0.0, 2025-05-19 22:57:53.062
246.0, 23398.364889426815, 19863.235338119906, 47760.469944533106, 30722.048070674908, 38116.36276440177, 4738.458065802821, 10415.532936517351, 1629.2857085806977, 0.0, 0.0, 15324.110129369514, -13836.132149235267, 7676.2819500305595, 266.5445526295367, -26648.710864628658, -33764.18754627556, 0.064, -0.004, 1.032, 192.0, 0.0, 0.0, 0.0, 0.0, 0.0, 0.0, 0.0, 0.0, 0.0, 1.747688273068198E9, 0.0, 2025-05-19 22:57:53.068
248.0, 23396.688508592666, 19862.45302706397, 47766.59432251386, 30736.576704570856, 38127.04689825141, 4715.055789358114, 10370.360060973175, 1609.7055804378488, 0.0, 0.0, 15328.759292216218, -13830.275992187977, 7697.359645051914, 292.6290384088801, -26639.211373235154, -33739.57827563027, 0.064, -0.004, 1.032, 192.0, 0.0, 0.0, 0.0, 0.0, 0.0, 0.0, 0.0, 0.0, 0.0, 1.747688273077253E9, 0.0, 2025-05-19 22:57:53.077
250.0, 23390.0723922339, 19854.473454293427, 47760.82757244439, 30713.26383510397, 38099.37543861574, 4687.45138495581, 10371.72351738495, 1627.7210864688261, 0.0, 0.0, 15324.825385192084, -13836.60153586883, 7683.6803774452665, 265.00228226212056, -26658.880908355823, -33757.48202293897, 0.066, 0.0, 1.026, 192.0, 1.0, 8.0, 0.0, 0.0, 16.0, 8.0, 0.0, 0.0, 0.0, 1.747688273085293E9, 0.0, 2025-05-19 22:57:53.085
252.0, 23398.610758615825, 19860.240204362894, 47772.0257964165, 30739.683597050145, 38122.57654936035, 4648.626404836941, 10401.026654365856, 1614.1088740955443, 0.0, 0.0, 15330.03334165017, -13831.371227666286, 7684.038005356551, 292.85255585343316, -26634.383396432808, -33745.121508255186, 0.066, 0.0, 1.026, 192.0, 0.0, 0.0, 0.0, 0.0, 0.0, 0.0, 0.0, 0.0, 0.0, 1.747688273093318E9, 0.0, 2025-05-19 22:57:53.093
254.0, 23380.10351420683, 19845.868032678132, 47754.099697363345, 30708.905244935188, 38101.05181944988, 4621.670201023841, 10361.53112191333, 1619.3391822980861, 0.0, 0.0, 15323.998370647238, -13843.17294873869, 7694.520973506091, 289.9244773297879, -26644.08405352641, -33742.05931926481, 0.066, 0.0, 1.026, 192.0, 0.0, 0.0, 0.0, 0.0, 0.0, 0.0, 0.0, 0.0, 0.0, 1.747688273100318E9, 0.0, 2025-05-19 22:57:53.100
0.0, 23397.090839992863, 19857.40153281707, 47762.21338060062, 30720.148172396206, 38119.55906385888, 4607.834471206006, 10397.71859618647, 1632.2584905932536, 0.0, 0.0, 15319.818594434095, -13852.203053498633, 7670.783420894554, 271.8866195543551, -26647.41446345025, -33763.561697430814, 0.066, 0.0, 1.026, 192.0, 0.0, 0.0, 0.0, 0.0, 0.0, 0.0, 0.0, 0.0, 0.0, 1.74768827310946E9, 0.0, 2025-05-19 22:57:53.109
2.0, 23382.942185752654, 19842.470567520926, 47752.78094444048, 30720.84107647432, 38126.26458719547, 4622.586622546509, 10390.856610638692, 1617.5510427416616, 0.0, 0.0, 15322.344341557544, -13844.067018516902, 7691.212915326705, 300.6086111794247, -26633.35521618786, -33735.84553430624, 0.066, 0.0, 1.026, 192.0, 0.0, 0.0, 0.0, 0.0, 0.0, 0.0, 0.0, 0.0, 0.0, 1.747688273117429E9, 0.0, 2025-05-19 22:57:53.117
4.0, 23382.49515086355, 19846.762102456345, 47759.10648812133, 30708.301747834892, 38108.24908116449, 4584.5663052280315, 10375.545665686806, 1624.636545733994, 0.0, 0.0, 15310.07323385158, -13859.690887891162, 7668.5929499379345, 259.68256708175744, -26663.50771945807, -33765.26043000942, 0.066, -0.004, 1.032, 192.0, 1.0, 8.0, 127.5, 112.0, 16.0, 32.0, 0.0, 0.0, 0.0, 1.747688273124423E9, 0.0, 2025-05-19 22:57:53.124
6.0, 23393.939244024667, 19857.870919450634, 47766.86254344732, 30736.487297593034, 38128.23154070754, 4600.503099024666, 10409.497965514418, 1617.595746230572, 0.0, 0.0, 15332.313219584612, -13835.528652134974, 7683.099232089428, 291.01971280809795, -26627.677873096214, -33746.864944322704, 0.066, -0.004, 1.032, 192.0, 0.0, 0.0, 0.0, 0.0, 0.0, 0.0, 0.0, 0.0, 0.0, 1.747688273132457E9, 0.0, 2025-05-19 22:57:53.132
8.0, 23374.269708903994, 19838.983695385898, 47749.294072305456, 30711.36393682527, 38093.340467612805, 4602.268886836635, 10374.472781952953, 1623.2283858333094, 0.0, 0.0, 15321.629085734974, -13845.274012717487, 7690.654121715323, 277.4522039237266, -26651.951867574677, -33748.78719434586, 0.066, -0.004, 1.032, 192.0, 0.0, 0.0, 0.0, 0.0, 0.0, 0.0, 0.0, 0.0, 0.0, 1.747688273140465E9, 0.0, 2025-05-19 22:57:53.140
10.0, 23394.34157542486, 19856.194538616484, 47770.17060162671, 30730.362919612282, 38110.28308990993, 4560.940511338772, 10419.511547030395, 1637.46644705134, 0.0, 0.0, 15319.773890945184, -13844.22348072809, 7671.275159272571, 265.69518634023507, -26653.605896664372, -33764.09813929774, 0.066, -0.004, 1.032, 192.0, 0.0, 0.0, 0.0, 0.0, 0.0, 0.0, 0.0, 0.0, 0.0, 1.74768827314853E9, 0.0, 2025-05-19 22:57:53.148
12.0, 23392.821656801898, 19853.154701370564, 47767.44368880316, 30734.31917838087, 38123.045935993905, 4565.589674185476, 10397.360968275187, 1623.0048683887564, 0.0, 0.0, 15336.113016142013, -13828.152576464723, 7704.62396199989, 309.61636419491344, -26617.239608435586, -33726.68131907956, 0.066, -0.004, 1.032, 192.0, 0.0, 0.0, 0.0, 0.0, 0.0, 0.0, 0.0, 0.0, 0.0, 1.747688273157516E9, 0.0, 2025-05-19 22:57:53.157
14.0, 23395.503866136536, 19854.920489182532, 47758.34652880985, 30707.340622823314, 38108.51730209796, 4556.738383381175, 10380.395994233608, 1632.9737464158234, 0.0, 0.0, 15320.64560897894, -13851.174873253689, 7679.455897743213, 263.10238398341943, -26655.729312387626, -33763.24877300844, 0.06, -0.004, 1.032, 192.0, 0.5, 112.0, 127.5, 112.0, 16.0, 32.0, 0.0, 0.0, 0.0, 1.747688273164539E9, 0.0, 2025-05-19 22:57:53.164
16.0, 23397.6719853487, 19856.73098048341, 47771.288188849474, 30740.644722061723, 38131.11491574227, 4544.959014053227, 10419.91387843059, 1622.7813509442033, 0.0, 0.0, 15334.056655652126, -13837.160329480212, 7686.3178832909925, 292.83020410897785, -26628.057852751954, -33747.691958867545, 0.06, -0.004, 1.032, 192.0, 0.0, 0.0, 0.0, 0.0, 0.0, 0.0, 0.0, 0.0, 0.0, 1.747688273172593E9, 0.0, 2025-05-19 22:57:53.172
18.0, 23380.52819735148, 19837.195555829472, 47763.21920910111, 30716.50483804999, 38118.24031093602, 4539.4828366616775, 10373.28813949682, 1623.0942753665777, 0.0, 0.0, 15333.251992851734, -13840.73660859306, 7699.885392175364, 291.53380293057, -26635.65744586676, -33738.8630198077, 0.06, -0.004, 1.032, 192.0, 0.0, 0.0, 0.0, 0.0, 0.0, 0.0, 0.0, 0.0, 0.0, 1.747688273181599E9, 0.0, 2025-05-19 22:57:53.181
20.0, 23401.605892372834, 19853.758198470856, 47777.859601719334, 30735.7049865371, 38124.90113078369, 4567.891903864373, 10423.266640098887, 1636.013583661745, 0.0, 0.0, 15334.458987052321, -13843.150596994234, 7681.75812742211, 276.96046554570984, -26637.490288912093, -33759.18075551758, 0.06, -0.004, 1.032, 192.0, 0.0, 0.0, 0.0, 0.0, 0.0, 0.0, 0.0, 0.0, 0.0, 1.747688273188655E9, 0.0, 2025-05-19 22:57:53.188
22.0, 23386.987851499063, 19843.476396021415, 47770.50587779354, 30739.08009994985, 38116.63098533523, 4554.838485102473, 10400.221991565466, 1622.7366474552928, 0.0, 0.0, 15342.12563540049, -13833.651105600728, 7708.6249242573895, 309.61636419491344, -26622.22404744912, -33728.62592084717, 0.06, -0.004, 1.032, 192.0, 0.0, 0.0, 0.0, 0.0, 0.0, 0.0, 0.0, 0.0, 0.0, 1.747688273197656E9, 0.0, 2025-05-19 22:57:53.197
24.0, 23389.938281767165, 19851.41126530305, 47777.25610461904, 30730.966416712574, 38111.31127015487, 4513.3089439045125, 10395.930456630047, 1645.177798888421, 0.0, 0.0, 15332.201460862336, -13843.68703886116, 7693.00105488313, 278.1227562573858, -26646.475690183128, -33749.12247051269, 0.06, -0.004, 1.03, 192.0, 0.5, 112.0, 127.5, 112.0, 16.0, 24.0, 0.0, 0.0, 0.0, 1.747688273204762E9, 0.0, 2025-05-19 22:57:53.204
26.0, 23403.125810995796, 19860.508425296357, 47792.25412514855, 30759.107262981805, 38140.88262806924, 4519.612135840909, 10422.461977298497, 1631.4091243039518, 0.0, 0.0, 15353.61443205052, -13817.870774015282, 7707.932020179274, 315.8748526423994, -26605.750811785558, -33728.000072002425, 0.06, -0.004, 1.03, 192.0, 0.0, 0.0, 0.0, 0.0, 0.0, 0.0, 0.0, 0.0, 0.0, 1.747688273213747E9, 0.0, 2025-05-19 22:57:53.213
28.0, 23391.704069579133, 19848.349076312672, 47775.46796506262, 30733.112184180285, 38115.31223241237, 4532.1514644803365, 10375.255093008887, 1636.505322039762, 0.0, 0.0, 15348.652344781442, -13827.482024131063, 7718.169119139805, 310.24221303966203, -26620.257093937053, -33722.8591707777, 0.06, -0.004, 1.03, 192.0, 0.0, 0.0, 0.0, 0.0, 0.0, 0.0, 0.0, 0.0, 0.0, 1.747688273220745E9, 0.0, 2025-05-19 22:57:53.220
30.0, 23403.43873541817, 19861.40249507457, 47785.57095355642, 30743.03635871844, 38117.368592902254, 4516.058208472516, 10416.829337695759, 1639.791028474692, 0.0, 0.0, 15344.763141246218, -13830.790082310448, 7694.09629036144, 288.18104126227394, -26633.37756793232, -33749.14482225714, 0.06, -0.004, 1.03, 192.0, 0.0, 0.0, 0.0, 0.0, 0.0, 0.0, 0.0, 0.0, 0.0, 1.747688273228834E9, 0.0, 2025-05-19 22:57:53.228
32.0, 23394.20746495813, 19852.662962992545, 47785.615657045324, 30753.027588489964, 38135.4511541666, 4549.563473411021, 10390.744851916415, 1626.3799818015077, 0.0, 0.0, 15355.491978584765, -13818.943657749136, 7720.516052307613, 323.04976261255297, -26612.12105895532, -33716.06424046329, 0.06, -0.004, 1.03, 192.0, 0.0, 0.0, 0.0, 0.0, 0.0, 0.0, 0.0, 0.0, 0.0, 1.747688273236818E9, 0.0, 2025-05-19 22:57:53.236
34.0, 23388.19484569965, 19844.303410566263, 47770.30471209344, 30727.65835853319, 38108.31613639786, 4508.36920837989, 10386.363910003176, 1640.7074499973596, 0.0, 0.0, 15341.678600511385, -13830.231288699066, 7702.545249765546, 289.38803546286056, -26638.339655201395, -33740.718214597495, 0.06, -0.006, 1.032, 192.0, 0.5, 112.0, 127.5, 104.0, 16.0, 32.0, 0.0, 0.0, 0.0, 1.747688273244868E9, 0.0, 2025-05-19 22:57:53.244
36.0, 23402.187037728672, 19858.83204446221, 47789.326046624905, 30757.386178658748, 38135.07117451086, 4524.976554510183, 10407.57571549126, 1625.7988364456698, 0.0, 0.0, 15345.098417413046, -13822.944620006636, 7700.71240672021, 306.80004439354474, -26625.35329167286, -33735.01851976139, 0.06, -0.006, 1.032, 192.0, 0.0, 0.0, 0.0, 0.0, 0.0, 0.0, 0.0, 0.0, 0.0, 1.747688273252878E9, 0.0, 2025-05-19 22:57:53.252
38.0, 23386.317299165406, 19847.723227467923, 47779.1783546422, 30733.8050882584, 38122.93417727163, 4529.4469034012445, 10372.416421463064, 1626.89407192398, 0.0, 0.0, 15350.46283608232, -13821.78232929496, 7721.410122085825, 309.32579151699446, -26624.861553294846, -33725.85430453471, 0.06, -0.006, 1.032, 192.0, 0.0, 0.0, 0.0, 0.0, 0.0, 0.0, 0.0, 0.0, 0.0, 1.747688273260922E9, 0.0, 2025-05-19 22:57:53.260
40.0, 23402.187037728672, 19861.558957285757, 47788.65549429125, 30745.22682967506, 38129.25972095248, 4521.601441097431, 10405.29583755682, 1631.565586515139, 0.0, 0.0, 15345.903080213438, -13826.297381674933, 7696.800851440532, 290.2374017521622, -26630.22597196412, -33749.54715365734, 0.06, -0.006, 1.032, 192.0, 0.0, 0.0, 0.0, 0.0, 0.0, 0.0, 0.0, 0.0, 0.0, 1.747688273268972E9, 0.0, 2025-05-19 22:57:53.268
42.0, 23391.01116550102, 19857.60269851717, 47780.49710756506, 30753.854603034808, 38122.64360459371, 4526.071789988493, 10413.521279516373, 1630.8503306925693, 0.0, 0.0, 15348.294716870156, -13814.808585024904, 7720.828976729987, 325.597861480458, -26609.952939743154, -33716.22070267447, 0.06, -0.006, 1.032, 192.0, 0.0, 0.0, 0.0, 0.0, 0.0, 0.0, 0.0, 0.0, 0.0, 1.747688273278005E9, 0.0, 2025-05-19 22:57:53.278
44.0, 23389.0218602445, 19854.7863787158, 47779.87125872031, 30736.12966968175, 38109.56783408736, 4496.902763474317, 10397.025692108356, 1654.2526071372756, 0.0, 0.0, 15337.744693487251, -13825.448015385631, 7705.42862480028, 297.30055300003926, -26634.025768521522, -33732.64923484912, 0.062, -0.008, 1.028, 192.0, 0.5, 120.0, 127.5, 96.0, 16.0, 16.0, 0.0, 0.0, 0.0, 1.747688273285004E9, 0.0, 2025-05-19 22:57:53.285
46.0, 23389.06656373341, 19859.346134584684, 47788.0296454465, 30754.212230946094, 38127.89626454071, 4503.474176344178, 10415.778805706359, 1643.3002523541752, 0.0, 0.0, 15345.165472646413, -13820.754149050015, 7704.199278855238, 321.4851405006815, -26604.700279796158, -33724.088516722746, 0.062, -0.008, 1.028, 192.0, 0.0, 0.0, 0.0, 0.0, 0.0, 0.0, 0.0, 0.0, 0.0, 1.747688273293039E9, 0.0, 2025-05-19 22:57:53.293
48.0, 23369.598194312835, 19840.414207031037, 47764.40385155724, 30726.94310271062, 38104.941022985106, 4514.806510783018, 10368.326052227743, 1643.6131767765496, 0.0, 0.0, 15333.65432425193, -13832.980553267069, 7709.898973691342, 306.50947171562575, -26629.667178352738, -33726.524856868375, 0.062, -0.008, 1.028, 192.0, 0.0, 0.0, 0.0, 0.0, 0.0, 0.0, 0.0, 0.0, 0.0, 1.747688273301066E9, 0.0, 2025-05-19 22:57:53.301
50.0, 23394.29687193595, 19863.950593942474, 47789.77308151402, 30754.636914090745, 38123.91765402766, 4502.378940865868, 10426.351180833719, 1653.6938135258931, 0.0, 0.0, 15335.822443464094, -13828.934887520658, 7692.241095571649, 297.792291378056, -26628.281370196506, -33735.64436860614, 0.062, -0.008, 1.028, 192.0, 0.0, 0.0, 0.0, 0.0, 0.0, 0.0, 0.0, 0.0, 0.0, 1.747688273308099E9, 0.0, 2025-05-19 22:57:53.308
52.0, 23385.15500845373, 19853.512329281846, 47785.74976751206, 30760.493071138037, 38140.659110624685, 4535.727743593186, 10398.76912817587, 1642.048554664678, 0.0, 0.0, 15354.66496403992, -13811.746396034527, 7724.427607587291, 336.81843719702215, -26599.35821287134, -33700.84270248922, 0.062, -0.008, 1.028, 192.0, 0.0, 0.0, 0.0, 0.0, 0.0, 0.0, 0.0, 0.0, 0.0, 1.747688273317126E9, 0.0, 2025-05-19 22:57:53.317
54.0, 23382.24928167454, 19849.48901527989, 47774.439784817674, 30730.675844034657, 38105.9468514856, 4505.08350194496, 10394.76816591837, 1653.760868759259, 0.0, 0.0, 15332.2685160957, -13833.874623045282, 7697.560810752012, 291.42204420829347, -26637.870268567833, -33734.8620575502, 0.066, -0.012, 1.03, 192.0, 1.0, 8.0, 127.5, 80.0, 16.0, 24.0, 0.0, 0.0, 0.0, 1.747688273325148E9, 0.0, 2025-05-19 22:57:53.325
56.0, 23391.324089923393, 19855.16635837154, 47788.700197780156, 30756.447405391624, 38144.77183160446, 4534.408990670323, 10407.039273624334, 1627.2293480908095, 0.0, 0.0, 15351.960402960827, -13821.290590916944, 7706.434453300769, 319.6075939664357, -26604.566169329428, -33723.35090915572, 0.066, -0.012, 1.03, 192.0, 0.0, 0.0, 0.0, 0.0, 0.0, 0.0, 0.0, 0.0, 0.0, 1.747688273332176E9, 0.0, 2025-05-19 22:57:53.332
58.0, 23379.477665362083, 19844.16930009953, 47776.25027611855, 30738.230733660548, 38121.81659004886, 4486.352740091413, 10382.675872168049, 1640.6180430195384, 0.0, 0.0, 15343.667905767907, -13824.866870029793, 7717.833842972976, 309.5493089615475, -26625.75562307306, -33721.11573471019, 0.066, -0.012, 1.03, 192.0, 0.0, 0.0, 0.0, 0.0, 0.0, 0.0, 0.0, 0.0, 0.0, 1.747688273341212E9, 0.0, 2025-05-19 22:57:53.341
60.0, 23391.30173817894, 19853.378218815116, 47781.94997095466, 30745.47269886407, 38127.20336046259, 4483.737585990141, 10411.151994604112, 1634.8512929500691, 0.0, 0.0, 15338.817577221105, -13825.291553174444, 7694.47627001718, 293.5901634204583, -26632.37173943183, -33739.9135517971, 0.066, -0.012, 1.03, 192.0, 0.0, 0.0, 0.0, 0.0, 0.0, 0.0, 0.0, 0.0, 0.0, 1.747688273349232E9, 0.0, 2025-05-19 22:57:53.349
62.0, 23383.411572386216, 19847.164433856542, 47777.099642407855, 30750.144213455227, 38145.17416300466, 4510.4255688697785, 10378.764316888371, 1617.439284019385, 0.0, 0.0, 15341.231565622278, -13821.201183939122, 7714.436377815769, 321.2392713116731, -26617.954864258154, -33716.175999185565, 0.066, -0.012, 1.03, 192.0, 0.0, 0.0, 0.0, 0.0, 0.0, 0.0, 0.0, 0.0, 0.0, 1.747688273356262E9, 0.0, 2025-05-19 22:57:53.356
64.0, 23380.63995607376, 19844.54927975527, 47773.41160457273, 30730.27351263446, 38112.31709865536, 4470.125373616859, 10385.425136736052, 1631.3867725594966, 0.0, 0.0, 15333.095530640547, -13832.913498033704, 7700.131261364372, 291.98083781967614, -26639.591352890893, -33736.67254885108, 0.061, -0.01, 1.0310000000000001, 192.0, 0.5, 96.0, 127.5, 96.0, 16.0, 32.0, 0.0, 0.0, 0.0, 1.747688273364303E9, 0.0, 2025-05-19 22:57:53.364
66.0, 23389.603005600336, 19853.78055021531, 47780.16183139823, 30757.252068192014, 38114.01583123396, 4510.067940958494, 10427.312305845298, 1625.664725978938, 0.0, 0.0, 15336.090664397558, -13827.414968897698, 7699.728929964177, 311.29274502906145, -26623.52044862753, -33728.692976080536, 0.061, -0.01, 1.0310000000000001, 192.0, 0.0, 0.0, 0.0, 0.0, 0.0, 0.0, 0.0, 0.0, 0.0, 1.747688273373326E9, 0.0, 2025-05-19 22:57:53.373
68.0, 23373.353287381327, 19839.341323297183, 47767.98013067009, 30734.721509781066, 38107.511473597464, 4529.983345268171, 10369.913026084068, 1625.0165253897342, 0.0, 0.0, 15332.626144006987, -13827.839652042348, 7712.961162681719, 308.3646665054162, -26634.31634119944, -33720.19931318752, 0.061, -0.01, 1.0310000000000001, 192.0, 0.0, 0.0, 0.0, 0.0, 0.0, 0.0, 0.0, 0.0, 0.0, 1.747688273381407E9, 0.0, 2025-05-19 22:57:53.381
70.0, 23397.984909771076, 19861.089570652195, 47792.72351178211, 30753.295809423427, 38128.65622385219, 4514.739455549652, 10416.672875484572, 1643.1884936318986, 0.0, 0.0, 15336.515347542208, -13824.68805607415, 7695.057415373018, 298.4628437117152, -26628.437832407693, -33735.48790639495, 0.061, -0.01, 1.0310000000000001, 192.0, 0.0, 0.0, 0.0, 0.0, 0.0, 0.0, 0.0, 0.0, 0.0, 1.747688273388423E9, 0.0, 2025-05-19 22:57:53.388
72.0, 23384.05977297542, 19844.012837888342, 47786.50972682354, 30751.84294603383, 38133.21597972107, 4494.064091928493, 10383.81581113527, 1626.5811475016055, 0.0, 0.0, 15348.004144192237, -13819.25658217151, 7720.359590096426, 333.1080476174412, -26600.65461404975, -33708.91168223759, 0.061, -0.01, 1.0310000000000001, 192.0, 0.0, 0.0, 0.0, 0.0, 0.0, 0.0, 0.0, 0.0, 0.0, 1.747688273396418E9, 0.0, 2025-05-19 22:57:53.396
74.0, 23374.895557748743, 19839.430730275006, 47783.13461341079, 30734.16271616968, 38114.55227310089, 4480.787155722041, 10398.00916886439, 1637.46644705134, 0.0, 0.0, 15334.883670196972, -13834.746341079039, 7698.656046230322, 293.6348669093689, -26631.231800464608, -33736.85136280672, 0.058499999999999996, -0.009000000000000001, 1.0305, 192.0, 0.5, 96.0, 127.5, 96.0, 16.0, 24.0, 0.0, 0.0, 0.0, 1.747688273405448E9, 0.0, 2025-05-19 22:57:53.405
76.0, 23379.656479317724, 19842.69408496548, 47787.02381694601, 30756.022722246973, 38126.57751161784, 4496.656894285309, 10427.692285501038, 1620.9708596433236, 0.0, 0.0, 15344.852548224038, -13820.508279861007, 7703.394616054848, 320.9263468892988, -26606.622529819317, -33720.66869982108, 0.058499999999999996, -0.009000000000000001, 1.0305, 192.0, 0.0, 0.0, 0.0, 0.0, 0.0, 0.0, 0.0, 0.0, 0.0, 1.747688273412474E9, 0.0, 2025-05-19 22:57:53.412
78.0, 23363.876147732277, 19828.76894816982, 47774.21626737312, 30730.921713223663, 38112.272395166445, 4485.548077291021, 10370.896502840103, 1621.5520049991615, 0.0, 0.0, 15329.60865850552, -13837.696771347139, 7705.361569566914, 306.53182346008106, -26628.706053341157, -33725.76489755689, 0.058499999999999996, -0.009000000000000001, 1.0305, 192.0, 0.0, 0.0, 0.0, 0.0, 0.0, 0.0, 0.0, 0.0, 0.0, 1.747688273420447E9, 0.0, 2025-05-19 22:57:53.420
80.0, 23394.989776014063, 19861.134274141106, 47796.79152927298, 30756.737978069545, 38128.83503780783, 4496.321618118479, 10428.385189579152, 1650.0281274352226, 0.0, 0.0, 15335.241298108256, -13829.203108454121, 7690.47530775968, 301.45797746872637, -26622.93930327169, -33735.398499417126, 0.058499999999999996, -0.009000000000000001, 1.0305, 192.0, 0.0, 0.0, 0.0, 0.0, 0.0, 0.0, 0.0, 0.0, 0.0, 1.747688273428503E9, 0.0, 2025-05-19 22:57:53.428
82.0, 23388.686584077666, 19853.534681026304, 47790.71185478113, 30759.688408337643, 38134.579436132844, 4513.085426459959, 10391.460107738985, 1626.7152579683375, 0.0, 0.0, 15355.648440795952, -13809.891201244736, 7726.573375055001, 340.35001282096067, -26598.508846582037, -33700.70859202249, 0.058499999999999996, -0.009000000000000001, 1.0305, 192.0, 0.0, 0.0, 0.0, 0.0, 0.0, 0.0, 0.0, 0.0, 0.0, 1.747688273437517E9, 0.0, 2025-05-19 22:57:53.437
84.0, 23389.938281767165, 19854.138178126595, 47781.50293606555, 30734.56504756988, 38105.365706129756, 4506.670475801287, 10381.111250056178, 1634.3148510831418, 0.0, 0.0, 15340.963344688815, -13828.241983442544, 7705.339217822459, 293.16548027580745, -26637.870268567833, -33737.54426688484, 0.05425, -0.007500000000000001, 1.03225, 192.0, 0.5, 72.0, 127.5, 104.0, 16.0, 40.0, 0.0, 0.0, 0.0, 1.747688273445577E9, 0.0, 2025-05-19 22:57:53.445
86.0, 23394.833313802876, 19864.330573598218, 47793.12584318231, 30758.973152515075, 38143.56483740388, 4531.391505168856, 10420.852651697714, 1620.3226590541196, 0.0, 0.0, 15347.780626747684, -13819.88243101626, 7706.166232367305, 319.56289047752506, -26610.623492076815, -33724.7590690564, 0.05425, -0.007500000000000001, 1.03225, 192.0, 0.0, 0.0, 0.0, 0.0, 0.0, 0.0, 0.0, 0.0, 0.0, 1.747688273453556E9, 0.0, 2025-05-19 22:57:53.453
88.0, 23372.034534458464, 19840.838890175688, 47775.289151106976, 30726.719585266066, 38125.59403486181, 4494.578182050966, 10361.24054923541, 1614.3994467734633, 0.0, 0.0, 15342.3715045895, -13829.091349731845, 7715.3751510828915, 310.97982060668716, -26622.179343960208, -33724.87082777868, 0.05425, -0.007500000000000001, 1.03225, 192.0, 0.0, 0.0, 0.0, 0.0, 0.0, 0.0, 0.0, 0.0, 0.0, 1.747688273462635E9, 0.0, 2025-05-19 22:57:53.462
90.0, 23380.550549095937, 19846.158605356053, 47775.53502029598, 30730.675844034657, 38117.86033128027, 4480.161306877292, 10406.122852101667, 1625.9776504013123, 0.0, 0.0, 15331.75442597323, -13842.994134783046, 7682.272217544582, 283.80009934903376, -26639.12196625733, -33755.313903726805, 0.05425, -0.007500000000000001, 1.03225, 192.0, 0.0, 0.0, 0.0, 0.0, 0.0, 0.0, 0.0, 0.0, 0.0, 1.747688273469614E9, 0.0, 2025-05-19 22:57:53.469
92.0, 23378.985926984064, 19847.25384083436, 47783.76046225554, 30749.116033210285, 38137.70868035658, 4520.75207480813, 10384.329901257743, 1615.628792718505, 0.0, 0.0, 15342.595022034053, -13825.939753763647, 7712.782348726077, 319.27231779960607, -26615.74204155708, -33721.205141688006, 0.05425, -0.007500000000000001, 1.03225, 192.0, 0.0, 0.0, 0.0, 0.0, 0.0, 0.0, 0.0, 0.0, 0.0, 1.747688273476654E9, 0.0, 2025-05-19 22:57:53.476
94.0, 23375.521406593492, 19839.475433763913, 47777.34551159686, 30726.294902121415, 38113.83701727832, 4474.662777741287, 10385.179267547044, 1635.3206795836306, 0.0, 0.0, 15332.17910911788, -13840.334277192866, 7695.057415373018, 288.3151517290058, -26639.52429765753, -33743.4674791655, 0.054125, -0.00775, 1.032125, 192.0, 0.5, 88.0, 127.5, 96.0, 16.0, 32.0, 0.0, 0.0, 0.0, 1.747688273484692E9, 0.0, 2025-05-19 22:57:53.484
96.0, 23380.707011307124, 19848.036151890297, 47790.51068908104, 30754.100472223818, 38133.28303495444, 4485.816298224485, 10421.143224375634, 1624.949470156368, 0.0, 0.0, 15342.75148424524, -13825.671532830183, 7699.259543330615, 320.4569602557374, -26606.04138446348, -33725.31786266778, 0.054125, -0.00775, 1.032125, 192.0, 0.0, 0.0, 0.0, 0.0, 0.0, 0.0, 0.0, 0.0, 0.0, 1.747688273493708E9, 0.0, 2025-05-19 22:57:53.493
98.0, 23366.536005322458, 19834.267477305828, 47773.277494106, 30727.16662015517, 38112.71943005556, 4479.222533610169, 10381.804154134292, 1629.2633568362423, 0.0, 0.0, 15328.736940471763, -13838.613192869807, 7704.243982344149, 310.532785717581, -26623.118117227332, -33725.69784232353, 0.054125, -0.00775, 1.032125, 192.0, 0.0, 0.0, 0.0, 0.0, 0.0, 0.0, 0.0, 0.0, 0.0, 1.747688273500737E9, 0.0, 2025-05-19 22:57:53.500
100.0, 23382.897482263743, 19849.801939702265, 47781.63704653228, 30739.75065228351, 38111.244214921506, 4480.9659696776835, 10422.327866831763, 1632.1020283820665, 0.0, 0.0, 15328.424016049388, -13839.060227758913, 7684.417985012292, 293.9030878428326, -26630.158916730754, -33745.90381931112, 0.054125, -0.00775, 1.032125, 192.0, 0.0, 0.0, 0.0, 0.0, 0.0, 0.0, 0.0, 0.0, 0.0, 1.747688273508776E9, 0.0, 2025-05-19 22:57:53.508
102.0, 23364.747865766036, 19832.92637263851, 47770.103546393344, 30737.426070860158, 38103.97989797353, 4495.963990207194, 10391.258942038887, 1618.1545398419548, 0.0, 0.0, 15331.486205039766, -13834.969858523591, 7705.786252711565, 319.4511317552485, -26620.927646270713, -33721.31690041028, 0.054125, -0.00775, 1.032125, 192.0, 0.0, 0.0, 0.0, 0.0, 0.0, 0.0, 0.0, 0.0, 0.0, 1.747688273516795E9, 0.0, 2025-05-19 22:57:53.516
104.0, 23369.262918146007, 19831.719378437923, 47777.9266569527, 30720.706966007587, 38115.356935901276, 4508.346856635435, 10375.500962197895, 1636.3935633174854, 0.0, 0.0, 15326.993504404249, -13849.36438195281, 7688.463650758702, 286.728177872679, -26639.32313195743, -33745.56854314429, 0.0550625, -0.007875, 1.0330625, 192.0, 0.5, 96.0, 127.5, 96.0, 16.0, 40.0, 0.0, 0.0, 0.0, 1.747688273524786E9, 0.0, 2025-05-19 22:57:53.524
106.0, 23381.15404619623, 19847.54441351228, 47786.330912867896, 30749.4066058882, 38139.56387514638, 4500.903725731817, 10399.81966016527, 1619.6074032315498, 0.0, 0.0, 15341.969173189304, -13835.215727712599, 7695.929133406775, 317.372419520905, -26608.969462987123, -33728.894141780635, 0.0550625, -0.007875, 1.0330625, 192.0, 0.0, 0.0, 0.0, 0.0, 0.0, 0.0, 0.0, 0.0, 0.0, 1.747688273532855E9, 0.0, 2025-05-19 22:57:53.532
108.0, 23362.62445004278, 19830.64649470407, 47768.74008998157, 30723.5009340645, 38115.245177179, 4487.738548247641, 10359.519464912351, 1627.117589368533, 0.0, 0.0, 15334.816614963605, -13839.954297537124, 7706.657970745322, 306.88945137136596, -26631.343559186884, -33726.34604291273, 0.0550625, -0.007875, 1.0330625, 192.0, 0.0, 0.0, 0.0, 0.0, 0.0, 0.0, 0.0, 0.0, 0.0, 1.747688273541891E9, 0.0, 2025-05-19 22:57:53.541
110.0, 23370.76048502451, 19835.675637206514, 47774.17156388421, 30731.12287892376, 38114.1946451896, 4444.487922726622, 10411.666084726583, 1636.7511912287703, 0.0, 0.0, 15321.450271779333, -13850.59372789785, 7674.024423840574, 288.8739453403885, -26633.98106503261, -33750.30711296882, 0.0550625, -0.007875, 1.0330625, 192.0, 0.0, 0.0, 0.0, 0.0, 0.0, 0.0, 0.0, 0.0, 0.0, 1.747688273549851E9, 0.0, 2025-05-19 22:57:53.549
112.0, 23361.395104097737, 19830.668846448523, 47773.41160457273, 30745.629161075256, 38122.10716272678, 4503.854155999918, 10394.567000218272, 1625.597670745572, 0.0, 0.0, 15324.534812514165, -13841.340105693354, 7696.040892129051, 324.30146030205015, -26615.205599690154, -33715.93012999656, 0.0550625, -0.007875, 1.0330625, 192.0, 0.0, 0.0, 0.0, 0.0, 0.0, 0.0, 0.0, 0.0, 0.0, 1.74768827355591E9, 0.0, 2025-05-19 22:57:53.555
114.0, 23368.368848367794, 19836.83792791819, 47779.625389531306, 30732.776908013453, 38110.57366258784, 4480.295417344024, 10396.48925024143, 1646.8765314670243, 0.0, 0.0, 15324.020722391693, -13845.229309228578, 7687.94956063623, 298.082864055975, -26631.768242331535, -33731.77751681537, 0.05353125, -0.0059375, 1.03553125, 192.0, 0.5, 80.0, 127.5, 112.0, 16.0, 56.0, 0.0, 0.0, 0.0, 1.747688273564928E9, 0.0, 2025-05-19 22:57:53.564
116.0, 23374.135598437264, 19846.225660589418, 47780.251238376055, 30751.7088355671, 38126.80102906239, 4506.871641501384, 10416.024674895367, 1625.441208534385, 0.0, 0.0, 15334.79426321915, -13835.88628004626, 7689.871810659387, 319.6522974553463, -26612.07635546641, -33722.76976379988, 0.05353125, -0.0059375, 1.03553125, 192.0, 0.0, 0.0, 0.0, 0.0, 0.0, 0.0, 0.0, 0.0, 0.0, 1.747688273572947E9, 0.0, 2025-05-19 22:57:53.572
118.0, 23363.563223309902, 19838.22373607442, 47769.58945627087, 30729.357091111793, 38121.05663073738, 4500.769615265085, 10351.539892141807, 1620.1214933540218, 0.0, 0.0, 15333.430806807377, -13835.930983535169, 7707.887316690364, 310.4657304842151, -26627.767280074037, -33721.272196921374, 0.05353125, -0.0059375, 1.03553125, 192.0, 0.0, 0.0, 0.0, 0.0, 0.0, 0.0, 0.0, 0.0, 0.0, 1.747688273580955E9, 0.0, 2025-05-19 22:57:53.580
120.0, 23377.06367696091, 19849.891346680088, 47781.45823257664, 30739.638893561234, 38119.268491180956, 4478.462574298689, 10406.279314312855, 1632.5043597822619, 0.0, 0.0, 15331.441501550855, -13838.479082403075, 7686.809621669009, 293.76897737610074, -26633.75754758806, -33744.85328732173, 0.05353125, -0.0059375, 1.03553125, 192.0, 0.0, 0.0, 0.0, 0.0, 0.0, 0.0, 0.0, 0.0, 0.0, 1.74768827358996E9, 0.0, 2025-05-19 22:57:53.589
122.0, 23363.38440935426, 19837.21790757393, 47772.53988653897, 30740.287094150437, 38112.272395166445, 4502.714217032697, 10390.141354816122, 1620.7473421987704, 0.0, 0.0, 15337.632934764975, -13833.360532922808, 7709.183717868772, 324.01088762413116, -26618.625416591814, -33720.46753412098, 0.05353125, -0.0059375, 1.03553125, 192.0, 0.0, 0.0, 0.0, 0.0, 0.0, 0.0, 0.0, 0.0, 0.0, 1.747688273597018E9, 0.0, 2025-05-19 22:57:53.597
124.0, 23367.72064777859, 19843.722265210425, 47777.79254648597, 30728.66418703368, 38123.29180518291, 4494.4664233286885, 10377.177343032045, 1645.8707029665356, 0.0, 0.0, 15327.999332904737, -13847.889166818759, 7692.531668249568, 292.4949279421482, -26640.954809302668, -33741.07584250878, 0.051765625, -0.00596875, 1.039765625, 192.0, 0.5, 72.0, 127.5, 104.0, 16.0, 80.0, 0.0, 0.0, 0.0, 1.747688273607016E9, 0.0, 2025-05-19 22:57:53.607
126.0, 23371.654554802724, 19849.511367024348, 47777.68078776369, 30755.62039084678, 38116.765095801966, 4492.924152961273, 10418.192794107532, 1633.4654847938402, 0.0, 0.0, 15336.045960908648, -13829.046646242936, 7699.125432863883, 321.4404370117709, -26613.59627408937, -33720.44518237653, 0.051765625, -0.00596875, 1.039765625, 192.0, 0.0, 0.0, 0.0, 0.0, 0.0, 0.0, 0.0, 0.0, 0.0, 1.747688273614086E9, 0.0, 2025-05-19 22:57:53.614
128.0, 23351.985019682055, 19828.187802813984, 47758.92767416569, 30725.6019980433, 38095.06155193586, 4491.672455271775, 10367.521389427351, 1628.3916388024854, 0.0, 0.0, 15324.93714391436, -13839.999001026035, 7704.333389321971, 307.7611694051229, -26633.645788865782, -33721.830990532755, 0.051765625, -0.00596875, 1.039765625, 192.0, 0.0, 0.0, 0.0, 0.0, 0.0, 0.0, 0.0, 0.0, 0.0, 1.747688273622114E9, 0.0, 2025-05-19 22:57:53.622
130.0, 23370.268746646496, 19842.939954154488, 47781.63704653228, 30744.690387808132, 38118.32971791383, 4478.194353365226, 10411.48727077094, 1639.6569180079603, 0.0, 0.0, 15318.768062444695, -13846.637469129262, 7676.6619296863, 287.4657854397041, -26643.21233549265, -33746.12733675568, 0.051765625, -0.00596875, 1.039765625, 192.0, 0.0, 0.0, 0.0, 0.0, 0.0, 0.0, 0.0, 0.0, 0.0, 1.747688273629131E9, 0.0, 2025-05-19 22:57:53.629
132.0, 23364.18907215465, 19837.30731455175, 47778.66426451973, 30749.741882055034, 38122.68830808262, 4499.65202804232, 10385.492191969419, 1621.3284875546085, 0.0, 0.0, 15339.532833043675, -13825.939753763647, 7714.704598749233, 335.5220360186143, -26601.615739061326, -33706.81061825879, 0.051765625, -0.00596875, 1.039765625, 192.0, 0.0, 0.0, 0.0, 0.0, 0.0, 0.0, 0.0, 0.0, 0.0, 1.74768827363816E9, 0.0, 2025-05-19 22:57:53.638
134.0, 23367.452426845128, 19836.525003495815, 47769.209476615135, 30726.16079165468, 38106.63975556371, 4491.068958171482, 10371.701165640494, 1638.5840342741055, 0.0, 0.0, 15320.287981067657, -13845.274012717487, 7690.296493804038, 285.6552941388243, -26644.8887163268, -33744.1156797547, 0.0538828125, -0.002984375, 1.0388828125, 192.0, 0.5, 96.0, 0.0, 0.0, 16.0, 56.0, 0.0, 0.0, 0.0, 1.74768827364418E9, 0.0, 2025-05-19 22:57:53.644
136.0, 23374.649688559733, 19846.225660589418, 47778.06076741943, 30753.65343733471, 38128.61152036328, 4507.341028134946, 10408.894468414124, 1629.1292463695106, 0.0, 0.0, 15335.800091719639, -13831.147710221734, 7695.57150549549, 314.10906483043016, -26618.714823569637, -33726.77072605738, 0.0538828125, -0.002984375, 1.0388828125, 192.0, 0.0, 0.0, 0.0, 0.0, 0.0, 0.0, 0.0, 0.0, 0.0, 1.747688273653224E9, 0.0, 2025-05-19 22:57:53.653
138.0, 23363.362057609804, 19836.83792791819, 47770.08119464889, 30731.815783001875, 38109.277261409436, 4501.171946665281, 10371.43294470703, 1629.956260914357, 0.0, 0.0, 15331.575612017587, -13838.143806236245, 7708.937848679763, 311.69507642925697, -26629.153088230265, -33720.7581067989, 0.0538828125, -0.002984375, 1.0388828125, 192.0, 0.0, 0.0, 0.0, 0.0, 0.0, 0.0, 0.0, 0.0, 0.0, 1.747688273661238E9, 0.0, 2025-05-19 22:57:53.661
140.0, 23367.05009544493, 19842.470567520926, 47773.612770272826, 30737.22490516006, 38104.8963194962, 4498.154461163815, 10416.404654551108, 1638.7181447408373, 0.0, 0.0, 15324.22188809179, -13844.067018516902, 7681.132278577362, 293.2325355091734, -26636.21623947814, -33742.461650665005, 0.0538828125, -0.002984375, 1.0388828125, 192.0, 0.0, 0.0, 0.0, 0.0, 0.0, 0.0, 0.0, 0.0, 0.0, 1.747688273668271E9, 0.0, 2025-05-19 22:57:53.668
142.0, 23370.693429791147, 19843.54345125478, 47781.704101765645, 30753.854603034808, 38131.51724714247, 4492.097138416426, 10381.96061634548, 1630.8056272036586, 0.0, 0.0, 15343.17616738989, -13823.682227573661, 7717.43151157278, 337.17606510830706, -26602.532160583993, -33704.79896125782, 0.0538828125, -0.002984375, 1.0388828125, 192.0, 0.0, 0.0, 0.0, 0.0, 0.0, 0.0, 0.0, 0.0, 0.0, 1.747688273676256E9, 0.0, 2025-05-19 22:57:53.676
144.0, 23363.406761098715, 19834.803919172755, 47765.074403890896, 30723.433878831136, 38090.09946466678, 4474.573370763465, 10377.110287798678, 1637.5558540291613, 0.0, 0.0, 15322.523155513187, -13844.581108639373, 7691.212915326705, 290.66208489681304, -26644.575791904426, -33740.80762157531, 0.055941406250000006, -0.0024921875, 1.0374414062500001, 192.0, 0.5, 104.0, 127.5, 120.0, 16.0, 48.0, 0.0, 0.0, 0.0, 1.747688273685413E9, 0.0, 2025-05-19 22:57:53.685
146.0, 23379.14238919525, 19848.12555886812, 47782.30759886594, 30757.386178658748, 38125.88460753973, 4523.590746353954, 10404.334712545242, 1623.0272201332118, 0.0, 0.0, 15334.950725430337, -13831.438282899653, 7696.733796207166, 317.57358522100276, -26617.50782936905, -33726.949540013025, 0.055941406250000006, -0.0024921875, 1.0374414062500001, 192.0, 0.0, 0.0, 0.0, 0.0, 0.0, 0.0, 0.0, 0.0, 0.0, 1.747688273692404E9, 0.0, 2025-05-19 22:57:53.692
148.0, 23360.72455176408, 19835.854451162155, 47769.99178767107, 30734.40858535869, 38112.92059575565, 4500.121414675881, 10361.978156802435, 1628.9504324138682, 0.0, 0.0, 15329.631010249974, -13831.795910810937, 7710.189546369261, 316.03131485358654, -26625.97914051761, -33717.986490486444, 0.055941406250000006, -0.0024921875, 1.0374414062500001, 192.0, 0.0, 0.0, 0.0, 0.0, 0.0, 0.0, 0.0, 0.0, 0.0, 1.747688273701401E9, 0.0, 2025-05-19 22:57:53.701
150.0, 23364.747865766036, 19839.140157597085, 47765.49908703555, 30732.57574231336, 38110.55131084339, 4473.433431796245, 10403.708863700493, 1632.2361388487982, 0.0, 0.0, 15322.567859002098, -13844.536405150462, 7679.142973320839, 294.08190179847503, -26634.092823754887, -33744.80858383281, 0.055941406250000006, -0.0024921875, 1.0374414062500001, 192.0, 0.0, 0.0, 0.0, 0.0, 0.0, 0.0, 0.0, 0.0, 0.0, 1.747688273708435E9, 0.0, 2025-05-19 22:57:53.708
152.0, 23365.843101244343, 19844.191651843983, 47774.21626737312, 30746.07619596436, 38126.3986976622, 4552.938586823772, 10393.24824729541, 1624.949470156368, 0.0, 0.0, 15326.70293172633, -13834.612230612307, 7703.171098610294, 322.37921027889377, -26619.1842102032, -33719.729926553955, 0.055941406250000006, -0.0024921875, 1.0374414062500001, 192.0, 0.0, 0.0, 0.0, 0.0, 0.0, 0.0, 0.0, 0.0, 0.0, 1.747688273718468E9, 0.0, 2025-05-19 22:57:53.718
154.0, 23358.891708718744, 19832.792262171777, 47762.03456664498, 30715.051974660397, 38094.68157228012, 4469.410117794289, 10376.886770354125, 1637.8911301959909, 0.0, 0.0, 15319.79624268964, -13852.426570943186, 7684.954426879219, 287.0411022950533, -26643.502908170572, -33746.46261292251, 0.05597070312500001, -0.00124609375, 1.031720703125, 192.0, 0.5, 96.0, 0.0, 0.0, 16.0, 8.0, 0.0, 0.0, 0.0, 1.747688273725503E9, 0.0, 2025-05-19 22:57:53.725
156.0, 23372.01218271401, 19844.39281754408, 47776.31733135192, 30750.6583035777, 38118.66499408067, 4497.528612319066, 10411.979009148958, 1626.3129265681418, 0.0, 0.0, 15325.339475314555, -13839.59666962584, 7688.150726336328, 309.8398816394665, -26621.821716048922, -33735.82318256178, 0.05597070312500001, -0.00124609375, 1.031720703125, 192.0, 0.0, 0.0, 0.0, 0.0, 0.0, 0.0, 0.0, 0.0, 0.0, 1.747688273734481E9, 0.0, 2025-05-19 22:57:53.734
158.0, 23365.8654529888, 19836.525003495815, 47772.472831305604, 30731.726376024053, 38115.31223241237, 4486.218629624681, 10358.603043389683, 1625.3965050454742, 0.0, 0.0, 15328.044036393649, -13836.914460291204, 7706.412101556314, 311.0468758400531, -26627.1861347182, -33723.28385392235, 0.05597070312500001, -0.00124609375, 1.031720703125, 192.0, 0.0, 0.0, 0.0, 0.0, 0.0, 0.0, 0.0, 0.0, 0.0, 1.747688273741567E9, 0.0, 2025-05-19 22:57:53.741
160.0, 23372.883900747765, 19841.755311698354, 47777.16669764122, 30738.297788893917, 38112.71943005556, 4466.839667181929, 10403.306532300297, 1641.6238715200273, 0.0, 0.0, 15326.188841603858, -13841.340105693354, 7683.121583833884, 299.3345617454722, -26627.141431229287, -33739.712386097, 0.05597070312500001, -0.00124609375, 1.031720703125, 192.0, 0.0, 0.0, 0.0, 0.0, 0.0, 0.0, 0.0, 0.0, 0.0, 1.747688273748568E9, 0.0, 2025-05-19 22:57:53.748
162.0, 23367.966516967597, 19835.78739592879, 47773.09868015035, 30747.394948887224, 38125.146999972705, 4523.27782193158, 10382.050023323302, 1623.921289911424, 0.0, 0.0, 15329.094568383047, -13836.69094284665, 7705.1604038668165, 328.07890511499704, -26614.132715956297, -33715.34898464072, 0.05597070312500001, -0.00124609375, 1.031720703125, 192.0, 0.0, 0.0, 0.0, 0.0, 0.0, 0.0, 0.0, 0.0, 0.0, 1.747688273756628E9, 0.0, 2025-05-19 22:57:53.756
164.0, 23359.450502330128, 19828.79129991428, 47761.69929047815, 30717.667128761666, 38090.41238908916, 4511.967839237194, 10386.609779192184, 1636.0582871506558, 0.0, 0.0, 15318.589248489054, -13848.067980774402, 7687.927208891775, 289.43273895177117, -26644.8887163268, -33741.43347042006, 0.0579853515625, -0.001623046875, 1.0328603515625, 192.0, 0.5, 112.0, 127.5, 120.0, 16.0, 40.0, 0.0, 0.0, 0.0, 1.747688273764705E9, 0.0, 2025-05-19 22:57:53.764
166.0, 23367.899461734232, 19837.083797107196, 47766.86254344732, 30735.883800492742, 38115.6475085792, 4508.346856635435, 10406.703997457505, 1623.5189585112284, 0.0, 0.0, 15318.835117678062, -13847.822111585392, 7681.981644866663, 304.87779437038836, -26630.740062086592, -33739.712386097, 0.0579853515625, -0.001623046875, 1.0328603515625, 192.0, 0.0, 0.0, 0.0, 0.0, 0.0, 0.0, 0.0, 0.0, 0.0, 1.74768827377364E9, 0.0, 2025-05-19 22:57:53.773
168.0, 23356.76829299549, 19827.025512102307, 47762.39219455626, 30725.154963154193, 38102.23646190602, 4473.83576319644, 10355.160874743566, 1626.7823132017033, 0.0, 0.0, 15322.970190402293, -13848.492663919053, 7699.95244740873, 305.72716065969, -26634.383396432808, -33731.46459239299, 0.0579853515625, -0.001623046875, 1.0328603515625, 192.0, 0.0, 0.0, 0.0, 0.0, 0.0, 0.0, 0.0, 0.0, 0.0, 1.747688273781718E9, 0.0, 2025-05-19 22:57:53.781
170.0, 23370.313450135407, 19841.06240762024, 47774.730357495595, 30735.503820837002, 38112.45120912209, 4471.98056840665, 10410.01205563689, 1635.6112522615497, 0.0, 0.0, 15320.176222345379, -13847.531538907473, 7677.399537253325, 292.4949279421482, -26636.059777266953, -33745.92617105558, 0.0579853515625, -0.001623046875, 1.0328603515625, 192.0, 0.0, 0.0, 0.0, 0.0, 0.0, 0.0, 0.0, 0.0, 0.0, 1.747688273789709E9, 0.0, 2025-05-19 22:57:53.789
172.0, 23362.758560509512, 19830.69119819298, 47765.23086610209, 30736.934332482142, 38113.41233413367, 4496.6345425408535, 10384.95575010249, 1615.628792718505, 0.0, 0.0, 15327.46289103781, -13841.474216160086, 7703.349912565936, 322.93800389027643, -26618.044271235976, -33721.49571436593, 0.0579853515625, -0.001623046875, 1.0328603515625, 192.0, 0.0, 0.0, 0.0, 0.0, 0.0, 0.0, 0.0, 0.0, 0.0, 1.747688273798758E9, 0.0, 2025-05-19 22:57:53.798
174.0, 23363.742037265547, 19833.44046276098, 47771.8246307164, 30721.735146252533, 38112.85354052229, 4493.79587099503, 10380.418345978063, 1636.9970604177786, 0.0, 0.0, 15315.750576943228, -13852.627736643284, 7685.490868746147, 289.9468290742432, -26643.569963403937, -33744.763880343904, 0.060992675781250005, -8.115234375E-4, 1.03243017578125, 192.0, 1.0, 0.0, 0.0, 0.0, 16.0, 32.0, 0.0, 0.0, 0.0, 1.747688273805827E9, 0.0, 2025-05-19 22:57:53.805
176.0, 23370.514615835502, 19841.30827680925, 47778.53015405299, 30747.730225054056, 38130.86904655326, 4499.674379786776, 10406.793404435326, 1626.3576300570526, 0.0, 0.0, 15329.049864894137, -13840.870719059792, 7691.324674048981, 320.4793120001927, -26610.645843821272, -33730.34700517023, 0.060992675781250005, -8.115234375E-4, 1.03243017578125, 192.0, 0.0, 0.0, 0.0, 0.0, 0.0, 0.0, 0.0, 0.0, 0.0, 1.747688273812848E9, 0.0, 2025-05-19 22:57:53.812
178.0, 23360.47868257507, 19824.54446846777, 47762.280435833985, 30724.774983498453, 38103.957546229074, 4527.457598144722, 10355.674964866039, 1629.5092260252509, 0.0, 0.0, 15320.511498512209, -13846.123379006789, 7701.561773009512, 309.72812291719, -26632.282332454008, -33727.03894699084, 0.060992675781250005, -8.115234375E-4, 1.03243017578125, 192.0, 0.0, 0.0, 0.0, 0.0, 0.0, 0.0, 0.0, 0.0, 0.0, 1.747688273820878E9, 0.0, 2025-05-19 22:57:53.820
180.0, 23370.447560602137, 19840.704779708958, 47774.439784817674, 30736.822573759866, 38110.394848632204, 4478.417870809779, 10396.399843263609, 1641.0874296531, 0.0, 0.0, 15321.204402590323, -13845.385771439764, 7681.981644866663, 292.2490587531398, -26638.56317264595, -33744.830935577265, 0.060992675781250005, -8.115234375E-4, 1.03243017578125, 192.0, 0.0, 0.0, 0.0, 0.0, 0.0, 0.0, 0.0, 0.0, 0.0, 1.747688273828879E9, 0.0, 2025-05-19 22:57:53.828
182.0, 23356.611830784303, 19822.689273677977, 47757.050127631446, 30728.105393422295, 38103.599918317785, 4501.08253968746, 10381.781802389838, 1617.8192636751253, 0.0, 0.0, 15320.802071190128, -13842.725913849583, 7699.639522986356, 320.4122567668267, -26624.32511142792, -33722.92622601107, 0.060992675781250005, -8.115234375E-4, 1.03243017578125, 192.0, 0.0, 0.0, 0.0, 0.0, 0.0, 0.0, 0.0, 0.0, 0.0, 1.747688273835892E9, 0.0, 2025-05-19 22:57:53.835
184.0, 23365.172548910687, 19830.981770870898, 47766.28139809149, 30718.672957262155, 38111.17715968814, 4507.855118257417, 10382.675872168049, 1639.7239732413261, 0.0, 0.0, 15305.513477982699, -13862.998946070546, 7674.717327918688, 285.61059064991366, -26649.671989640236, -33749.30128446833, 0.060992675781250005, -8.115234375E-4, 1.03243017578125, 192.0, 0.0, 0.0, 0.0, 0.0, 0.0, 0.0, 0.0, 0.0, 0.0, 1.747688273844976E9, 0.0, 2025-05-19 22:57:53.844
186.0, 23365.463121588604, 19835.54152673978, 47776.00440692955, 30747.685521565145, 38119.000270247496, 4481.748280733619, 10415.510584772896, 1617.4839875082955, 0.0, 0.0, 15324.84773693654, -13840.714256848605, 7687.055490858018, 320.72518118920107, -26619.765355559037, -33727.01659524639, 0.064, -0.004, 1.03, 192.0, 1.0, 0.0, 127.5, 112.0, 16.0, 24.0, 0.0, 0.0, 0.0, 1.74768827385299E9, 0.0, 2025-05-19 22:57:53.852
188.0, 23365.44076984415, 19831.69702669347, 47768.24835160355, 30729.424146345158, 38104.941022985106, 4503.0941966884375, 10362.738116113916, 1635.2312726058094, 0.0, 0.0, 15325.853565437028, -13839.127282992278, 7705.741549222655, 319.16055907732954, -26627.65552135176, -33718.09824920872, 0.064, -0.004, 1.03, 192.0, 0.0, 0.0, 0.0, 0.0, 0.0, 0.0, 0.0, 0.0, 0.0, 1.74768827386101E9, 0.0, 2025-05-19 22:57:53.861
190.0, 23374.04619145944, 19840.905945409053, 47779.84890697586, 30738.476602849558, 38117.033316735426, 4492.544173305532, 10401.987779377436, 1638.4275720629182, 0.0, 0.0, 15318.589248489054, -13846.950393551637, 7679.94763612123, 299.6698379123018, -26631.477669653617, -33743.19925823203, 0.064, -0.004, 1.03, 192.0, 0.0, 0.0, 0.0, 0.0, 0.0, 0.0, 0.0, 0.0, 0.0, 1.747688273868018E9, 0.0, 2025-05-19 22:57:53.868
192.0, 23357.796473240433, 19828.50072723636, 47763.84505794586, 30734.98973071453, 38111.4453806216, 4497.640371041342, 10368.326052227743, 1617.305173552653, 0.0, 0.0, 15327.820518949095, -13835.796873068437, 7704.579258510978, 331.4763702722037, -26611.271692666018, -33714.8572462627, 0.064, -0.004, 1.03, 192.0, 0.0, 0.0, 0.0, 0.0, 0.0, 0.0, 0.0, 0.0, 0.0, 1.747688273877085E9, 0.0, 2025-05-19 22:57:53.877
194.0, 23363.33970586535, 19830.802956915257, 47767.242523103065, 30723.635044531235, 38107.667935808655, 4511.029065970071, 10376.909122098581, 1641.1991883753765, 0.0, 0.0, 15306.005216360714, -13856.069905289402, 7677.846572142431, 286.54936391703654, -26653.047103052988, -33747.93782805656, 0.064, -0.004, 1.03, 192.0, 0.0, 0.0, 0.0, 0.0, 0.0, 0.0, 0.0, 0.0, 0.0, 1.747688273884119E9, 0.0, 2025-05-19 22:57:53.884
196.0, 23371.81101701391, 19839.69895120847, 47769.09771789285, 30746.590286086834, 38109.07609570934, 4496.746301263131, 10409.766186447881, 1624.3906765449856, 0.0, 0.0, 15325.942972414849, -13836.869756802293, 7691.145860093339, 320.1216840889077, -26616.613759590837, -33726.14487721263, 0.06, -0.008, 1.026, 192.0, 0.5, 112.0, 127.5, 96.0, 16.0, 8.0, 0.0, 0.0, 0.0, 1.747688273892179E9, 0.0, 2025-05-19 22:57:53.892
198.0, 23361.52921456447, 19829.908887137044, 47759.03943288797, 30727.300730621904, 38090.23357513351, 4490.130184904359, 10365.33091847073, 1637.9134819404462, 0.0, 0.0, 15314.565934487098, -13846.860986573814, 7698.745453208144, 304.31900075900563, -26645.291047726998, -33728.73767956944, 0.06, -0.008, 1.026, 192.0, 0.0, 0.0, 0.0, 0.0, 0.0, 0.0, 0.0, 0.0, 0.0, 1.747688273900146E9, 0.0, 2025-05-19 22:57:53.900
200.0, 23376.415476371705, 19844.325762310717, 47776.205572629646, 30741.449384862113, 38107.28795615291, 4503.183603666259, 10414.974142905969, 1645.5577785441612, 0.0, 0.0, 15322.187879346357, -13841.250698715532, 7685.334406534959, 302.1732332912962, -26631.857649309357, -33736.47138315098, 0.06, -0.008, 1.026, 192.0, 0.0, 0.0, 0.0, 0.0, 0.0, 0.0, 0.0, 0.0, 0.0, 1.747688273909224E9, 0.0, 2025-05-19 22:57:53.909
202.0, 23366.133673922264, 19837.374369785117, 47771.422299316204, 30745.27153316397, 38116.742744057505, 4497.059225685504, 10377.400860476597, 1619.1603683424437, 0.0, 0.0, 15329.385141060966, -13833.82991955637, 7708.6249242573895, 331.8116464390333, -26611.472858366116, -33712.331499139254, 0.06, -0.008, 1.026, 192.0, 0.0, 0.0, 0.0, 0.0, 0.0, 0.0, 0.0, 0.0, 0.0, 1.747688273916229E9, 0.0, 2025-05-19 22:57:53.916
204.0, 23366.021915199988, 19838.69312270798, 47768.74008998157, 30721.623387530257, 38094.48040658002, 4469.097193371916, 10378.250226765898, 1641.892092453491, 0.0, 0.0, 15317.896344410938, -13850.280803475476, 7688.262485058604, 293.88073609837727, -26642.474727925626, -33741.902857053625, 0.06, -0.008, 1.026, 192.0, 0.0, 0.0, 0.0, 0.0, 0.0, 0.0, 0.0, 0.0, 0.0, 1.747688273924276E9, 0.0, 2025-05-19 22:57:53.924
206.0, 23371.252223402527, 19841.598849487167, 47779.60303778685, 30747.841983776332, 38113.59114808931, 4500.926077476272, 10422.417273809586, 1626.1341126124994, 0.0, 0.0, 15329.27338233869, -13835.528652134974, 7694.923304906286, 323.02741086809766, -26614.155067700754, -33726.39074640164, 0.058, -0.006, 1.026, 192.0, 0.5, 104.0, 127.5, 104.0, 16.0, 8.0, 0.0, 0.0, 0.0, 1.747688273933254E9, 0.0, 2025-05-19 22:57:53.933
208.0, 23353.61669702729, 19828.053692347254, 47760.246427088554, 30718.717660751066, 38093.51928156844, 4535.615984870909, 10369.801267361792, 1633.599595260572, 0.0, 0.0, 15318.097510111036, -13849.54319590845, 7699.840688686453, 308.58818394996933, -26635.970370289135, -33730.12348772568, 0.058, -0.006, 1.026, 192.0, 0.0, 0.0, 0.0, 0.0, 0.0, 0.0, 0.0, 0.0, 0.0, 1.747688273940298E9, 0.0, 2025-05-19 22:57:53.940
210.0, 23369.8664152463, 19844.482224521904, 47777.90430520825, 30734.118012680774, 38115.22282543455, 4481.524763289066, 10405.72052070147, 1627.117589368533, 0.0, 0.0, 15323.305466569123, -13850.213748242111, 7683.5015634896245, 297.0323320665756, -26634.428099921715, -33745.948522800034, 0.058, -0.006, 1.026, 192.0, 0.0, 0.0, 0.0, 0.0, 0.0, 0.0, 0.0, 0.0, 0.0, 1.747688273949416E9, 0.0, 2025-05-19 22:57:53.949
212.0, 23361.43980758665, 19834.02160811682, 47774.59624702886, 30743.03635871844, 38122.44243889361, 4499.741435020142, 10385.268674524865, 1611.6948856943711, 0.0, 0.0, 15326.79233870415, -13836.825053313381, 7708.043778901551, 330.26937607161716, -26613.328053155907, -33715.79601952982, 0.058, -0.006, 1.026, 192.0, 0.0, 0.0, 0.0, 0.0, 0.0, 0.0, 0.0, 0.0, 0.0, 1.747688273958405E9, 0.0, 2025-05-19 22:57:53.958
214.0, 23371.676906547178, 19844.16930009953, 47778.59720928636, 30729.6029603008, 38099.39779036019, 4495.427548340267, 10389.560209460284, 1639.7016214968708, 0.0, 0.0, 15319.259800822712, -13847.755056352027, 7692.039929871551, 297.00998032212027, -26641.334788958407, -33739.600627374726, 0.058, -0.006, 1.026, 192.0, 0.0, 0.0, 0.0, 0.0, 0.0, 0.0, 0.0, 0.0, 0.0, 1.747688273964364E9, 0.0, 2025-05-19 22:57:53.964
216.0, 23377.510711850013, 19851.724189725424, 47782.553468054946, 30749.116033210285, 38116.22865393504, 4483.625827267865, 10406.502831757407, 1620.0097346317452, 0.0, 0.0, 15333.60962076302, -13834.008733512013, 7699.416005541802, 323.98853587967585, -26616.054965979456, -33724.66966207858, 0.06, 0.0, 1.03, 192.0, 0.5, 112.0, 0.0, 0.0, 16.0, 24.0, 0.0, 0.0, 0.0, 1.747688273972489E9, 0.0, 2025-05-19 22:57:53.972
218.0, 23371.274575146985, 19847.20913734545, 47770.70704349364, 30728.753594011498, 38102.281165394925, 4481.055376655505, 10369.018956305858, 1626.9611271573458, 0.0, 0.0, 15332.55908877362, -13838.412027169708, 7713.832880715476, 317.3053642875391, -26627.78963181849, -33722.456839377504, 0.06, 0.0, 1.03, 192.0, 0.0, 0.0, 0.0, 0.0, 0.0, 0.0, 0.0, 0.0, 0.0, 1.747688273980501E9, 0.0, 2025-05-19 22:57:53.980
220.0, 23383.322165408394, 19854.965192671443, 47786.80029950146, 30746.880858764755, 38109.23255792053, 4496.433376840756, 10416.11408187319, 1637.958185429357, 0.0, 0.0, 15330.592135261553, -13838.255564958521, 7692.174040338283, 299.6921896567571, -26632.8858295543, -33738.93007504107, 0.06, 0.0, 1.03, 192.0, 0.0, 0.0, 0.0, 0.0, 0.0, 0.0, 0.0, 0.0, 0.0, 1.747688273988532E9, 0.0, 2025-05-19 22:57:53.988
222.0, 23379.9694037401, 19850.584250758202, 47792.49999433756, 30757.47558563657, 38122.621252849254, 4538.454656416733, 10387.77206990386, 1624.0554003781558, 0.0, 0.0, 15346.685391269373, -13819.2118786826, 7723.690000020266, 336.9748994082093, -26604.521465840517, -33705.961251969486, 0.06, 0.0, 1.03, 192.0, 0.0, 0.0, 0.0, 0.0, 0.0, 0.0, 0.0, 0.0, 0.0, 1.747688273996772E9, 0.0, 2025-05-19 22:57:53.996
224.0, 23367.00539195602, 19841.598849487167, 47769.768270226516, 30721.17635264115, 38094.68157228012, 4481.345949333424, 10379.926607600048, 1635.723010983826, 0.0, 0.0, 15334.436635307866, -13836.668591102194, 7702.724063721188, 298.21697452270683, -26635.61274237785, -33737.72308084048, 0.06, 0.0, 1.03, 192.0, 0.0, 0.0, 0.0, 0.0, 0.0, 0.0, 0.0, 0.0, 0.0, 1.74768827400468E9, 0.0, 2025-05-19 22:57:54.004
226.0, 23369.821711757388, 19843.051712876764, 47771.22113361611, 30739.013044716485, 38114.5969765898, 4519.634487585365, 10412.381340549153, 1617.2381183192872, 0.0, 0.0, 15325.562992759109, -13844.22348072809, 7690.274142059582, 310.7339514176788, -26627.16378297374, -33737.208990718005, 0.066, -0.006, 1.028, 192.0, 1.0, 8.0, 127.5, 104.0, 16.0, 16.0, 0.0, 0.0, 0.0, 1.747688274012632E9, 0.0, 2025-05-19 22:57:54.012
228.0, 23365.19490065514, 19845.532756511304, 47764.98499691308, 30721.55633229689, 38105.96920323005, 4489.4596325707, 10356.613738133161, 1620.9261561544129, 0.0, 0.0, 15319.528021756176, -13852.426570943186, 7700.958275909219, 303.1567100473297, -26640.060739524455, -33736.49373489544, 0.066, -0.006, 1.028, 192.0, 0.0, 0.0, 0.0, 0.0, 0.0, 0.0, 0.0, 0.0, 0.0, 1.747688274020635E9, 0.0, 2025-05-19 22:57:54.020
230.0, 23383.188054941664, 19856.239242105396, 47780.519459309515, 30739.773004027964, 38118.75440105848, 4497.863888485896, 10399.752604931904, 1630.8056272036586, 0.0, 0.0, 15330.838004450561, -13844.156425494722, 7690.520011248591, 295.46770995470405, -26634.673969110725, -33747.73666235646, 0.066, -0.006, 1.028, 192.0, 0.0, 0.0, 0.0, 0.0, 0.0, 0.0, 0.0, 0.0, 0.0, 1.747688274028705E9, 0.0, 2025-05-19 22:57:54.028
232.0, 23371.274575146985, 19850.15956761355, 47774.55154353995, 30746.411472131193, 38119.80493304788, 4505.642295556342, 10379.613683177673, 1613.6171357175274, 0.0, 0.0, 15337.252955109234, -13829.761902065506, 7714.458729560224, 326.3578207919384, -26619.69830032567, -33717.070068963774, 0.066, -0.006, 1.028, 192.0, 0.0, 0.0, 0.0, 0.0, 0.0, 0.0, 0.0, 0.0, 0.0, 1.74768827403676E9, 0.0, 2025-05-19 22:57:54.036
234.0, 23373.487397848057, 19848.773759457323, 47776.85377321885, 30732.598094057812, 38103.71167704006, 4516.192318939247, 10370.963558073468, 1644.2837291102087, 0.0, 0.0, 15324.266591580701, -13845.542233650951, 7696.510278762613, 293.18783202026276, -26645.402806449274, -33739.28770295235, 0.066, -0.006, 1.028, 192.0, 0.0, 0.0, 0.0, 0.0, 0.0, 0.0, 0.0, 0.0, 0.0, 1.747688274045753E9, 0.0, 2025-05-19 22:57:54.045
236.0, 23385.6690985762, 19853.19940485947, 47789.57191581392, 30760.627181604767, 38117.033316735426, 4481.614170266887, 10410.324980059264, 1630.1350748699995, 0.0, 0.0, 15344.740789501762, -13821.02236998348, 7711.7988719700425, 330.11291386043, -26608.790649031478, -33716.019536974374, 0.062, -0.008, 1.032, 192.0, 0.5, 120.0, 127.5, 96.0, 16.0, 32.0, 0.0, 0.0, 0.0, 1.747688274053822E9, 0.0, 2025-05-19 22:57:54.053
238.0, 23368.346496623337, 19838.40255003006, 47767.60015101435, 30730.787602756933, 38097.5425955704, 4492.074786671971, 10364.52625567034, 1630.17977835891, 0.0, 0.0, 15331.486205039766, -13834.276954445477, 7712.961162681719, 315.13724507537427, -26631.50002139807, -33719.953443998515, 0.062, -0.008, 1.032, 192.0, 0.0, 0.0, 0.0, 0.0, 0.0, 0.0, 0.0, 0.0, 0.0, 1.747688274060841E9, 0.0, 2025-05-19 22:57:54.060
240.0, 23379.34355489535, 19861.424846819027, 47780.36299709833, 30745.27153316397, 38105.18689217411, 4499.897897231329, 10414.415349294586, 1640.439229063896, 0.0, 0.0, 15326.70293172633, -13838.099102747334, 7690.14003159285, 296.3841314773716, -26642.474727925626, -33741.545229142335, 0.062, -0.008, 1.032, 192.0, 0.0, 0.0, 0.0, 0.0, 0.0, 0.0, 0.0, 0.0, 0.0, 1.747688274068811E9, 0.0, 2025-05-19 22:57:54.068
242.0, 23385.19971194264, 19859.726114240424, 47792.209421659645, 30761.32008568288, 38132.12074424276, 4512.258411915113, 10370.67298539555, 1629.956260914357, 0.0, 0.0, 15349.009972692726, -13819.390692638242, 7725.724008765699, 338.49481803117015, -26610.51173335454, -33704.06135369079, 0.062, -0.008, 1.032, 192.0, 0.0, 0.0, 0.0, 0.0, 0.0, 0.0, 0.0, 0.0, 0.0, 1.747688274076829E9, 0.0, 2025-05-19 22:57:54.076
244.0, 23387.81486604391, 19856.55216652777, 47786.55443031245, 30742.61167557379, 38110.171331187645, 4504.524708333577, 10377.1996947765, 1652.151543158477, 0.0, 0.0, 15341.008048177726, -13831.058303243912, 7711.105967891928, 308.0517420830419, -26632.79642257648, -33725.83195279026, 0.062, -0.008, 1.032, 192.0, 0.0, 0.0, 0.0, 0.0, 0.0, 0.0, 0.0, 0.0, 0.0, 1.747688274083857E9, 0.0, 2025-05-19 22:57:54.083
246.0, 23379.410610128714, 19853.60173625967, 47784.63218028929, 30761.163623471693, 38127.449229651604, 4513.84538577144, 10413.297762071821, 1625.7541329567591, 0.0, 0.0, 15347.020667436203, -13822.296419417433, 7712.514127792612, 334.8291319404998, -26609.394146131774, -33710.655118305105, 0.062, -0.002, 1.034, 192.0, 0.5, 120.0, 127.5, 120.0, 16.0, 40.0, 0.0, 0.0, 0.0, 1.747688274091901E9, 0.0, 2025-05-19 22:57:54.091
248.0, 23368.145330923242, 19840.63772447559, 47772.96456968362, 30735.548524325914, 38103.06347645086, 4487.0679959139825, 10358.938319556513, 1620.3226590541196, 0.0, 0.0, 15333.386103318466, -13836.892108546748, 7716.157462138827, 323.8767771573993, -26626.873210295824, -33712.08562995024, 0.062, -0.002, 1.034, 192.0, 0.0, 0.0, 0.0, 0.0, 0.0, 0.0, 0.0, 0.0, 0.0, 1.747688274101914E9, 0.0, 2025-05-19 22:57:54.101
250.0, 23380.19292118465, 19854.49580603788, 47786.62148554582, 30748.13255645425, 38111.33362189932, 4513.375999137878, 10413.007189393902, 1640.9086156974574, 0.0, 0.0, 15329.206327105323, -13844.536405150462, 7691.436432771258, 307.85057638294415, -26634.36104468835, -33733.096269738235, 0.062, -0.002, 1.034, 192.0, 0.0, 0.0, 0.0, 0.0, 0.0, 0.0, 0.0, 0.0, 0.0, 1.747688274108951E9, 0.0, 2025-05-19 22:57:54.108
252.0, 23371.34163038035, 19842.336457054193, 47785.146270411766, 30755.352169913313, 38118.82145629185, 4511.409045625812, 10386.788593147827, 1627.698734724371, 0.0, 0.0, 15344.494920312754, -13829.426625898675, 7721.320715108003, 345.5132657901366, -26603.56034082894, -33701.08857167823, 0.062, -0.002, 1.034, 192.0, 0.0, 0.0, 0.0, 0.0, 0.0, 0.0, 0.0, 0.0, 0.0, 1.747688274115976E9, 0.0, 2025-05-19 22:57:54.115
254.0, 23376.259014160518, 19837.59788722967, 47775.93735169618, 30733.22394290256, 38096.51441532546, 4485.436318568744, 10380.619511678162, 1648.9105402124574, 0.0, 0.0, 15330.927411428382, -13835.372189923786, 7704.087520132962, 302.9778960916872, -26640.8877540693, -33730.659929592606, 0.062, -0.002, 1.034, 192.0, 0.0, 0.0, 0.0, 0.0, 0.0, 0.0, 0.0, 0.0, 0.0, 1.747688274123974E9, 0.0, 2025-05-19 22:57:54.123
0.0, 23378.650650817235, 19846.560936756247, 47778.30663660844, 30754.167527457183, 38116.72039231305, 4495.427548340267, 10400.19963982101, 1626.536444012695, 0.0, 0.0, 15334.526042285686, -13828.934887520658, 7701.964104409708, 319.7640561776228, -26623.587503860894, -33723.10503996671, 0.06, -0.004, 1.03, 192.0, 0.5, 112.0, 127.5, 112.0, 16.0, 24.0, 0.0, 0.0, 0.0, 1.747688274132995E9, 0.0, 2025-05-19 22:57:54.132
2.0, 23380.10351420683, 19848.036151890297, 47777.83724997488, 30741.98582672904, 38103.77873227343, 4488.342045347935, 10369.488342939418, 1634.9630516723457, 0.0, 0.0, 15333.587269018564, -13830.097178232334, 7719.286706362571, 312.79031190756706, -26639.390187190795, -33719.08172596475, 0.06, -0.004, 1.03, 192.0, 0.0, 0.0, 0.0, 0.0, 0.0, 0.0, 0.0, 0.0, 0.0, 1.74768827414003E9, 0.0, 2025-05-19 22:57:54.140
4.0, 23394.00629925803, 19854.02641940432, 47788.96841871362, 30747.238486676037, 38120.810761548375, 4498.445033841734, 10389.828430393747, 1625.597670745572, 0.0, 0.0, 15339.733998743774, -13829.918364276691, 7704.355741066425, 305.54834670404756, -26629.376605674817, -33735.264388950396, 0.06, -0.004, 1.03, 192.0, 0.0, 0.0, 0.0, 0.0, 0.0, 0.0, 0.0, 0.0, 0.0, 1.747688274150057E9, 0.0, 2025-05-19 22:57:54.150
6.0, 23386.250243932038, 19854.361695571148, 47787.06852043492, 30764.22581246207, 38126.622215106756, 4510.872603758884, 10374.67394765305, 1624.0330486337004, 0.0, 0.0, 15344.003181934737, -13818.630733326761, 7727.1098169219285, 337.13136161939644, -26612.903370011256, -33707.637632803635, 0.06, -0.004, 1.03, 192.0, 0.0, 0.0, 0.0, 0.0, 0.0, 0.0, 0.0, 0.0, 0.0, 1.747688274157115E9, 0.0, 2025-05-19 22:57:54.157
8.0, 23374.44852285964, 19838.179032585507, 47780.11712790932, 30737.85075400481, 38110.797180032394, 4500.74726352063, 10371.0976685402, 1635.566548772639, 0.0, 0.0, 15339.085798154569, -13826.632657841761, 7713.1399766373615, 307.51530021611455, -26637.445585423182, -33725.02728998986, 0.06, -0.004, 1.03, 192.0, 0.0, 0.0, 0.0, 0.0, 0.0, 0.0, 0.0, 0.0, 0.0, 1.747688274164159E9, 0.0, 2025-05-19 22:57:54.164
10.0, 23378.561243839413, 19848.349076312672, 47776.965531941125, 30747.12672795376, 38121.995404004505, 4498.6909030307415, 10396.310436285787, 1614.89118515148, 0.0, 0.0, 15342.527966800686, -13833.204070711623, 7702.52289802109, 322.93800389027643, -26619.720652070126, -33724.02146148938, 0.056, -0.004, 1.026, 192.0, 0.5, 96.0, 127.5, 112.0, 16.0, 8.0, 0.0, 0.0, 0.0, 1.74768827417214E9, 0.0, 2025-05-19 22:57:54.172
12.0, 23357.796473240433, 19830.82530865971, 47769.29888359295, 30735.190896414628, 38091.4405693341, 4487.671493014275, 10366.76143011587, 1633.4431330493849, 0.0, 0.0, 15327.306428826623, -13839.574317881385, 7710.8600987029195, 313.46086424122626, -26638.004379034566, -33723.68618532255, 0.056, -0.004, 1.026, 192.0, 0.0, 0.0, 0.0, 0.0, 0.0, 0.0, 0.0, 0.0, 0.0, 1.747688274180273E9, 0.0, 2025-05-19 22:57:54.180
14.0, 23382.67396481919, 19854.518157782335, 47778.016063930525, 30746.433823875646, 38091.32881061183, 4491.918324460784, 10409.363855047686, 1640.6403947639938, 0.0, 0.0, 15332.849661451539, -13833.807567811915, 7696.7114444627105, 303.2684687696062, -26636.730329600614, -33736.784307573354, 0.056, -0.004, 1.026, 192.0, 0.0, 0.0, 0.0, 0.0, 0.0, 0.0, 0.0, 0.0, 0.0, 1.747688274189206E9, 0.0, 2025-05-19 22:57:54.189
16.0, 23382.830427030378, 19860.8884049521, 47783.76046225554, 30760.7612920715, 38108.13732244221, 4526.004734755127, 10392.331825772742, 1634.6724789944267, 0.0, 0.0, 15335.800091719639, -13824.576297351874, 7720.0690174185065, 330.7387627051786, -26628.281370196506, -33710.87863574966, 0.056, -0.004, 1.026, 192.0, 0.0, 0.0, 0.0, 0.0, 0.0, 0.0, 0.0, 0.0, 0.0, 1.747688274196228E9, 0.0, 2025-05-19 22:57:54.196
18.0, 23395.705031836635, 19879.194483660995, 47798.758482785044, 30760.671885093678, 38100.470674094046, 4496.701597774219, 10379.032537821835, 1653.7832205037143, 0.0, 0.0, 15343.936126701372, -13817.222573426077, 7721.76774999711, 312.209166551729, -26633.31051269895, -33721.74158355493, 0.056, -0.004, 1.026, 192.0, 0.0, 0.0, 0.0, 0.0, 0.0, 0.0, 0.0, 0.0, 0.0, 1.747688274205253E9, 0.0, 2025-05-19 22:57:54.205
20.0, 23413.586427400878, 19900.56275136027, 47811.901308524764, 30793.305431998426, 38118.843808036305, 4535.526577893088, 10407.39690153562, 1647.8153047341473, 0.0, 0.0, 15366.489036856776, -13787.226532367056, 7742.241947918171, 352.7775827381114, -26595.78193375849, -33691.52202505136, 0.056, 0.0, 1.028, 192.0, 0.5, 96.0, 0.0, 0.0, 16.0, 16.0, 0.0, 0.0, 0.0, 1.747688274212306E9, 0.0, 2025-05-19 22:57:54.212
22.0, 23404.176342985196, 19897.098230969696, 47796.322142639416, 30773.568841644388, 38084.936211697604, 4571.579941699498, 10370.963558073468, 1656.4207263494404, 0.0, 0.0, 15356.408400107432, -13791.24984636901, 7755.2283114467045, 344.41803031182656, -26616.79257354648, -33686.872862204655, 0.056, 0.0, 1.028, 192.0, 0.0, 0.0, 0.0, 0.0, 0.0, 0.0, 0.0, 0.0, 0.0, 1.747688274221303E9, 0.0, 2025-05-19 22:57:54.221
24.0, 23427.06452930743, 19924.434414438536, 47811.163700957746, 30787.62808890678, 38097.83316824832, 4548.781162355085, 10405.273485812366, 1666.0319764652224, 0.0, 0.0, 15357.23541465228, -13784.991357921524, 7738.665668805322, 333.5103790176367, -26616.390242146284, -33701.73677226744, 0.056, 0.0, 1.028, 192.0, 0.0, 0.0, 0.0, 0.0, 0.0, 0.0, 0.0, 0.0, 0.0, 1.747688274228403E9, 0.0, 2025-05-19 22:57:54.228
26.0, 23417.92266582521, 19921.819260337266, 47797.104453695356, 30783.96240281611, 38088.512490810455, 4554.771429869107, 10394.030558351345, 1647.9270634564239, 0.0, 0.0, 15362.823350766106, -13776.564750261874, 7761.2185789607265, 363.4617165877481, -26597.36890761482, -33676.456949288484, 0.056, 0.0, 1.028, 192.0, 0.0, 0.0, 0.0, 0.0, 0.0, 0.0, 0.0, 0.0, 0.0, 1.747688274236426E9, 0.0, 2025-05-19 22:57:54.236
28.0, 23424.136450783786, 19932.592801164723, 47790.91302048123, 30766.371579929782, 38064.10438586526, 4528.821054556496, 10412.336637060242, 1683.175764462443, 0.0, 0.0, 15336.135367886469, -13796.323692360365, 7734.083561191984, 314.8690241419106, -26644.0393500375, -33711.213911916486, 0.056, 0.0, 1.028, 192.0, 0.0, 0.0, 0.0, 0.0, 0.0, 0.0, 0.0, 0.0, 0.0, 1.747688274246401E9, 0.0, 2025-05-19 22:57:54.246
30.0, 23466.224785593127, 19978.14565636464, 47835.70591636967, 30821.692147456666, 38124.45409589459, 4587.650845962864, 10441.237442640953, 1687.0202645087559, 0.0, 0.0, 15370.668813069919, -13759.599776220295, 7763.677270850811, 368.78143176811125, -26584.114323152822, -33674.60175449869, 0.06, -0.002, 1.028, 192.0, 0.5, 112.0, 127.5, 120.0, 16.0, 16.0, 0.0, 0.0, 0.0, 1.747688274252385E9, 0.0, 2025-05-19 22:57:54.252
32.0, 23457.93228840021, 19978.48093253147, 47826.40759067626, 30803.90015887024, 38096.91674672565, 4589.997779130671, 10394.835221151736, 1683.0193022512558, 0.0, 0.0, 15373.105153215547, -13752.581328461329, 7785.939608328296, 370.9719027247313, -26587.467084821117, -33660.721321191944, 0.06, -0.002, 1.028, 192.0, 0.0, 0.0, 0.0, 0.0, 0.0, 0.0, 0.0, 0.0, 0.0, 1.74768827426044E9, 0.0, 2025-05-19 22:57:54.260
34.0, 23480.798122977987, 20005.839467744765, 47836.46587568115, 30815.81363866492, 38102.45997935057, 4597.552668756565, 10436.856500727714, 1683.5110406292727, 0.0, 0.0, 15382.917569031426, -13745.786398146916, 7772.595616888478, 361.87474273142135, -26582.750866741048, -33674.60175449869, 0.06, -0.002, 1.028, 192.0, 0.0, 0.0, 0.0, 0.0, 0.0, 0.0, 0.0, 0.0, 0.0, 1.747688274268457E9, 0.0, 2025-05-19 22:57:54.268
36.0, 23473.08677114091, 19997.81519148531, 47820.26086095105, 30816.081859598384, 38093.85455773527, 4596.435081533799, 10408.067453869278, 1658.141810672499, 0.0, 0.0, 15384.683356843396, -13736.108092797767, 7796.489631711202, 389.03211224461944, -26570.83738694637, -33649.72426291994, 0.06, -0.002, 1.028, 192.0, 0.0, 0.0, 0.0, 0.0, 0.0, 0.0, 0.0, 0.0, 0.0, 1.747688274276444E9, 0.0, 2025-05-19 22:57:54.276
38.0, 23448.343390028884, 19985.320566334794, 47804.36877064333, 30779.894385325242, 38063.411481787145, 4594.021093132626, 10401.406634021598, 1662.6345113080158, 0.0, 0.0, 15361.728115287795, -13761.633784965728, 7767.29825345257, 341.24408259917294, -26611.78578278849, -33687.09637964921, 0.06, -0.002, 1.028, 192.0, 0.0, 0.0, 0.0, 0.0, 0.0, 0.0, 0.0, 0.0, 0.0, 1.747688274285517E9, 0.0, 2025-05-19 22:57:54.285
40.0, 23459.832186678912, 19999.670386275102, 47808.4367881342, 30808.258749039025, 38067.72536846702, 4577.257284791146, 10451.318079390297, 1652.665633280949, 0.0, 0.0, 15359.627051308997, -13756.761104674471, 7759.8104190600425, 353.5375420495918, -26605.728460041104, -33683.76596972537, 0.058, 0.0, 1.028, 192.0, 0.5, 104.0, 0.0, 0.0, 16.0, 16.0, 0.0, 0.0, 0.0, 1.747688274292559E9, 0.0, 2025-05-19 22:57:54.292
42.0, 23447.87400339532, 19983.085391889264, 47806.89451776678, 30786.24228075055, 38091.35116235628, 4579.939494125783, 10362.112267269167, 1661.6510345519823, 0.0, 0.0, 15356.922490229905, -13761.745543688005, 7771.321567454525, 354.0963356609745, -26600.140523927275, -33675.987562654926, 0.058, 0.0, 1.028, 192.0, 0.0, 0.0, 0.0, 0.0, 0.0, 0.0, 0.0, 0.0, 0.0, 1.747688274301542E9, 0.0, 2025-05-19 22:57:54.301
