%OpenBCI Raw EXG Data
%Number of channels = 16
%Sample Rate = 125 Hz
%Board = OpenBCI_GUI$BoardCytonSerialDaisy
Sample Index, EXG Channel 0, EXG Channel 1, EXG Channel 2, EXG Channel 3, EXG Channel 4, EXG Channel 5, EXG Channel 6, EXG Channel 7, EXG Channel 8, EXG Channel 9, EXG Channel 10, EXG Channel 11, EXG Channel 12, EXG Channel 13, EXG Channel 14, EXG Channel 15, Accel Channel 0, Accel Channel 1, Accel Channel 2, Not Used, Digital Channel 0 (D11), Digital Channel 1 (D12), Digital Channel 2 (D13), Digital Channel 3 (D17), Not Used, Digital Channel 4 (D18), Analog Channel 0, Analog Channel 1, Analog Channel 2, Timestamp, Marker Channel, Timestamp (Formatted)
146.0, 23085.731039730435, 19687.461219723373, 48490.61202891017, 32374.82546267813, 41342.591207336336, 7437.587670992336, 8353.785676215371, 1700.5654216486719, 0.0, 0.0, 13940.313630141454, -16798.073565730283, 10468.148942965145, 2490.6995881437765, -20648.362713857023, -33102.106523764916, 0.0, 0.0, 0.0, 192.0, 0.0, 0.0, 0.0, 0.0, 0.0, 0.0, 0.0, 0.0, 0.0, 1.747689097651121E9, 0.0, 2025-05-19 23:11:37.651
0.0, 12065.29284301911, 10164.902825939993, 24230.475632008987, 16253.093332420985, 21369.76526615206, 4053.0418220808297, 4216.611888004767, 1049.4814574100326, 0.0, 0.0, 6956.913406480958, -8412.727226344017, 5213.343228500275, 1220.3828955153103, -10345.840197305704, -16572.90209208752, 0.058, -0.006, 1.03, 192.0, 0.5, 104.0, 127.5, 104.0, 16.0, 24.0, 0.0, 0.0, 0.0, 1.747689097768967E9, 0.0, 2025-05-19 23:11:37.768
2.0, 24138.654665786587, 20340.55684096299, 48462.18060996302, 32516.401412058047, 42752.67335804384, 8099.288713847246, 8478.1507823647, 2107.277763757439, 0.0, 0.0, 13266.050906902661, -17905.69191046857, 11218.6981700299, 2673.223933365814, -19773.560139365214, -33240.32971147653, 0.058, -0.006, 1.03, 192.0, 0.0, 0.0, 0.0, 0.0, 0.0, 0.0, 0.0, 0.0, 0.0, 1.747689097778016E9, 0.0, 2025-05-19 23:11:37.778
4.0, 24127.38938658111, 20330.386797235824, 48454.648072081574, 32517.697813236457, 42750.616997553945, 8121.260478646813, 8447.283023271923, 2096.6830368856236, 0.0, 0.0, 13267.928453436907, -17900.908637155135, 11238.07713247265, 2696.8497272550735, -19756.8633862571, -33215.78749606461, 0.058, -0.006, 1.03, 192.0, 0.0, 0.0, 0.0, 0.0, 0.0, 0.0, 0.0, 0.0, 0.0, 1.747689097784044E9, 0.0, 2025-05-19 23:11:37.784
6.0, 24124.953046435483, 20325.268247755557, 48447.65197606706, 32491.43451350147, 42748.448878341784, 8091.845582943629, 8446.47836047153, 2092.994999050498, 0.0, 0.0, 13248.929470649895, -17920.44406180907, 11210.204507136883, 2655.0966686125603, -19794.7719448533, -33250.18683078132, 0.058, -0.006, 1.03, 192.0, 0.0, 0.0, 0.0, 0.0, 0.0, 0.0, 0.0, 0.0, 0.0, 1.747689097791056E9, 0.0, 2025-05-19 23:11:37.791
8.0, 24135.63718028512, 20341.093282829916, 48454.15633370356, 32516.021432402307, 42764.676244816335, 8116.0525221887265, 8473.63572998473, 2095.386635707216, 0.0, 0.0, 13261.066467889128, -17909.134079114687, 11220.106329930584, 2675.9508461893615, -19768.73216256287, -33241.11202253247, 0.06, -0.004, 1.036, 192.0, 0.5, 112.0, 127.5, 112.0, 16.0, 48.0, 0.0, 0.0, 0.0, 1.747689097800104E9, 0.0, 2025-05-19 23:11:37.800
10.0, 24117.86754344315, 20323.390701221313, 48442.46637135343, 32490.115760578607, 42749.76763126464, 8102.105033648615, 8426.942935817593, 2083.2496384679844, 0.0, 0.0, 13253.24335732977, -17918.611218763737, 11224.375513121548, 2665.736098973286, -19786.278281960283, -33240.441470198806, 0.06, -0.004, 1.036, 192.0, 0.0, 0.0, 0.0, 0.0, 0.0, 0.0, 0.0, 0.0, 0.0, 1.747689097808153E9, 0.0, 2025-05-19 23:11:37.808
12.0, 24133.11143316167, 20337.762872906074, 48451.40706913556, 32499.928176394485, 42763.0445674711, 8102.485013304355, 8478.709575976083, 2095.9454293185986, 0.0, 0.0, 13253.5786334966, -17917.314817585328, 11207.16466989096, 2654.7613924457305, -19785.294805204252, -33256.177098295346, 0.06, -0.004, 1.036, 192.0, 0.0, 0.0, 0.0, 0.0, 0.0, 0.0, 0.0, 0.0, 0.0, 1.747689097815177E9, 0.0, 2025-05-19 23:11:37.815
14.0, 24127.992883681403, 20331.12440480285, 48446.7355545444, 32504.353821796638, 42760.13884069191, 8123.965039725905, 8450.345212262298, 2089.2399059820063, 0.0, 0.0, 13257.959575409839, -17914.8784774397, 11227.303591645194, 2674.453279310856, -19773.984822509865, -33235.76995560765, 0.06, -0.004, 1.036, 192.0, 0.0, 0.0, 0.0, 0.0, 0.0, 0.0, 0.0, 0.0, 0.0, 1.747689097824226E9, 0.0, 2025-05-19 23:11:37.824
16.0, 24134.273723873346, 20334.387759493322, 48448.70250805646, 32488.19351055545, 42758.21659066875, 8103.736710993852, 8453.72032567505, 2093.9114205731657, 0.0, 0.0, 13253.556281752144, -17920.756986231445, 11214.6972077724, 2647.1841510753816, -19797.990596054864, -33256.49002271772, 0.06, -0.004, 1.036, 192.0, 0.0, 0.0, 0.0, 0.0, 0.0, 0.0, 0.0, 0.0, 0.0, 1.747689097832258E9, 0.0, 2025-05-19 23:11:37.832
18.0, 24142.34270362171, 20347.97762012215, 48453.485781369905, 32516.49081903587, 42764.34096864951, 8122.690990291952, 8476.63086374174, 2092.3915019502047, 0.0, 0.0, 13266.296776091669, -17904.976654645998, 11225.694266044411, 2667.680700740898, -19772.375496909084, -33246.92347609085, 0.06, -0.002, 1.03, 192.0, 0.5, 112.0, 127.5, 120.0, 16.0, 24.0, 0.0, 0.0, 0.0, 1.747689097839291E9, 0.0, 2025-05-19 23:11:37.839
20.0, 24130.719796504953, 20335.795919394008, 48445.17093243253, 32496.91069089302, 42750.773459765136, 8126.826063016184, 8434.229604510023, 2083.7190251015454, 0.0, 0.0, 13260.418267299923, -17906.943608158064, 11234.500853359801, 2664.4396977948786, -19786.926482549487, -33238.98860680922, 0.06, -0.002, 1.03, 192.0, 0.0, 0.0, 0.0, 0.0, 0.0, 0.0, 0.0, 0.0, 0.0, 1.74768909784733E9, 0.0, 2025-05-19 23:11:37.847
22.0, 24141.850965243695, 20347.999971866604, 48449.484819112404, 32502.14099909556, 42763.491602360205, 8120.366408868601, 8475.557980007885, 2084.4342809241152, 0.0, 0.0, 13258.272499832214, -17911.279846582394, 11212.88671647152, 2648.078220853594, -19791.799162840744, -33263.86609838797, 0.06, -0.002, 1.03, 192.0, 0.0, 0.0, 0.0, 0.0, 0.0, 0.0, 0.0, 0.0, 0.0, 1.747689097856366E9, 0.0, 2025-05-19 23:11:37.856
24.0, 24134.2960756178, 20338.92516361775, 48443.09222019818, 32506.656051475533, 42759.423584869335, 8137.778417799284, 8443.304412758876, 2071.8278970513225, 0.0, 0.0, 13265.760334224742, -17904.596674990258, 11235.730199304844, 2669.7594129752415, -19778.857502801122, -33241.8943335884, 0.06, -0.002, 1.03, 192.0, 0.0, 0.0, 0.0, 0.0, 0.0, 0.0, 0.0, 0.0, 0.0, 1.747689097864384E9, 0.0, 2025-05-19 23:11:37.864
26.0, 24132.35147385019, 20340.6015444519, 48440.56647307474, 32485.91363262101, 42759.490640102704, 8121.282830391268, 8445.584290693318, 2075.65004535318, 0.0, 0.0, 13252.170473595916, -17920.377006575705, 11212.976123449342, 2636.768238159208, -19808.63002641559, -33269.163461823875, 0.06, -0.002, 1.03, 192.0, 0.0, 0.0, 0.0, 0.0, 0.0, 0.0, 0.0, 0.0, 0.0, 1.747689097871424E9, 0.0, 2025-05-19 23:11:37.871
28.0, 24139.973418709447, 20342.389684008325, 48443.53925508729, 32510.120571866108, 42770.91238151937, 8131.385818885067, 8468.360718293276, 2073.772498818934, 0.0, 0.0, 13258.518369021222, -17909.44700353706, 11219.771053763754, 2661.131639615493, -19781.405601669027, -33255.03715932812, 0.058, -0.006, 1.036, 192.0, 0.5, 104.0, 127.5, 104.0, 16.0, 48.0, 0.0, 0.0, 0.0, 1.747689097879513E9, 0.0, 2025-05-19 23:11:37.879
30.0, 24132.999674439394, 20336.108843816382, 48441.6840602975, 32490.406333256524, 42760.16119243636, 8126.870766505095, 8426.741770117495, 2066.8881615266996, 0.0, 0.0, 13255.903214919952, -17913.962055917033, 11229.427007368447, 2655.521351757211, -19797.074174532198, -33249.38216798093, 0.058, -0.006, 1.036, 192.0, 0.0, 0.0, 0.0, 0.0, 0.0, 0.0, 0.0, 0.0, 0.0, 1.747689097888502E9, 0.0, 2025-05-19 23:11:37.888
32.0, 24148.467081602466, 20347.50823348859, 48447.85314176716, 32497.827112415685, 42778.1990502118, 8114.912583221506, 8477.1002503753, 2076.6558738536687, 0.0, 0.0, 13257.959575409839, -17916.890134440677, 11211.523260059746, 2645.5971772190546, -19794.101392519642, -33267.62119145646, 0.058, -0.006, 1.036, 192.0, 0.0, 0.0, 0.0, 0.0, 0.0, 0.0, 0.0, 0.0, 0.0, 1.747689097895631E9, 0.0, 2025-05-19 23:11:37.895
34.0, 24142.901497233095, 20340.825061896452, 48444.14275218758, 32504.53263575228, 42780.32246593505, 8134.984449742371, 8445.092552315302, 2070.9114755286546, 0.0, 0.0, 13265.536816780188, -17911.905695427144, 11234.433798126436, 2670.966407175828, -19777.091714989154, -33242.81075511107, 0.058, -0.006, 1.036, 192.0, 0.0, 0.0, 0.0, 0.0, 0.0, 0.0, 0.0, 0.0, 0.0, 1.747689097903545E9, 0.0, 2025-05-19 23:11:37.903
36.0, 24128.417566826054, 20331.705550158687, 48441.70641204195, 32483.410237242013, 42770.688864074815, 8114.689065776953, 8445.360773248765, 2069.860943539255, 0.0, 0.0, 13253.109246863038, -17922.612181021235, 11214.6972077724, 2641.2162353058143, -19803.198552512953, -33266.168328066866, 0.058, -0.006, 1.036, 192.0, 0.0, 0.0, 0.0, 0.0, 0.0, 0.0, 0.0, 0.0, 0.0, 1.747689097911571E9, 0.0, 2025-05-19 23:11:37.911
38.0, 24138.811127997775, 20338.768701406563, 48450.37888889061, 32512.981595156387, 42787.16209973837, 8136.951403254438, 8476.988491653025, 2074.957141275065, 0.0, 0.0, 13262.496979534268, -17916.15252687365, 11219.07814968564, 2662.1151163715263, -19776.801142311233, -33258.14405180741, 0.064, 0.0, 1.036, 192.0, 1.0, 0.0, 0.0, 0.0, 16.0, 48.0, 0.0, 0.0, 0.0, 1.747689097920617E9, 0.0, 2025-05-19 23:11:37.920
40.0, 24134.832517484727, 20337.002913594595, 48446.02029872183, 32494.608461214124, 42775.31567517706, 8133.173958441492, 8425.691238128094, 2063.803620791867, 0.0, 0.0, 13263.391049312479, -17910.63164599319, 11235.08199871564, 2657.644767480465, -19791.419183185004, -33250.25388601469, 0.064, 0.0, 1.036, 192.0, 0.0, 0.0, 0.0, 0.0, 0.0, 0.0, 0.0, 0.0, 0.0, 1.747689097927639E9, 0.0, 2025-05-19 23:11:37.927
42.0, 24148.578840324742, 20351.375085279356, 48454.35749940366, 32506.18666484197, 42784.85987005948, 8120.1652431685025, 8473.479267773542, 2079.0028070214757, 0.0, 0.0, 13262.72049697882, -17913.559724516836, 11216.865326984564, 2641.842084150563, -19797.476505932395, -33271.53274673614, 0.064, 0.0, 1.036, 192.0, 0.0, 0.0, 0.0, 0.0, 0.0, 0.0, 0.0, 0.0, 0.0, 1.747689097935683E9, 0.0, 2025-05-19 23:11:37.935
44.0, 24141.515689076867, 20343.127291575347, 48450.78122029081, 32515.328528324193, 42781.88708804692, 8142.740505068363, 8451.328689018332, 2073.705443585568, 0.0, 0.0, 13277.00326168576, -17897.73468944248, 11248.358934922093, 2673.2462851102696, -19776.15294172203, -33238.92155157585, 0.064, 0.0, 1.036, 192.0, 0.0, 0.0, 0.0, 0.0, 0.0, 0.0, 0.0, 0.0, 0.0, 1.747689097943722E9, 0.0, 2025-05-19 23:11:37.943
46.0, 24145.740168778917, 20344.803672409496, 48452.65876682506, 32498.162388582517, 42785.12809099294, 8127.653077561031, 8464.940901391614, 2076.387652920205, 0.0, 0.0, 13261.982889411795, -17911.0786808823, 11227.370646878559, 2645.8877498969737, -19800.78456411178, -33261.832089642536, 0.064, 0.0, 1.036, 192.0, 0.0, 0.0, 0.0, 0.0, 0.0, 0.0, 0.0, 0.0, 0.0, 1.747689097951759E9, 0.0, 2025-05-19 23:11:37.951
48.0, 24148.511785091378, 20351.732713190642, 48454.20103719247, 32518.703641736945, 42797.57801265455, 8136.7725892987955, 8503.274143132467, 2078.958103532565, 0.0, 0.0, 13270.633014516, -17904.753137201445, 11230.991629480319, 2671.3687385760236, -19771.347316664138, -33250.097423803505, 0.062, -0.006, 1.038, 192.0, 0.5, 120.0, 127.5, 104.0, 16.0, 56.0, 0.0, 0.0, 0.0, 1.747689097959769E9, 0.0, 2025-05-19 23:11:37.959
50.0, 24146.58953506822, 20345.049541598506, 48457.91142677205, 32507.036031131272, 42789.12905325044, 8150.585967372176, 8470.841761927815, 2090.670417627146, 0.0, 0.0, 13266.453238302856, -17908.754099458947, 11240.111141218084, 2672.8886571989847, -19779.43864815696, -33238.65333064238, 0.062, -0.006, 1.038, 192.0, 0.0, 0.0, 0.0, 0.0, 0.0, 0.0, 0.0, 0.0, 0.0, 1.747689097967806E9, 0.0, 2025-05-19 23:11:37.967
52.0, 24151.21634617047, 20353.587907980433, 48461.19713320698, 32514.277996334793, 42801.10958827849, 8138.091342221659, 8514.785291526949, 2103.5673741778583, 0.0, 0.0, 13269.090744148583, -17904.26139882343, 11227.258888156282, 2666.1160786290266, -19775.683555088468, -33250.72327264825, 0.062, -0.006, 1.038, 192.0, 0.0, 0.0, 0.0, 0.0, 0.0, 0.0, 0.0, 0.0, 0.0, 1.747689097976836E9, 0.0, 2025-05-19 23:11:37.976
54.0, 24138.229982641937, 20339.59571595141, 48449.842447023686, 32514.948548668453, 42798.74030336623, 8152.932900539983, 8474.485096274031, 2083.674321612635, 0.0, 0.0, 13267.660232503444, -17901.065099366322, 11244.17915870895, 2688.221953895325, -19762.272508415284, -33227.7456793482, 0.062, -0.006, 1.038, 192.0, 0.0, 0.0, 0.0, 0.0, 0.0, 0.0, 0.0, 0.0, 0.0, 1.747689097982857E9, 0.0, 2025-05-19 23:11:37.982
56.0, 24139.660494287076, 20335.482994971633, 48446.266167910835, 32496.038972859264, 42796.01339054268, 8136.459664876422, 8474.44039278512, 2087.608228636769, 0.0, 0.0, 13250.851720673052, -17918.857087952743, 11217.044140940206, 2650.8498371660517, -19796.783601854277, -33257.071168073555, 0.062, -0.006, 1.038, 192.0, 0.0, 0.0, 0.0, 0.0, 0.0, 0.0, 0.0, 0.0, 0.0, 1.747689097991888E9, 0.0, 2025-05-19 23:11:37.991
58.0, 24150.098758947704, 20352.336210290934, 48454.78218254831, 32521.788182471777, 42805.781102869645, 8158.18556048698, 8498.468518074575, 2090.7821763494226, 0.0, 0.0, 13263.279290590202, -17903.81436393432, 11226.968315478363, 2675.6602735114425, -19768.508645118316, -33241.60376091048, 0.064, -0.002, 1.03, 192.0, 1.0, 0.0, 127.5, 120.0, 16.0, 24.0, 0.0, 0.0, 0.0, 1.74768909799995E9, 0.0, 2025-05-19 23:11:37.999
60.0, 24133.513764561863, 20336.555878705487, 48441.6840602975, 32493.24500480235, 42795.9016318204, 8142.51698762381, 8444.734924404016, 2069.056280738864, 0.0, 0.0, 13257.400781798457, -17912.620951249715, 11233.405617881492, 2662.9644826608283, -19791.240369229363, -33244.66594990086, 0.064, -0.002, 1.03, 192.0, 0.0, 0.0, 0.0, 0.0, 0.0, 0.0, 0.0, 0.0, 0.0, 1.747689098007954E9, 0.0, 2025-05-19 23:11:38.007
62.0, 24146.947162979504, 20349.22931781165, 48447.22729292241, 32506.924272408996, 42813.87243436246, 8136.906699765528, 8497.887372718737, 2085.50716465797, 0.0, 0.0, 13254.00331664125, -17917.895962941166, 11212.640847282511, 2649.441677265367, -19794.615482642115, -33265.40836875539, 0.064, -0.002, 1.03, 192.0, 0.0, 0.0, 0.0, 0.0, 0.0, 0.0, 0.0, 0.0, 0.0, 1.747689098015941E9, 0.0, 2025-05-19 23:11:38.015
64.0, 24140.73337802093, 20343.93195437574, 48442.62283356462, 32514.166237612517, 42806.29519299212, 8158.744354098363, 8467.332538048333, 2081.170926233641, 0.0, 0.0, 13264.016898157228, -17905.44604127956, 11238.635926084033, 2679.996511935772, -19775.48238938837, -33233.043042784106, 0.064, -0.002, 1.03, 192.0, 0.0, 0.0, 0.0, 0.0, 0.0, 0.0, 0.0, 0.0, 0.0, 1.747689098024013E9, 0.0, 2025-05-19 23:11:38.024
66.0, 24141.58274431023, 20349.519890489566, 48444.29921439877, 32498.00592637133, 42800.34962896701, 8136.906699765528, 8481.39178531072, 2097.778272363934, 0.0, 0.0, 13248.61654622752, -17923.9309339441, 11212.439681582413, 2648.681717953887, -19803.8244013577, -33258.03229308513, 0.064, -0.002, 1.03, 192.0, 0.0, 0.0, 0.0, 0.0, 0.0, 0.0, 0.0, 0.0, 0.0, 1.747689098032024E9, 0.0, 2025-05-19 23:11:38.032
68.0, 24148.712950791472, 20354.59373648092, 48451.228255179914, 32524.96213018443, 42807.79275987062, 8161.784191344284, 8511.63369555875, 2110.9658015925647, 0.0, 0.0, 13266.00620341375, -17909.02232039241, 11224.55432707719, 2684.1092329155485, -19763.747723549335, -33234.58531315152, 0.06, -0.004, 1.03, 192.0, 0.5, 112.0, 127.5, 112.0, 16.0, 24.0, 0.0, 0.0, 0.0, 1.747689098039075E9, 0.0, 2025-05-19 23:11:38.039
70.0, 24136.486546574422, 20333.82896588194, 48442.3322608867, 32502.006888628828, 42787.117396249465, 8159.481961665388, 8466.863151414771, 2105.221403267551, 0.0, 0.0, 13255.255014330747, -17916.9795414185, 11228.197661423404, 2675.324997344613, -19782.7690580808, -33230.025557282635, 0.06, -0.004, 1.03, 192.0, 0.0, 0.0, 0.0, 0.0, 0.0, 0.0, 0.0, 0.0, 0.0, 1.747689098048093E9, 0.0, 2025-05-19 23:11:38.048
72.0, 24145.673113545552, 20345.02718985405, 48445.997946977375, 32510.254682332838, 42797.93564056583, 8163.28175822279, 8516.484024105552, 2115.2349847835285, 0.0, 0.0, 13249.264746816725, -17915.34786407326, 11207.611704780067, 2663.389165805479, -19783.95370053693, -33246.25292375719, 0.06, -0.004, 1.03, 192.0, 0.0, 0.0, 0.0, 0.0, 0.0, 0.0, 0.0, 0.0, 0.0, 1.747689098056121E9, 0.0, 2025-05-19 23:11:38.056
74.0, 24140.420453598555, 20339.774529907052, 48440.678231797014, 32515.66380449102, 42797.868585332464, 8182.727775898908, 8483.448145800608, 2100.728702632034, 0.0, 0.0, 13257.020802142717, -17907.480050024995, 11228.89056550152, 2684.95859920485, -19770.274432930284, -33224.214103724255, 0.06, -0.004, 1.03, 192.0, 0.0, 0.0, 0.0, 0.0, 0.0, 0.0, 0.0, 0.0, 0.0, 1.74768909806316E9, 0.0, 2025-05-19 23:11:38.063
76.0, 24147.237735657425, 20348.536413733535, 48440.0300312078, 32494.943737380952, 42801.64603014541, 8161.4265634329995, 8485.325692334854, 2098.5382316754144, 0.0, 0.0, 13245.979040381795, -17918.58886701928, 11211.79148099321, 2651.743906944264, -19798.68350013298, -33251.282066259635, 0.06, -0.004, 1.03, 192.0, 0.0, 0.0, 0.0, 0.0, 0.0, 0.0, 0.0, 0.0, 0.0, 1.747689098071199E9, 0.0, 2025-05-19 23:11:38.071
78.0, 24153.317410149266, 20351.620954468366, 48448.68015631201, 32521.743478982866, 42812.82190237306, 8169.964929814927, 8506.023407700468, 2092.637371139213, 0.0, 0.0, 13261.3793923115, -17909.8269831928, 11220.531013075235, 2673.805078721652, -19771.302613175227, -33242.251961499685, 0.064, -0.006, 1.032, 192.0, 1.0, 0.0, 127.5, 104.0, 16.0, 32.0, 0.0, 0.0, 0.0, 1.747689098080207E9, 0.0, 2025-05-19 23:11:38.080
80.0, 24138.609962297676, 20333.717207159665, 48441.0805631972, 32501.135170595073, 42800.34962896701, 8164.779325101295, 8454.43558149762, 2072.900780785177, 0.0, 0.0, 13261.982889411795, -17910.922218671112, 11232.578603336646, 2670.0723373976157, -19784.668956359503, -33236.172287007845, 0.064, -0.006, 1.032, 192.0, 0.0, 0.0, 0.0, 0.0, 0.0, 0.0, 0.0, 0.0, 0.0, 1.747689098088235E9, 0.0, 2025-05-19 23:11:38.088
82.0, 24155.5525845948, 20354.79490218102, 48452.65876682506, 32518.860103948133, 42820.42149548787, 8165.896912324061, 8506.626904800762, 2091.4303769386265, 0.0, 0.0, 13258.205444598849, -17911.123384371207, 11215.323056617148, 2655.1190203570154, -19788.178180238985, -33257.02646458465, 0.064, -0.006, 1.032, 192.0, 0.0, 0.0, 0.0, 0.0, 0.0, 0.0, 0.0, 0.0, 0.0, 1.747689098095259E9, 0.0, 2025-05-19 23:11:38.095
84.0, 24145.449596101, 20348.17878582225, 48452.6364150806, 32526.236179618383, 42817.35930649749, 8186.52757245631, 8485.01276791248, 2089.932810060121, 0.0, 0.0, 13270.4318488159, -17898.584055731782, 11246.168463965472, 2690.814756252141, -19760.394961881037, -33223.05181301258, 0.064, -0.006, 1.032, 192.0, 0.0, 0.0, 0.0, 0.0, 0.0, 0.0, 0.0, 0.0, 0.0, 1.747689098103274E9, 0.0, 2025-05-19 23:11:38.103
86.0, 24156.87133751766, 20352.470320757668, 48444.813304521245, 32497.33537403767, 42822.88018737795, 8160.756011099341, 8478.977796909547, 2082.6461413676907, 0.0, 0.0, 13255.992621897773, -17911.905695427144, 11224.50962358828, 2656.5271802577, -19791.419183185004, -33252.13143254894, 0.064, -0.006, 1.032, 192.0, 0.0, 0.0, 0.0, 0.0, 0.0, 0.0, 0.0, 0.0, 0.0, 1.747689098112313E9, 0.0, 2025-05-19 23:11:38.112
88.0, 24163.48745387643, 20356.448931270712, 48446.10970569965, 32519.754173726342, 42827.171722313375, 8173.652967650052, 8498.245000630022, 2083.6072663792693, 0.0, 0.0, 13257.378430054001, -17913.671483239115, 11221.045103197706, 2664.730270472797, -19777.918729533998, -33256.042987828616, 0.058, -0.004, 1.034, 192.0, 0.5, 104.0, 127.5, 112.0, 16.0, 40.0, 0.0, 0.0, 0.0, 1.747689098119337E9, 0.0, 2025-05-19 23:11:38.119
90.0, 24151.506918848387, 20348.35759977789, 48446.0873539552, 32511.640490489066, 42812.061943061584, 8174.971720572916, 8460.470552500552, 2081.9532372895765, 0.0, 0.0, 13261.222930100314, -17904.976654645998, 11241.161673207484, 2673.1792298769033, -19782.322023191693, -33234.920589318346, 0.058, -0.004, 1.034, 192.0, 0.0, 0.0, 0.0, 0.0, 0.0, 0.0, 0.0, 0.0, 0.0, 1.74768909812739E9, 0.0, 2025-05-19 23:11:38.127
92.0, 24188.297890221824, 20381.88521646085, 48459.45369713947, 32527.644339519065, 42825.96472811279, 8182.548961943265, 8515.366436882787, 2098.381769464227, 0.0, 0.0, 13267.257901103247, -17900.34984354375, 11230.455187613392, 2664.19382860587, -19780.086848746163, -33249.181002280835, 0.058, -0.004, 1.034, 192.0, 0.0, 0.0, 0.0, 0.0, 0.0, 0.0, 0.0, 0.0, 0.0, 1.747689098136392E9, 0.0, 2025-05-19 23:11:38.136
94.0, 24190.533064667354, 20390.043603187038, 48461.845333796184, 32538.842563491176, 42820.71206816579, 8205.370093032134, 8479.290721331921, 2090.5363071604143, 0.0, 0.0, 13285.608683301054, -17883.988366602465, 11262.731106606854, 2697.520279588733, -19755.745799034336, -33216.748621076185, 0.058, -0.004, 1.034, 192.0, 0.0, 0.0, 0.0, 0.0, 0.0, 0.0, 0.0, 0.0, 0.0, 1.747689098144431E9, 0.0, 2025-05-19 23:11:38.144
96.0, 24202.625358417674, 20406.13685919486, 48459.341938417194, 32522.995176672364, 42818.34278325353, 8190.282665524801, 8463.108058346279, 2093.0397025394086, 0.0, 0.0, 13274.365755840035, -17892.25851205093, 11247.420161654969, 2665.803154206652, -19785.317156948706, -33241.91668533286, 0.058, -0.004, 1.034, 192.0, 0.0, 0.0, 0.0, 0.0, 0.0, 0.0, 0.0, 0.0, 0.0, 1.747689098151531E9, 0.0, 2025-05-19 23:11:38.151
98.0, 24227.055815107324, 20434.27770546409, 48477.73742410391, 32564.480014381414, 42836.134771839956, 8219.094064127692, 8548.64818437674, 2116.7549034064896, 0.0, 0.0, 13295.130526439016, -17867.9174623391, 11268.18493225395, 2702.571773835632, -19746.112197174098, -33215.09459198649, 0.06, -0.006, 1.0350000000000001, 192.0, 0.5, 120.0, 127.5, 96.0, 16.0, 48.0, 0.0, 0.0, 0.0, 1.747689098159518E9, 0.0, 2025-05-19 23:11:38.159
100.0, 24229.872134908695, 20437.56341189902, 48474.988159535904, 32543.96111297144, 42819.23685303174, 8218.557622260765, 8506.313980378387, 2104.573202678347, 0.0, 0.0, 13293.565904327144, -17865.950508827034, 11282.065365560695, 2706.9080122599617, -19749.95669722041, -33201.30356565757, 0.06, -0.006, 1.0350000000000001, 192.0, 0.0, 0.0, 0.0, 0.0, 0.0, 0.0, 0.0, 0.0, 0.0, 1.747689098168506E9, 0.0, 2025-05-19 23:11:38.168
102.0, 24259.644658523164, 20472.186264060292, 48483.63828464011, 32557.81919453373, 42837.297062551625, 8216.791834448795, 8554.83961759086, 2116.933717362132, 0.0, 0.0, 13299.846744519085, -17864.564700670802, 11269.28016773226, 2697.542631333188, -19748.973220464377, -33220.05667925557, 0.06, -0.006, 1.0350000000000001, 192.0, 0.0, 0.0, 0.0, 0.0, 0.0, 0.0, 0.0, 0.0, 0.0, 1.747689098175566E9, 0.0, 2025-05-19 23:11:38.175
104.0, 24260.47167306801, 20480.501112997666, 48478.63149388212, 32563.11655796964, 42834.95012938382, 8239.3447446042, 8524.262431176, 2112.999810337998, 0.0, 0.0, 13310.575581857633, -17850.080770263765, 11296.504592478823, 2726.7340095918194, -19730.220106866374, -33188.630126551405, 0.06, -0.006, 1.0350000000000001, 192.0, 0.0, 0.0, 0.0, 0.0, 0.0, 0.0, 0.0, 0.0, 0.0, 1.747689098183605E9, 0.0, 2025-05-19 23:11:38.183
106.0, 24270.976992962005, 20490.358232302457, 48480.48668867191, 32547.67150255102, 42836.35828928451, 8226.894822942593, 8524.731817809561, 2122.164025564674, 0.0, 0.0, 13297.34334914009, -17862.128360525174, 11277.32679573617, 2692.3123231306463, -19758.360953135605, -33215.67573734233, 0.06, -0.006, 1.0350000000000001, 192.0, 0.0, 0.0, 0.0, 0.0, 0.0, 0.0, 0.0, 0.0, 0.0, 1.747689098191572E9, 0.0, 2025-05-19 23:11:38.191
108.0, 24290.244196682477, 20513.179363391326, 48491.88607834412, 32579.098055255185, 42856.78778371665, 8245.53617781832, 8554.481989679574, 2135.9103484046877, 0.0, 0.0, 13318.331637183624, -17840.134243981152, 11297.689234934955, 2722.9118612899615, -19724.18513586344, -33196.52029234413, 0.06, -0.005, 1.0325000000000002, 192.0, 0.5, 112.0, 127.5, 112.0, 16.0, 24.0, 0.0, 0.0, 0.0, 1.747689098200667E9, 0.0, 2025-05-19 23:11:38.200
110.0, 24284.00805997945, 20506.607950521466, 48481.76073810586, 32558.86972652313, 42840.158085841904, 8238.696544014996, 8496.881544218248, 2118.967726107565, 0.0, 0.0, 13310.799099302185, -17844.515185894394, 11305.244124560848, 2716.385151909012, -19742.692380272434, -33191.938184730796, 0.06, -0.005, 1.0325000000000002, 192.0, 0.0, 0.0, 0.0, 0.0, 0.0, 0.0, 0.0, 0.0, 0.0, 1.747689098207693E9, 0.0, 2025-05-19 23:11:38.207
112.0, 24301.62123461023, 20524.198773407792, 48492.66838940005, 32570.604392362166, 42854.95494067132, 8233.890918957106, 8546.07773376438, 2130.7470954355117, 0.0, 0.0, 13314.330674926125, -17841.654162604114, 11291.900133121031, 2706.5503843486767, -19739.71959825988, -33208.29966167208, 0.06, -0.005, 1.0325000000000002, 192.0, 0.0, 0.0, 0.0, 0.0, 0.0, 0.0, 0.0, 0.0, 0.0, 1.747689098215712E9, 0.0, 2025-05-19 23:11:38.215
114.0, 24286.66791756963, 20510.3406918455, 48486.90163933059, 32569.12917722812, 42852.16097261441, 8253.560454077775, 8516.841652016838, 2111.189319037118, 0.0, 0.0, 13325.21597447586, -17833.875755533667, 11316.24118283286, 2729.997364282294, -19722.776975962755, -33183.77979800461, 0.06, -0.005, 1.0325000000000002, 192.0, 0.0, 0.0, 0.0, 0.0, 0.0, 0.0, 0.0, 0.0, 0.0, 1.747689098223753E9, 0.0, 2025-05-19 23:11:38.223
116.0, 24283.42691462361, 20502.78580221961, 48483.459470684465, 32549.571400829722, 42846.394222544935, 8226.716008986952, 8521.244945674533, 2105.9813625790316, 0.0, 0.0, 13306.664026577953, -17852.762979598403, 11288.212095285904, 2689.384244607001, -19759.67970605847, -33217.59798736549, 0.06, -0.005, 1.0325000000000002, 192.0, 0.0, 0.0, 0.0, 0.0, 0.0, 0.0, 0.0, 0.0, 0.0, 1.747689098231769E9, 0.0, 2025-05-19 23:11:38.231
118.0, 24290.93710076059, 20518.946113460795, 48488.82388935374, 32578.516909899347, 42853.18915285935, 8245.357363862679, 8545.720105853094, 2118.341877262816, 0.0, 0.0, 13320.119776740048, -17837.63084860216, 11299.790298913753, 2719.4026374104783, -19728.0072841653, -33198.57665283402, 0.057999999999999996, -0.0025, 1.0332500000000002, 192.0, 0.5, 96.0, 0.0, 0.0, 16.0, 40.0, 0.0, 0.0, 0.0, 1.747689098239819E9, 0.0, 2025-05-19 23:11:38.239
120.0, 24278.062495954335, 20505.132735387415, 48481.6936828725, 32557.43921487799, 42842.10268760952, 8243.211596394967, 8495.428680828652, 2115.8608336282773, 0.0, 0.0, 13309.860326035063, -17846.079808006263, 11301.824307659186, 2712.920631518439, -19745.821624496177, -33192.85460625346, 0.057999999999999996, -0.0025, 1.0332500000000002, 192.0, 0.0, 0.0, 0.0, 0.0, 0.0, 0.0, 0.0, 0.0, 0.0, 1.747689098247787E9, 0.0, 2025-05-19 23:11:38.247
122.0, 24287.785504792395, 20515.883924470418, 48493.62951441163, 32572.370180174137, 42857.32422558359, 8235.634355024618, 8560.136981026768, 2128.4895692455257, 0.0, 0.0, 13310.329712668625, -17845.833938817257, 11285.127554551073, 2707.5338611047105, -19739.76430174879, -33206.533873860106, 0.057999999999999996, -0.0025, 1.0332500000000002, 192.0, 0.0, 0.0, 0.0, 0.0, 0.0, 0.0, 0.0, 0.0, 0.0, 1.747689098255868E9, 0.0, 2025-05-19 23:11:38.255
124.0, 24278.218958165522, 20505.043328409593, 48486.58871490821, 32572.370180174137, 42855.424327304885, 8251.01235520987, 8519.367399140287, 2114.475025472048, 0.0, 0.0, 13320.298590695691, -17837.094406735232, 11310.519136252302, 2732.25489047228, -19724.14043237453, -33182.684562526294, 0.057999999999999996, -0.0025, 1.0332500000000002, 192.0, 0.0, 0.0, 0.0, 0.0, 0.0, 0.0, 0.0, 0.0, 0.0, 1.747689098262876E9, 0.0, 2025-05-19 23:11:38.262
126.0, 24277.771923276418, 20500.371813818434, 48478.9444183045, 32544.67636879401, 42851.24455109174, 8227.990058420904, 8513.332428137353, 2110.384656236727, 0.0, 0.0, 13303.803003287674, -17859.02146804589, 11283.987615583852, 2691.0829771856042, -19761.065514214697, -33217.62033910994, 0.057999999999999996, -0.0025, 1.0332500000000002, 192.0, 0.0, 0.0, 0.0, 0.0, 0.0, 0.0, 0.0, 0.0, 0.0, 1.747689098271916E9, 0.0, 2025-05-19 23:11:38.271
128.0, 24288.165484448135, 20515.995683192694, 48484.30883697377, 32572.079607496216, 42864.83441172056, 8250.610023809675, 8545.02720177498, 2115.614964439269, 0.0, 0.0, 13312.006093502772, -17851.041895275343, 11287.675653418977, 2709.612573339054, -19738.37849359256, -33207.517350616145, 0.056999999999999995, -0.00425, 1.0336250000000002, 192.0, 0.5, 96.0, 127.5, 104.0, 16.0, 40.0, 0.0, 0.0, 0.0, 1.747689098279947E9, 0.0, 2025-05-19 23:11:38.279
130.0, 24279.761228532938, 20501.4894010412, 48471.54599088979, 32545.413976361036, 42854.26203659321, 8248.955994719981, 8500.234305886544, 2102.7850631219226, 0.0, 0.0, 13300.338482897101, -17854.461712177006, 11291.900133121031, 2703.801119780674, -19753.24240365534, -33202.57761509152, 0.056999999999999995, -0.00425, 1.0336250000000002, 192.0, 0.0, 0.0, 0.0, 0.0, 0.0, 0.0, 0.0, 0.0, 0.0, 1.747689098287927E9, 0.0, 2025-05-19 23:11:38.287
132.0, 24294.312214173344, 20517.470898326745, 48479.5926188937, 32557.238049177893, 42870.69056876786, 8241.021125438348, 8546.50241690903, 2109.602345180791, 0.0, 0.0, 13295.063471205649, -17861.390752958152, 11271.157714266505, 2690.0100934517495, -19753.7117902889, -33226.00224328068, 0.056999999999999995, -0.00425, 1.0336250000000002, 192.0, 0.0, 0.0, 0.0, 0.0, 0.0, 0.0, 0.0, 0.0, 0.0, 1.747689098295007E9, 0.0, 2025-05-19 23:11:38.295
134.0, 24288.411353637144, 20509.826601723027, 48480.33022646073, 32562.244839935884, 42868.075414666586, 8254.990965722915, 8512.214840914588, 2098.828804353333, 0.0, 0.0, 13317.236401705313, -17846.81741557329, 11304.126537338083, 2720.162596721959, -19733.885792957044, -33195.38035337691, 0.056999999999999995, -0.00425, 1.0336250000000002, 192.0, 0.0, 0.0, 0.0, 0.0, 0.0, 0.0, 0.0, 0.0, 0.0, 1.747689098304036E9, 0.0, 2025-05-19 23:11:38.304
136.0, 24288.500760614963, 20506.518543543643, 48473.4905926574, 32541.211848403436, 42862.398071574935, 8239.255337626379, 8519.568564840385, 2102.1145107882635, 0.0, 0.0, 13302.238381175803, -17866.308136738317, 11278.779659125765, 2681.1364509029927, -19768.57570035168, -33226.449278169785, 0.056999999999999995, -0.00425, 1.0336250000000002, 192.0, 0.0, 0.0, 0.0, 0.0, 0.0, 0.0, 0.0, 0.0, 0.0, 1.747689098312067E9, 0.0, 2025-05-19 23:11:38.312
138.0, 24301.598882865776, 20519.706072772275, 48480.441985183, 32569.06212199475, 42876.9714089598, 8260.891826259116, 8551.486855922563, 2109.803510880889, 0.0, 0.0, 13311.53670686921, -17851.95831679801, 11287.988577841352, 2708.718503560842, -19735.785691235746, -33208.47847562772, 0.057499999999999996, -0.007125, 1.0328125000000001, 192.0, 0.5, 104.0, 127.5, 88.0, 16.0, 32.0, 0.0, 0.0, 0.0, 1.7476890983191E9, 0.0, 2025-05-19 23:11:38.319
140.0, 24286.556158847354, 20507.457316810767, 48475.88222931412, 32548.140889184582, 42866.95782744382, 8250.542968576308, 8504.414082099687, 2099.6334671537243, 0.0, 0.0, 13309.569753357144, -17858.127398267676, 11296.124612823083, 2702.258849413258, -19750.940173976443, -33204.67867907032, 0.057499999999999996, -0.007125, 1.0328125000000001, 192.0, 0.0, 0.0, 0.0, 0.0, 0.0, 0.0, 0.0, 0.0, 0.0, 1.747689098328133E9, 0.0, 2025-05-19 23:11:38.328
142.0, 24297.866141541737, 20519.63901753891, 48481.93955206151, 32562.021322491328, 42880.502984583734, 8243.01043069487, 8559.689946137662, 2120.554699963892, 0.0, 0.0, 13308.20629694537, -17853.947622054533, 11280.165467281993, 2692.3346748751014, -19749.57671756467, -33219.72140308874, 0.057499999999999996, -0.007125, 1.0328125000000001, 192.0, 0.0, 0.0, 0.0, 0.0, 0.0, 0.0, 0.0, 0.0, 0.0, 1.747689098336181E9, 0.0, 2025-05-19 23:11:38.336
144.0, 24288.411353637144, 20506.652654010377, 48472.95415079047, 32560.30023816827, 42870.46705132331, 8263.551683849297, 8523.033085230958, 2108.3729992357494, 0.0, 0.0, 13314.867116793052, -17845.47631090597, 11302.181935570472, 2717.480387387322, -19735.115138902085, -33193.592213820484, 0.057499999999999996, -0.007125, 1.0328125000000001, 192.0, 0.0, 0.0, 0.0, 0.0, 0.0, 0.0, 0.0, 0.0, 0.0, 1.747689098343211E9, 0.0, 2025-05-19 23:11:38.343
146.0, 24286.064420469334, 20505.088031898504, 48466.67331059853, 32538.417880346526, 42867.784841988665, 8240.864663227161, 8518.562736339896, 2114.743246405512, 0.0, 0.0, 13293.007110715762, -17868.588014672758, 11272.185894511449, 2678.3424828460793, -19770.20737769692, -33226.315167703055, 0.057499999999999996, -0.007125, 1.0328125000000001, 192.0, 0.0, 0.0, 0.0, 0.0, 0.0, 0.0, 0.0, 0.0, 0.0, 1.747689098351254E9, 0.0, 2025-05-19 23:11:38.351
148.0, 24292.00998449445, 20511.547686046088, 48467.74619433239, 32563.407130647556, 42875.42913859238, 8256.15325643459, 8550.190454744155, 2117.7607319069784, 0.0, 0.0, 13299.511468352255, -17858.753247112425, 11277.863237603098, 2701.6777040574198, -19742.71473201689, -33211.51831287364, 0.05875, -0.0055625, 1.03140625, 192.0, 0.5, 112.0, 127.5, 112.0, 16.0, 24.0, 0.0, 0.0, 0.0, 1.747689098360275E9, 0.0, 2025-05-19 23:11:38.360
150.0, 24274.1285889302, 20496.10263062747, 48461.8900372851, 32540.206019902947, 42863.023920419684, 8250.721782531951, 8501.754224509505, 2106.584859679325, 0.0, 0.0, 13293.878828749517, -17863.670630892593, 11284.255836517315, 2691.0159219522384, -19763.01011598231, -33210.378373906424, 0.05875, -0.0055625, 1.03140625, 192.0, 0.0, 0.0, 0.0, 0.0, 0.0, 0.0, 0.0, 0.0, 0.0, 1.747689098367238E9, 0.0, 2025-05-19 23:11:38.367
152.0, 24281.57171983382, 20500.572979518533, 48466.047461753784, 32551.225429919417, 42881.084129939576, 8243.3457068617, 8552.783257100971, 2124.488606988026, 0.0, 0.0, 13293.431793860413, -17865.503473937926, 11266.665013630989, 2676.4649363118338, -19765.826435783678, -33230.2937782161, 0.05875, -0.0055625, 1.03140625, 192.0, 0.0, 0.0, 0.0, 0.0, 0.0, 0.0, 0.0, 0.0, 0.0, 1.747689098375344E9, 0.0, 2025-05-19 23:11:38.375
154.0, 24272.407504607145, 20490.782915447107, 48460.12424947313, 32548.58792407369, 42876.032635692674, 8255.415648867565, 8539.014582516502, 2102.025103810442, 0.0, 0.0, 13296.62809331752, -17860.653145391127, 11285.70869990691, 2699.800157523174, -19749.554365820215, -33210.24426343969, 0.05875, -0.0055625, 1.03140625, 192.0, 0.0, 0.0, 0.0, 0.0, 0.0, 0.0, 0.0, 0.0, 0.0, 1.747689098383387E9, 0.0, 2025-05-19 23:11:38.383
156.0, 24281.437609367087, 20501.981139419215, 48464.48283964191, 32530.86299072063, 42880.21241190582, 8240.596442293698, 8549.899882066236, 2114.095045816308, 0.0, 0.0, 13290.68252929241, -17873.974785086488, 11268.743725865332, 2673.6262647660096, -19769.15684570752, -33233.22185673974, 0.05875, -0.0055625, 1.03140625, 192.0, 0.0, 0.0, 0.0, 0.0, 0.0, 0.0, 0.0, 0.0, 0.0, 1.747689098392423E9, 0.0, 2025-05-19 23:11:38.392
158.0, 24281.10233320026, 20497.309624828056, 48462.5382378743, 32546.24099090588, 42890.91889749991, 8251.39233486561, 8557.767696114504, 2111.8151678818667, 0.0, 0.0, 13296.516334595244, -17872.052535063332, 11269.74955436582, 2693.1840411644034, -19745.24047914034, -33227.45510667028, 0.059375, -0.00578125, 1.030703125, 192.0, 0.5, 112.0, 127.5, 104.0, 16.0, 24.0, 0.0, 0.0, 0.0, 1.74768909839941E9, 0.0, 2025-05-19 23:11:38.399
160.0, 24271.021696450913, 20484.412668277346, 48458.62668259462, 32527.934912196986, 42879.63126654998, 8246.743172018907, 8522.45193987512, 2106.6519149126907, 0.0, 0.0, 13288.402651357968, -17879.070982822297, 11274.733993379354, 2686.567924805632, -19761.7137148039, -33223.49884790168, 0.059375, -0.00578125, 1.030703125, 192.0, 0.0, 0.0, 0.0, 0.0, 0.0, 0.0, 0.0, 0.0, 0.0, 1.747689098407443E9, 0.0, 2025-05-19 23:11:38.407
162.0, 24288.165484448135, 20508.28433135561, 48465.30985418676, 32542.44119434848, 42889.8236620216, 8241.222291138445, 8570.910521854224, 2119.280650529939, 0.0, 0.0, 13288.045023446683, -17877.506360710428, 11258.730144349354, 2680.3094363581463, -19758.360953135605, -33235.7923073521, 0.059375, -0.00578125, 1.030703125, 192.0, 0.0, 0.0, 0.0, 0.0, 0.0, 0.0, 0.0, 0.0, 0.0, 1.747689098416455E9, 0.0, 2025-05-19 23:11:38.416
164.0, 24283.918653001627, 20504.752755731675, 48466.762717576355, 32552.767700286833, 42889.84601376605, 8284.048233514814, 8531.996134757535, 2109.4682347140592, 0.0, 0.0, 13302.886581765008, -17862.508340180917, 11287.921522607985, 2712.4288931404226, -19738.445548825926, -33202.197635435776, 0.059375, -0.00578125, 1.030703125, 192.0, 0.0, 0.0, 0.0, 0.0, 0.0, 0.0, 0.0, 0.0, 0.0, 1.747689098423541E9, 0.0, 2025-05-19 23:11:38.423
166.0, 24283.09163845678, 20500.81884870754, 48464.28167394181, 32534.57338030021, 42879.452452594334, 8250.990003465415, 8536.622945859785, 2115.7490749060007, 0.0, 0.0, 13292.001282215273, -17871.270224007396, 11271.917673577986, 2676.107308400549, -19770.363839908106, -33230.18201949383, 0.059375, -0.00578125, 1.030703125, 192.0, 0.0, 0.0, 0.0, 0.0, 0.0, 0.0, 0.0, 0.0, 0.0, 1.747689098431484E9, 0.0, 2025-05-19 23:11:38.431
168.0, 24293.86517928424, 20515.839220981507, 48473.13296474612, 32563.228316691915, 42893.75756904573, 8273.453506642998, 8565.680213651684, 2125.472083744059, 0.0, 0.0, 13308.116889967549, -17853.120607509685, 11285.932217351463, 2703.9128785029507, -19737.260906369796, -33212.16651346284, 0.0606875, -0.004890625, 1.0323515625000002, 192.0, 0.5, 120.0, 127.5, 112.0, 16.0, 40.0, 0.0, 0.0, 0.0, 1.747689098439488E9, 0.0, 2025-05-19 23:11:38.439
170.0, 24279.71652504403, 20494.359194559955, 48464.527543130826, 32539.356653613646, 42883.9228014854, 8271.866532786671, 8517.02046597248, 2119.995906352509, 0.0, 0.0, 13300.494945108288, -17860.653145391127, 11290.290807520249, 2696.7603202772525, -19753.890604244545, -33208.344365160985, 0.0606875, -0.004890625, 1.0323515625000002, 192.0, 0.0, 0.0, 0.0, 0.0, 0.0, 0.0, 0.0, 0.0, 0.0, 1.747689098448508E9, 0.0, 2025-05-19 23:11:38.448
172.0, 24289.216016437535, 20505.91504644335, 48467.76854607684, 32551.426595619512, 42901.37951390499, 8268.580826351741, 8567.110725296823, 2128.668383201168, 0.0, 0.0, 13295.331692139112, -17864.63175590417, 11268.900188076519, 2684.064529426638, -19755.119950189586, -33227.1421822479, 0.0606875, -0.004890625, 1.0323515625000002, 192.0, 0.0, 0.0, 0.0, 0.0, 0.0, 0.0, 0.0, 0.0, 0.0, 1.747689098455536E9, 0.0, 2025-05-19 23:11:38.455
174.0, 24281.95169948956, 20497.86841843944, 48464.21461870845, 32553.25943866485, 42896.126853958, 8285.746966093417, 8534.007791758513, 2111.6810574151345, 0.0, 0.0, 13301.098442208582, -17859.937889568555, 11291.43074648747, 2708.9196692609394, -19739.607839537603, -33201.66119356885, 0.0606875, -0.004890625, 1.0323515625000002, 192.0, 0.0, 0.0, 0.0, 0.0, 0.0, 0.0, 0.0, 0.0, 0.0, 1.747689098465581E9, 0.0, 2025-05-19 23:11:38.465
176.0, 24285.505626857954, 20500.14829637388, 48462.78410706331, 32536.182705900996, 42894.51752835722, 8258.63430006913, 8537.651126104729, 2113.2456795270064, 0.0, 0.0, 13287.508581579756, -17877.014622332408, 11269.570740410178, 2674.609741522043, -19768.8662730296, -33230.53964740511, 0.0606875, -0.004890625, 1.0323515625000002, 192.0, 0.0, 0.0, 0.0, 0.0, 0.0, 0.0, 0.0, 0.0, 0.0, 1.747689098472628E9, 0.0, 2025-05-19 23:11:38.472
178.0, 24289.171312948623, 20502.67404349733, 48469.333168188714, 32563.5859446032, 42908.80029306415, 8270.480724630443, 8555.55487341343, 2108.9094411026767, 0.0, 0.0, 13305.188811443903, -17854.193491243543, 11284.524057450779, 2703.5552505916658, -19738.08792091464, -33211.96534776275, 0.06334375, -0.0034453125, 1.03217578125, 192.0, 1.0, 8.0, 127.5, 120.0, 16.0, 32.0, 0.0, 0.0, 0.0, 1.747689098479655E9, 0.0, 2025-05-19 23:11:38.479
180.0, 24283.225748923513, 20500.10359288497, 48465.80159256478, 32542.172973415018, 42895.09867371305, 8274.906370032593, 8523.2118991866, 2108.507109702481, 0.0, 0.0, 13300.807869530663, -17859.58026165727, 11290.961359853907, 2694.614552809543, -19756.684572301456, -33212.054754740566, 0.06334375, -0.0034453125, 1.03217578125, 192.0, 0.0, 0.0, 0.0, 0.0, 0.0, 0.0, 0.0, 0.0, 0.0, 1.747689098487676E9, 0.0, 2025-05-19 23:11:38.487
182.0, 24318.92148481864, 20532.06658745606, 48472.93179904602, 32550.666636308033, 42915.751685589756, 8258.969576235959, 8570.798763131948, 2115.5255574614475, 0.0, 0.0, 13305.144107954993, -17859.222633745987, 11278.667900403489, 2682.8798869705065, -19757.891566502043, -33230.67375787184, 0.06334375, -0.0034453125, 1.03217578125, 192.0, 0.0, 0.0, 0.0, 0.0, 0.0, 0.0, 0.0, 0.0, 0.0, 1.74768909849568E9, 0.0, 2025-05-19 23:11:38.495
184.0, 24274.977955219503, 20480.925796142317, 48466.270979198336, 32548.54322058478, 42908.64383085297, 8265.697451317006, 8533.471349891586, 2091.832708338822, 0.0, 0.0, 13312.520183625244, -17856.316906966797, 11297.041034345752, 2710.5960500950873, -19738.400845337015, -33206.84679828248, 0.06334375, -0.0034453125, 1.03217578125, 192.0, 0.0, 0.0, 0.0, 0.0, 0.0, 0.0, 0.0, 0.0, 0.0, 1.747689098503782E9, 0.0, 2025-05-19 23:11:38.503
186.0, 24259.84582422326, 20452.80730161754, 48463.342900674696, 32525.610330773634, 42905.51458662922, 8244.128017917636, 8538.07580924938, 2106.026066067942, 0.0, 0.0, 13288.737927524797, -17882.222578790497, 11262.395830440026, 2672.7321949877974, -19771.414371897506, -33239.189772509315, 0.06334375, -0.0034453125, 1.03217578125, 192.0, 0.0, 0.0, 0.0, 0.0, 0.0, 0.0, 0.0, 0.0, 0.0, 1.747689098512892E9, 0.0, 2025-05-19 23:11:38.512
188.0, 24247.708826984028, 20435.819975831506, 48467.63443561011, 32549.705511296455, 42920.06557226963, 8258.142561691113, 8560.69577463815, 2106.920135846154, 0.0, 0.0, 13300.87492476403, -17872.030183318875, 11269.637795643544, 2702.214145924347, -19739.876060471066, -33220.25784495567, 0.062671875, -0.0037226562500000003, 1.031087890625, 192.0, 0.5, 120.0, 127.5, 112.0, 16.0, 24.0, 0.0, 0.0, 0.0, 1.747689098519833E9, 0.0, 2025-05-19 23:11:38.519
190.0, 24193.282329235357, 20379.448876315222, 48451.40706913556, 32515.507342279834, 42898.138510958976, 8238.24950912589, 8505.554021066908, 2087.8764495702326, 0.0, 0.0, 13282.4347355884, -17892.16910507311, 11263.200493240416, 2683.617494537532, -19767.458113128916, -33228.058603770565, 0.062671875, -0.0037226562500000003, 1.031087890625, 192.0, 0.0, 0.0, 0.0, 0.0, 0.0, 0.0, 0.0, 0.0, 0.0, 1.747689098526886E9, 0.0, 2025-05-19 23:11:38.526
192.0, 24172.204634214002, 20352.403265524303, 48447.00377547786, 32515.708507979933, 42908.80029306415, 8228.571203776743, 8556.560701913917, 2104.349685233794, 0.0, 0.0, 13267.749639481264, -17910.45283203755, 11230.432835868936, 2669.4464885528673, -19769.62623234108, -33248.91278134737, 0.062671875, -0.0037226562500000003, 1.031087890625, 192.0, 0.0, 0.0, 0.0, 0.0, 0.0, 0.0, 0.0, 0.0, 0.0, 1.747689098535901E9, 0.0, 2025-05-19 23:11:38.535
194.0, 24128.97636043744, 20315.589942406412, 48439.20301666296, 32514.657975990533, 42905.22401395131, 8236.05903816927, 8516.886355505749, 2087.742339103501, 0.0, 0.0, 13263.927491179407, -17922.411015321137, 11236.758379549789, 2686.2773521277136, -19761.601956081624, -33231.90310381688, 0.062671875, -0.0037226562500000003, 1.031087890625, 192.0, 0.0, 0.0, 0.0, 0.0, 0.0, 0.0, 0.0, 0.0, 0.0, 1.747689098543943E9, 0.0, 2025-05-19 23:11:38.543
196.0, 24097.28158679981, 20255.508453310544, 48433.92800497151, 32493.155597824527, 42905.15695871794, 8207.046473866281, 8516.238154916544, 2087.451766425582, 0.0, 0.0, 13248.124807849505, -17933.519832315425, 11212.283219371226, 2650.4922092547667, -19791.95562505193, -33259.37339775245, 0.062671875, -0.0037226562500000003, 1.031087890625, 192.0, 0.0, 0.0, 0.0, 0.0, 0.0, 0.0, 0.0, 0.0, 0.0, 1.747689098550914E9, 0.0, 2025-05-19 23:11:38.550
198.0, 24077.76851389033, 20224.081900606383, 48428.89886246906, 32507.125438109095, 42916.7798658347, 8211.606229735164, 8543.149655240733, 2077.549943631881, 0.0, 0.0, 13253.489226518777, -17929.720035758022, 11213.780786249732, 2670.00528216425, -19769.894453274545, -33253.13726104942, 0.0633359375, -0.004861328125, 1.0315439453125, 192.0, 1.0, 0.0, 127.5, 104.0, 16.0, 32.0, 0.0, 0.0, 0.0, 1.747689098559017E9, 0.0, 2025-05-19 23:11:38.559
200.0, 24048.398321676057, 20194.130563036273, 48422.81918797722, 32486.114798321105, 42906.76628431872, 8201.659703452553, 8497.68620701864, 2071.403213906671, 0.0, 0.0, 13244.056790358638, -17939.040713195885, 11215.479518828335, 2659.2764448257026, -19788.893436061553, -33253.91957210536, 0.0633359375, -0.004861328125, 1.0315439453125, 192.0, 0.0, 0.0, 0.0, 0.0, 0.0, 0.0, 0.0, 0.0, 0.0, 1.747689098567967E9, 0.0, 2025-05-19 23:11:38.567
202.0, 24075.131008044602, 20213.53187722348, 48427.42364733502, 32496.57541472619, 42919.75264784726, 8193.344854515179, 8545.228367475078, 2084.769557090945, 0.0, 0.0, 13236.636011199476, -17946.59560282178, 11190.177344104928, 2643.0937818400603, -19793.63200588608, -33274.23730781523, 0.0633359375, -0.004861328125, 1.0315439453125, 192.0, 0.0, 0.0, 0.0, 0.0, 0.0, 0.0, 0.0, 0.0, 0.0, 1.74768909857608E9, 0.0, 2025-05-19 23:11:38.576
204.0, 24065.385647462088, 20214.76122316852, 48429.61411829163, 32504.040897374263, 42918.83622632459, 8210.063959367748, 8514.025332215468, 2070.352681917272, 0.0, 0.0, 13254.025668385706, -17930.30118111386, 11222.095635187106, 2677.0460816676714, -19769.53682536326, -33242.98956906671, 0.0633359375, -0.004861328125, 1.0315439453125, 192.0, 0.0, 0.0, 0.0, 0.0, 0.0, 0.0, 0.0, 0.0, 0.0, 1.747689098583097E9, 0.0, 2025-05-19 23:11:38.583
206.0, 24075.890967356085, 20234.989551900573, 48426.7307432569, 32486.89710937704, 42918.27743271321, 8202.82199416423, 8509.934962980147, 2078.7792895769226, 0.0, 0.0, 13239.251165300748, -17949.344867389784, 11197.799288964188, 2641.350345772546, -19801.857447845632, -33270.7504356802, 0.0633359375, -0.004861328125, 1.0315439453125, 192.0, 0.0, 0.0, 0.0, 0.0, 0.0, 0.0, 0.0, 0.0, 0.0, 1.747689098591119E9, 0.0, 2025-05-19 23:11:38.591
208.0, 24108.748031705385, 20255.799025988465, 48437.90661548455, 32515.641452746568, 42926.34641246157, 8212.366189046645, 8555.666632135706, 2083.6966733570903, 0.0, 0.0, 13255.255014330747, -17933.564535804337, 11214.607800794578, 2672.486325798789, -19769.82739804118, -33250.70092090379, 0.06366796875, -0.0054306640625, 1.03277197265625, 192.0, 1.0, 0.0, 127.5, 104.0, 16.0, 40.0, 0.0, 0.0, 0.0, 1.747689098602027E9, 0.0, 2025-05-19 23:11:38.602
210.0, 24112.97251140744, 20254.323810854414, 48422.998001932865, 32486.65124018803, 42913.784732077685, 8201.86086915265, 8498.82614598586, 2069.0786324833193, 0.0, 0.0, 13251.142293350971, -17942.013495208445, 11221.358027620081, 2662.517447771722, -19787.842904072157, -33250.70092090379, 0.06366796875, -0.0054306640625, 1.03277197265625, 192.0, 0.0, 0.0, 0.0, 0.0, 0.0, 0.0, 0.0, 0.0, 0.0, 1.747689098607151E9, 0.0, 2025-05-19 23:11:38.607
212.0, 24139.07934893124, 20281.97291874563, 48430.68700202549, 32501.135170595073, 42927.553406662155, 8197.502278983866, 8543.2167104741, 2079.9415802885987, 0.0, 0.0, 13246.426075270901, -17943.35459987576, 11202.895486699997, 2645.6195289635098, -19792.648529130045, -33272.89620314792, 0.06366796875, -0.0054306640625, 1.03277197265625, 192.0, 0.0, 0.0, 0.0, 0.0, 0.0, 0.0, 0.0, 0.0, 0.0, 1.747689098615164E9, 0.0, 2025-05-19 23:11:38.615
214.0, 24152.06571245977, 20301.083660254917, 48430.64229853658, 32509.829999188187, 42930.861464841546, 8224.033799652314, 8509.39852111322, 2070.6656063396463, 0.0, 0.0, 13264.933319679896, -17925.719073500524, 11237.160710949984, 2676.487288056289, -19772.464903886903, -33242.319016733054, 0.06366796875, -0.0054306640625, 1.03277197265625, 192.0, 0.0, 0.0, 0.0, 0.0, 0.0, 0.0, 0.0, 0.0, 0.0, 1.747689098624197E9, 0.0, 2025-05-19 23:11:38.624
216.0, 24152.64685781561, 20301.463639910657, 48414.68315299549, 32477.84465287264, 42921.71960135932, 8195.736491171896, 8496.568619795873, 2060.02617597892, 0.0, 0.0, 13243.274479302703, -17946.617954566234, 11208.796347236199, 2633.169607301904, -19812.318064250718, -33277.92534565036, 0.06366796875, -0.0054306640625, 1.03277197265625, 192.0, 0.0, 0.0, 0.0, 0.0, 0.0, 0.0, 0.0, 0.0, 0.0, 1.747689098632264E9, 0.0, 2025-05-19 23:11:38.632
218.0, 24171.578785369253, 20323.793032621506, 48426.59663279017, 32504.19735958545, 42939.01985156773, 8213.461424524954, 8550.995117544546, 2065.323539414828, 0.0, 0.0, 13256.104380620049, -17937.8337189953, 11214.898373472497, 2656.5048285132443, -19783.886645303566, -33268.22468855676, 0.06366796875, -0.0054306640625, 1.03277197265625, 192.0, 0.0, 0.0, 0.0, 0.0, 0.0, 0.0, 0.0, 0.0, 0.0, 1.747689098639317E9, 0.0, 2025-05-19 23:11:38.639
220.0, 24168.27072718987, 20318.875648841342, 48421.2769176098, 32483.790216897753, 42933.54367417618, 8216.009523392859, 8505.285800133444, 2066.418774893138, 0.0, 0.0, 13254.427999785901, -17940.493576585483, 11225.806024766687, 2653.2191220783143, -19795.084869275674, -33261.92149662036, 0.064, -0.006, 1.03, 192.0, 1.0, 0.0, 127.5, 104.0, 16.0, 24.0, 0.0, 0.0, 0.0, 1.747689098647337E9, 0.0, 2025-05-19 23:11:38.647
222.0, 24189.01314604439, 20336.22060253866, 48421.85806296564, 32490.38398151207, 42946.46298247135, 8214.087273369703, 8547.508245409519, 2072.5431528738923, 0.0, 0.0, 13250.807017184141, -17941.812329508346, 11207.723463502343, 2638.8022469046414, -19796.53773266527, -33280.18287184034, 0.064, -0.006, 1.03, 192.0, 0.0, 0.0, 0.0, 0.0, 0.0, 0.0, 0.0, 0.0, 0.0, 1.747689098656359E9, 0.0, 2025-05-19 23:11:38.656
224.0, 24174.663326104084, 20324.865916355364, 48414.21376636193, 32486.830054143677, 42942.35026149157, 8219.876375183627, 8512.885393248247, 2059.020347478431, 0.0, 0.0, 13256.819636442619, -17938.817195751333, 11226.208356166882, 2658.3376715585796, -19785.58537788217, -33260.91566811987, 0.064, -0.006, 1.03, 192.0, 0.0, 0.0, 0.0, 0.0, 0.0, 0.0, 0.0, 0.0, 0.0, 1.747689098663409E9, 0.0, 2025-05-19 23:11:38.663
226.0, 24182.933471552547, 20330.520907702554, 48413.967897172915, 32470.021542313287, 42943.579607436615, 8205.303037798767, 8519.121529951279, 2061.546094601881, 0.0, 0.0, 13239.362924023024, -17956.162149448654, 11200.123870387539, 2617.4116274609123, -19819.336512009682, -33294.912671436396, 0.064, -0.006, 1.03, 192.0, 0.0, 0.0, 0.0, 0.0, 0.0, 0.0, 0.0, 0.0, 0.0, 1.747689098673579E9, 0.0, 2025-05-19 23:11:38.673
228.0, 24193.416439702087, 20346.033018354537, 48418.99703967536, 32496.977746126384, 42961.952741378875, 8229.82290146624, 8541.137998239756, 2063.31188241385, 0.0, 0.0, 13253.377467796501, -17938.12429167322, 11212.88671647152, 2642.937319628873, -19792.067383774207, -33279.84759567351, 0.064, -0.006, 1.03, 192.0, 0.0, 0.0, 0.0, 0.0, 0.0, 0.0, 0.0, 0.0, 0.0, 1.747689098679522E9, 0.0, 2025-05-19 23:11:38.679
230.0, 24187.046192532325, 20340.892117129817, 48418.61706001962, 32480.057475573718, 42946.91001736045, 8234.494416057398, 8501.754224509505, 2056.2710829104285, 0.0, 0.0, 13251.186996839882, -17943.779283020413, 11222.341504376114, 2637.259976537225, -19804.49495369136, -33277.03127587215, 0.062, -0.008, 1.03, 192.0, 0.5, 120.0, 127.5, 96.0, 16.0, 24.0, 0.0, 0.0, 0.0, 1.747689098688536E9, 0.0, 2025-05-19 23:11:38.688
232.0, 24210.135544554658, 20361.92510866226, 48430.2846706253, 32501.068115361708, 42962.712700690354, 8225.173738619535, 8551.352745455832, 2072.1631732181518, 0.0, 0.0, 13256.283194575692, -17937.207870150552, 11211.947943204397, 2637.5729009595993, -19795.8224768427, -33281.99336314123, 0.062, -0.008, 1.03, 192.0, 0.0, 0.0, 0.0, 0.0, 0.0, 0.0, 0.0, 0.0, 0.0, 1.747689098695535E9, 0.0, 2025-05-19 23:11:38.695
234.0, 24207.430983475566, 20363.735599963144, 48433.21274914894, 32506.14196135306, 42961.37159602304, 8237.511901558864, 8519.434454373653, 2060.674376568124, 0.0, 0.0, 13272.19763662787, -17921.31577984283, 11243.665068586477, 2669.714709486331, -19776.734087077868, -33250.74562439271, 0.062, -0.008, 1.03, 192.0, 0.0, 0.0, 0.0, 0.0, 0.0, 0.0, 0.0, 0.0, 0.0, 1.747689098703567E9, 0.0, 2025-05-19 23:11:38.703
236.0, 24213.063623078302, 20361.478073773156, 48436.07377243922, 32494.89903389204, 42959.40464251097, 8229.085293899214, 8520.037951473947, 2068.5645423608476, 0.0, 0.0, 13260.91000567794, -17936.49261432798, 11224.531975332735, 2637.751714915242, -19803.757346124334, -33275.93604039383, 0.062, -0.008, 1.03, 192.0, 0.0, 0.0, 0.0, 0.0, 0.0, 0.0, 0.0, 0.0, 0.0, 1.747689098711588E9, 0.0, 2025-05-19 23:11:38.711
238.0, 24216.259922535413, 20364.65202148581, 48442.75694403135, 32519.284787092784, 42966.713662947855, 8233.86856721265, 8538.344030182843, 2064.3400626587945, 0.0, 0.0, 13284.446392589378, -17915.750195473458, 11242.480426130347, 2676.062604911638, -19767.77103755129, -33250.231534270235, 0.062, -0.008, 1.03, 192.0, 0.0, 0.0, 0.0, 0.0, 0.0, 0.0, 0.0, 0.0, 0.0, 1.747689098719616E9, 0.0, 2025-05-19 23:11:38.719
240.0, 24200.636053161154, 20346.994143366115, 48432.34103111518, 32492.686211190965, 42951.98386335181, 8216.747130959884, 8502.201259398611, 2055.5558270878587, 0.0, 0.0, 13269.135447637493, -17934.07862592681, 11241.407542396491, 2662.5845030050878, -19786.591206382658, -33255.461842472774, 0.06, -0.002, 1.036, 192.0, 0.5, 112.0, 127.5, 120.0, 16.0, 48.0, 0.0, 0.0, 0.0, 1.747689098727599E9, 0.0, 2025-05-19 23:11:38.727
242.0, 24225.22297206199, 20375.60437626891, 48446.51203709985, 32516.356708569136, 42969.79820368269, 8227.565375276254, 8560.2710914935, 2079.606304121769, 0.0, 0.0, 13267.14614238097, -17925.69672175607, 11226.029542211241, 2659.678776225898, -19777.047011500243, -33262.01090359818, 0.06, -0.002, 1.036, 192.0, 0.0, 0.0, 0.0, 0.0, 0.0, 0.0, 0.0, 0.0, 0.0, 1.747689098735642E9, 0.0, 2025-05-19 23:11:38.735
244.0, 24205.352271241223, 20358.84056792743, 48435.42557185001, 32510.657013733035, 42966.0431106142, 8242.742209761407, 8514.20414617111, 2067.9833970050095, 0.0, 0.0, 13281.808886743653, -17913.8279454503, 11256.204397225905, 2686.3891108499897, -19759.836168269656, -33234.80883059607, 0.06, -0.002, 1.036, 192.0, 0.0, 0.0, 0.0, 0.0, 0.0, 0.0, 0.0, 0.0, 0.0, 1.747689098744715E9, 0.0, 2025-05-19 23:11:38.744
246.0, 24209.286178265356, 20356.15835859279, 48431.53636831479, 32491.166292568007, 42962.243314056795, 8224.3914275636, 8537.204091215623, 2074.4430511525934, 0.0, 0.0, 13255.500883519755, -17941.49940508597, 11222.07328344265, 2642.8255609065964, -19796.694194876458, -33269.43168275734, 0.06, -0.002, 1.036, 192.0, 0.0, 0.0, 0.0, 0.0, 0.0, 0.0, 0.0, 0.0, 0.0, 1.747689098750686E9, 0.0, 2025-05-19 23:11:38.750
248.0, 24216.17051555759, 20376.386687324844, 48435.47027533892, 32516.11083938013, 42978.35892180907, 8245.513826073864, 8565.590806673861, 2075.4935831419925, 0.0, 0.0, 13276.980909941305, -17922.12044264322, 11235.529033604746, 2679.683587513398, -19756.751627534824, -33244.86711560096, 0.06, -0.002, 1.036, 192.0, 0.0, 0.0, 0.0, 0.0, 0.0, 0.0, 0.0, 0.0, 0.0, 1.747689098759768E9, 0.0, 2025-05-19 23:11:38.759
250.0, 24200.92662583907, 20351.553899235, 48422.95329844395, 32487.500606477333, 42965.48431700281, 8235.947279446993, 8502.82710824336, 2066.709347571057, 0.0, 0.0, 13259.747714966265, -17935.196213149575, 11234.7020190599, 2660.9304739153954, -19781.025622013287, -33254.545420950104, 0.06, -0.002, 1.034, 192.0, 0.5, 112.0, 127.5, 120.0, 16.0, 40.0, 0.0, 0.0, 0.0, 1.747689098767838E9, 0.0, 2025-05-19 23:11:38.767
252.0, 24219.970312114994, 20372.02809715606, 48428.40712409105, 32498.944699638454, 42977.59896249759, 8235.76846549135, 8557.298309480942, 2076.4770598980263, 0.0, 0.0, 13259.34538356607, -17935.173861405117, 11216.194774650905, 2645.3066045411356, -19787.284110460772, -33273.58910722603, 0.06, -0.002, 1.034, 192.0, 0.0, 0.0, 0.0, 0.0, 0.0, 0.0, 0.0, 0.0, 0.0, 1.747689098776829E9, 0.0, 2025-05-19 23:11:38.776
254.0, 24210.671986421585, 20364.4061522968, 48421.56749028772, 32495.27901354778, 42972.48041301732, 8256.935567490527, 8519.993247985036, 2067.3798999047162, 0.0, 0.0, 13272.018822672228, -17925.987294433988, 11243.598013353112, 2671.5922560205768, -19769.82739804118, -33250.075072059044, 0.06, -0.002, 1.034, 192.0, 0.0, 0.0, 0.0, 0.0, 0.0, 0.0, 0.0, 0.0, 0.0, 1.747689098783841E9, 0.0, 2025-05-19 23:11:38.783
0.0, 24218.495096980943, 20370.105847132905, 48421.321621098716, 32481.778559896775, 42972.34630255059, 8237.601308536687, 8523.390713142242, 2074.867734297244, 0.0, 0.0, 13249.24239507227, -17950.12717844572, 11214.74191126131, 2629.4368659778675, -19804.8749333471, -33282.14982535241, 0.06, -0.002, 1.034, 192.0, 0.0, 0.0, 0.0, 0.0, 0.0, 0.0, 0.0, 0.0, 0.0, 1.747689098791901E9, 0.0, 2025-05-19 23:11:38.791
2.0, 24215.634073690664, 20366.306050575502, 48431.84929273716, 32512.087525378174, 42984.37154106755, 8245.849102240694, 8555.197245502144, 2079.248676210484, 0.0, 0.0, 13270.00716567125, -17924.132099644197, 11232.288030658727, 2665.713747228831, -19768.8662730296, -33255.618304683965, 0.06, -0.002, 1.034, 192.0, 0.0, 0.0, 0.0, 0.0, 0.0, 0.0, 0.0, 0.0, 0.0, 1.747689098799841E9, 0.0, 2025-05-19 23:11:38.799
4.0, 24218.048062091835, 20366.484864531143, 48422.5286152993, 32483.3655337531, 42971.519288005744, 8233.555642790276, 8503.475308832563, 2065.6588155816576, 0.0, 0.0, 13263.078124890104, -17932.245782881473, 11239.239423184326, 2655.1860755903813, -19784.40073542604, -33258.38992099642, 0.062, -0.006, 1.04, 192.0, 0.5, 120.0, 127.5, 104.0, 16.0, 64.0, 0.0, 0.0, 0.0, 1.747689098806944E9, 0.0, 2025-05-19 23:11:38.806
6.0, 24229.156879086124, 20380.208835626705, 48427.08837116818, 32497.20126357094, 42988.30544809168, 8232.639221267607, 8549.318736710398, 2073.9513127745763, 0.0, 0.0, 13262.049944645161, -17934.324495115816, 11220.285143886227, 2639.5622062161215, -19789.787505839766, -33279.19939508431, 0.062, -0.006, 1.04, 192.0, 0.0, 0.0, 0.0, 0.0, 0.0, 0.0, 0.0, 0.0, 0.0, 1.74768909881596E9, 0.0, 2025-05-19 23:11:38.815
8.0, 24219.21035280351, 20365.255518586102, 48420.338144342684, 32494.09437109165, 42978.98477065382, 8241.691677772007, 8516.618134572283, 2061.1437632016855, 0.0, 0.0, 13269.20250287086, -17927.0825299123, 11242.279260430249, 2666.5184100292217, -19771.593185853148, -33254.210144783276, 0.062, -0.006, 1.04, 192.0, 0.0, 0.0, 0.0, 0.0, 0.0, 0.0, 0.0, 0.0, 0.0, 1.747689098824012E9, 0.0, 2025-05-19 23:11:38.824
10.0, 24221.110251082213, 20366.954251164705, 48418.63941176408, 32479.699847662432, 42977.688369475414, 8228.928831688027, 8516.215803172088, 2069.6597778391574, 0.0, 0.0, 13250.538796250677, -17950.395399379184, 11214.920725216953, 2629.772142144697, -19801.67863388999, -33283.647392230916, 0.062, -0.006, 1.04, 192.0, 0.0, 0.0, 0.0, 0.0, 0.0, 0.0, 0.0, 0.0, 0.0, 1.747689098830954E9, 0.0, 2025-05-19 23:11:38.830
12.0, 24223.45718425002, 20377.817198969984, 48422.841539721674, 32501.4704467619, 42990.54062253721, 8247.033744696826, 8545.653050619729, 2066.798754548878, 0.0, 0.0, 13265.268595846725, -17932.625762537213, 11224.800196266198, 2658.2706163252137, -19772.397848653538, -33263.53082222114, 0.062, -0.006, 1.04, 192.0, 0.0, 0.0, 0.0, 0.0, 0.0, 0.0, 0.0, 0.0, 0.0, 1.747689098839035E9, 0.0, 2025-05-19 23:11:38.839
14.0, 24214.583541701264, 20359.46641677218, 48413.900841939554, 32477.107045305616, 42980.616447999055, 8238.361267848166, 8482.82229695586, 2050.616091563236, 0.0, 0.0, 13253.936261407884, -17942.70639928656, 11228.398827123503, 2647.0500406086494, -19787.552331394236, -33268.2023368123, 0.058, -0.004, 1.038, 192.0, 0.5, 104.0, 127.5, 112.0, 16.0, 56.0, 0.0, 0.0, 0.0, 1.747689098848075E9, 0.0, 2025-05-19 23:11:38.848
16.0, 24234.208373333022, 20382.242844372136, 48425.59080428968, 32495.14490308105, 42993.915735949966, 8249.447733097999, 8548.581129143373, 2070.6656063396463, 0.0, 0.0, 13255.366773053023, -17937.721960273026, 11215.770091506254, 2635.4047817474348, -19789.429877928484, -33282.06041837459, 0.058, -0.004, 1.038, 192.0, 0.0, 0.0, 0.0, 0.0, 0.0, 0.0, 0.0, 0.0, 0.0, 1.747689098855109E9, 0.0, 2025-05-19 23:11:38.855
18.0, 24218.338634769756, 20367.825969198464, 48415.73368498489, 32490.00400185633, 42985.13150037903, 8254.58863432272, 8507.051587945412, 2059.087402711797, 0.0, 0.0, 13262.29581383417, -17933.341018359784, 11235.327867904649, 2664.752622217253, -19771.05674398622, -33256.78059539564, 0.058, -0.004, 1.038, 192.0, 0.0, 0.0, 0.0, 0.0, 0.0, 0.0, 0.0, 0.0, 0.0, 1.747689098863151E9, 0.0, 2025-05-19 23:11:38.863
20.0, 24216.75166091343, 20369.03296339905, 48413.63262100609, 32474.693056904445, 42983.768043967255, 8241.669326027552, 8521.73668405255, 2066.8211062933333, 0.0, 0.0, 13243.18507232488, -17950.6859720571, 11209.399844336493, 2623.2454327637474, -19807.35597698164, -33289.794121956125, 0.058, -0.004, 1.038, 192.0, 0.0, 0.0, 0.0, 0.0, 0.0, 0.0, 0.0, 0.0, 0.0, 1.747689098871169E9, 0.0, 2025-05-19 23:11:38.871
22.0, 24230.810908175816, 20386.735545007654, 48421.92511819901, 32499.682307205476, 43002.498805820804, 8259.43896286952, 8550.59278614435, 2069.100984227775, 0.0, 0.0, 13261.424095800412, -17932.469300326025, 11225.336638133125, 2650.156933087937, -19774.05187774323, -33272.4044647699, 0.058, -0.004, 1.038, 192.0, 0.0, 0.0, 0.0, 0.0, 0.0, 0.0, 0.0, 0.0, 0.0, 1.747689098880189E9, 0.0, 2025-05-19 23:11:38.880
24.0, 24222.920742383092, 20375.000879168616, 48418.102969897154, 32480.593917440645, 42991.34528533761, 8264.244587927413, 8494.199334883611, 2063.1777719471183, 0.0, 0.0, 13262.832255701096, -17932.938686959587, 11239.485292373336, 2643.898444640451, -19786.971186038398, -33270.72808393575, 0.056, -0.004, 1.034, 192.0, 0.5, 96.0, 127.5, 112.0, 16.0, 40.0, 0.0, 0.0, 0.0, 1.747689098887214E9, 0.0, 2025-05-19 23:11:38.887
26.0, 24243.305533326333, 20396.65971954581, 48434.64326079408, 32506.231368330882, 42999.12369240805, 8254.432172111532, 8549.050515776935, 2080.4109669221602, 0.0, 0.0, 13263.927491179407, -17930.189422391584, 11225.671914299955, 2638.578729460088, -19786.904130805033, -33280.02640962916, 0.056, -0.004, 1.034, 192.0, 0.0, 0.0, 0.0, 0.0, 0.0, 0.0, 0.0, 0.0, 0.0, 1.747689098895252E9, 0.0, 2025-05-19 23:11:38.895
28.0, 24234.70011171104, 20385.75206825162, 48436.05142069476, 32511.081696877685, 42995.70387550639, 8266.412707139576, 8512.661875803695, 2066.575237104325, 0.0, 0.0, 13283.552322811167, -17910.54223901537, 11260.27241471677, 2678.320131101624, -19759.255022913818, -33242.676644644336, 0.056, -0.004, 1.034, 192.0, 0.0, 0.0, 0.0, 0.0, 0.0, 0.0, 0.0, 0.0, 0.0, 1.747689098904271E9, 0.0, 2025-05-19 23:11:38.904
30.0, 24228.754547685927, 20380.119428648883, 48435.69379278348, 32495.7707519258, 42994.72039875035, 8247.436076097021, 8513.555945581908, 2067.6704725826353, 0.0, 0.0, 13267.570825525621, -17930.21177413604, 11234.79142603772, 2647.9217586424065, -19784.557197637227, -33269.23051705724, 0.056, -0.004, 1.034, 192.0, 0.0, 0.0, 0.0, 0.0, 0.0, 0.0, 0.0, 0.0, 0.0, 1.74768909891129E9, 0.0, 2025-05-19 23:11:38.911
32.0, 24231.5708674873, 20385.081515917962, 48435.89495848357, 32515.127362624095, 43004.51046282178, 8258.902521002594, 8542.88143430727, 2063.1330684582076, 0.0, 0.0, 13278.00909018625, -17916.621913507213, 11243.5533098642, 2676.5319915451996, -19754.7623222783, -33250.522106948156, 0.056, -0.004, 1.034, 192.0, 0.0, 0.0, 0.0, 0.0, 0.0, 0.0, 0.0, 0.0, 0.0, 1.747689098919309E9, 0.0, 2025-05-19 23:11:38.919
34.0, 24216.014053346404, 20368.831797698953, 48422.86389146613, 32487.075923332683, 42989.40068356999, 8252.331108132734, 8494.1546313947, 2047.5539025728588, 0.0, 0.0, 13262.407572556445, -17933.184556148597, 11241.809873796687, 2657.6000639915546, -19778.902206290033, -33262.27912453164, 0.06, -0.01, 1.032, 192.0, 0.5, 112.0, 127.5, 88.0, 16.0, 32.0, 0.0, 0.0, 0.0, 1.74768909892738E9, 0.0, 2025-05-19 23:11:38.927
36.0, 24238.5222600129, 20387.04846943003, 48431.26814738133, 32503.638565974066, 43007.48324483434, 8257.762582035373, 8542.210881973611, 2064.5635801033472, 0.0, 0.0, 13263.681621990398, -17930.97173344752, 11226.40952186698, 2646.737116186275, -19778.25400570083, -33274.282011304145, 0.06, -0.01, 1.032, 192.0, 0.0, 0.0, 0.0, 0.0, 0.0, 0.0, 0.0, 0.0, 0.0, 1.747689098936407E9, 0.0, 2025-05-19 23:11:38.936
38.0, 24225.290027295356, 20378.532454792556, 48421.72395249891, 32498.85529266063, 43000.062465675175, 8259.43896286952, 8508.772672268471, 2044.2458443934734, 0.0, 0.0, 13270.76712498273, -17924.288561855385, 11248.068362244174, 2668.1500873744594, -19764.082999716164, -33252.48906046022, 0.06, -0.01, 1.032, 192.0, 0.0, 0.0, 0.0, 0.0, 0.0, 0.0, 0.0, 0.0, 0.0, 1.747689098942466E9, 0.0, 2025-05-19 23:11:38.942
40.0, 24229.2686378084, 20382.26519611659, 48425.4790455674, 32490.62985070108, 42999.45896857488, 8250.565320320764, 8511.343122880831, 2051.5325130859032, 0.0, 0.0, 13252.259880573736, -17938.034884695397, 11225.023713710752, 2632.9907933462614, -19795.844828587156, -33281.143996851926, 0.06, -0.01, 1.032, 192.0, 0.0, 0.0, 0.0, 0.0, 0.0, 0.0, 0.0, 0.0, 0.0, 1.747689098951465E9, 0.0, 2025-05-19 23:11:38.951
42.0, 24240.17628910259, 20395.27391138958, 48439.22536840742, 32520.447077804456, 43017.94386123942, 8279.622588112663, 8552.73855361206, 2064.6976905700794, 0.0, 0.0, 13274.566921540132, -17913.000930905455, 11245.721429076366, 2669.558247275144, -19757.466883357392, -33252.600819182495, 0.06, -0.01, 1.032, 192.0, 0.0, 0.0, 0.0, 0.0, 0.0, 0.0, 0.0, 0.0, 0.0, 1.747689098959544E9, 0.0, 2025-05-19 23:11:38.959
44.0, 24221.803155160327, 20376.006707669105, 48424.36145834464, 32489.28874603376, 43001.6494395315, 8272.090050231225, 8497.328579107354, 2050.6831467966017, 0.0, 0.0, 13266.877921447507, -17924.489727555483, 11247.934251777442, 2657.130677357993, -19778.075191745185, -33257.87583087395, 0.062, -0.004, 1.032, 192.0, 0.5, 120.0, 127.5, 112.0, 16.0, 32.0, 0.0, 0.0, 0.0, 1.747689098967518E9, 0.0, 2025-05-19 23:11:38.967
46.0, 24235.013036133416, 20386.824951985473, 48423.95912694444, 32498.162388582517, 43008.13144542354, 8260.221273925457, 8541.473274406586, 2065.614112092747, 0.0, 0.0, 13262.742848723276, -17931.865803225734, 11223.436739854425, 2642.4679329953115, -19784.15486623703, -33274.17025258187, 0.062, -0.004, 1.032, 192.0, 0.0, 0.0, 0.0, 0.0, 0.0, 0.0, 0.0, 0.0, 0.0, 1.747689098975576E9, 0.0, 2025-05-19 23:11:38.975
48.0, 24221.93726562706, 20374.12916113486, 48417.611231519135, 32496.888339148565, 43006.32095412266, 8273.855838043195, 8509.420872857676, 2051.420754363627, 0.0, 0.0, 13263.86043594604, -17928.06600666833, 11240.22289994036, 2661.712784971331, -19774.85654054362, -33254.835993628025, 0.062, -0.004, 1.032, 192.0, 0.0, 0.0, 0.0, 0.0, 0.0, 0.0, 0.0, 0.0, 0.0, 1.747689098983581E9, 0.0, 2025-05-19 23:11:38.983
50.0, 24225.088861595257, 20377.146646636327, 48422.14863564356, 32488.819359400197, 43005.22571864435, 8259.215445424968, 8518.786253784448, 2062.6860335691017, 0.0, 0.0, 13250.359982295035, -17943.9357452316, 11218.876983985541, 2635.5388922141665, -19797.029471043286, -33277.4559590168, 0.062, -0.004, 1.032, 192.0, 0.0, 0.0, 0.0, 0.0, 0.0, 0.0, 0.0, 0.0, 0.0, 1.747689098991609E9, 0.0, 2025-05-19 23:11:38.991
52.0, 24230.386225031165, 20385.685013018254, 48424.026182177804, 32510.992289899863, 43015.9545559829, 8279.332015434744, 8537.092332493345, 2065.8823330262107, 0.0, 0.0, 13266.699107491864, -17922.008683920943, 11234.277335915249, 2669.513543786233, -19765.28999391675, -33250.45505171479, 0.062, -0.004, 1.032, 192.0, 0.0, 0.0, 0.0, 0.0, 0.0, 0.0, 0.0, 0.0, 0.0, 1.747689098998653E9, 0.0, 2025-05-19 23:11:38.998
54.0, 24214.74000391245, 20367.289527331537, 48409.832824448684, 32482.94085060845, 42996.68735226242, 8269.720765318962, 8486.957369680093, 2052.1136584417413, 0.0, 0.0, 13250.561147995133, -17936.224393394517, 11230.432835868936, 2648.5923109760656, -19792.670880874502, -33264.80487165509, 0.062, -0.01, 1.038, 192.0, 0.5, 120.0, 127.5, 88.0, 16.0, 56.0, 0.0, 0.0, 0.0, 1.747689099007639E9, 0.0, 2025-05-19 23:11:39.007
56.0, 24227.79342267435, 20379.47122805968, 48412.00094366085, 32492.57445246869, 43009.919584979965, 8271.955939764493, 8548.670536121195, 2068.4304318941154, 0.0, 0.0, 13247.141331093471, -17940.22535565202, 11209.22103038085, 2636.723534670298, -19792.737936107867, -33280.24992707371, 0.062, -0.01, 1.038, 192.0, 0.0, 0.0, 0.0, 0.0, 0.0, 0.0, 0.0, 0.0, 0.0, 1.74768909901574E9, 0.0, 2025-05-19 23:11:39.015
58.0, 24217.80219290283, 20371.04462040003, 48407.262373836325, 32493.312060035714, 43010.16545416897, 8280.78487882434, 8507.006884456503, 2055.488771854493, 0.0, 0.0, 13254.226834085803, -17930.859974725245, 11232.153920191995, 2663.970311161317, -19771.973165508887, -33255.84182212852, 0.062, -0.01, 1.038, 192.0, 0.0, 0.0, 0.0, 0.0, 0.0, 0.0, 0.0, 0.0, 0.0, 1.747689099023756E9, 0.0, 2025-05-19 23:11:39.023
60.0, 24216.17051555759, 20368.6082802544, 48406.9270976695, 32479.319868006693, 43007.974983212356, 8275.06283224378, 8515.992285727536, 2066.642292337691, 0.0, 0.0, 13236.18897631037, -17947.154396433165, 11207.142318146505, 2628.3863339884683, -19804.8749333471, -33282.86508117498, 0.062, -0.01, 1.038, 192.0, 0.0, 0.0, 0.0, 0.0, 0.0, 0.0, 0.0, 0.0, 0.0, 1.747689099030704E9, 0.0, 2025-05-19 23:11:39.030
62.0, 24222.719576682997, 20377.772495481076, 48413.05147565025, 32503.370345040603, 43020.22373917386, 8278.25913170089, 8542.389695929252, 2069.749184816979, 0.0, 0.0, 13251.902252662452, -17932.60341079276, 11219.50283283029, 2658.941168658873, -19773.694249831948, -33260.647447186406, 0.062, -0.01, 1.038, 192.0, 0.0, 0.0, 0.0, 0.0, 0.0, 0.0, 0.0, 0.0, 0.0, 1.747689099040415E9, 0.0, 2025-05-19 23:11:39.040
64.0, 24209.777916643372, 20363.26621332958, 48407.73176046989, 32480.348048251635, 43008.91375647947, 8274.280521187846, 8493.841706972325, 2059.020347478431, 0.0, 0.0, 13247.454255515846, -17938.41486435114, 11227.750626534298, 2649.5981394765545, -19790.323947706693, -33263.68728443233, 0.062, -0.008, 1.034, 192.0, 0.5, 120.0, 127.5, 96.0, 16.0, 40.0, 0.0, 0.0, 0.0, 1.747689099049793E9, 0.0, 2025-05-19 23:11:39.049
66.0, 24223.94892262804, 20373.369201823378, 48407.24002209187, 32488.260565788816, 43019.217910673375, 8270.816000797273, 8530.342105667843, 2075.7171005865457, 0.0, 0.0, 13242.29100254667, -17940.113596929743, 11207.209373379872, 2636.5000172257446, -19792.58147389668, -33279.10998810649, 0.062, -0.008, 1.034, 192.0, 0.0, 0.0, 0.0, 0.0, 0.0, 0.0, 0.0, 0.0, 0.0, 1.747689099055872E9, 0.0, 2025-05-19 23:11:39.055
68.0, 24223.166611572102, 20373.860940201397, 48416.91832744102, 32500.330507794682, 43023.37533514206, 8290.373777195666, 8517.06516946139, 2077.281722698417, 0.0, 0.0, 13257.445485287368, -17928.49068981298, 11234.947888248907, 2663.8585524390405, -19776.39881091104, -33254.143089549914, 0.062, -0.008, 1.034, 192.0, 0.0, 0.0, 0.0, 0.0, 0.0, 0.0, 0.0, 0.0, 0.0, 1.747689099062899E9, 0.0, 2025-05-19 23:11:39.062
70.0, 24227.681663952073, 20377.146646636327, 48421.09810365416, 32492.976783868886, 43020.246090918314, 8274.884018288138, 8530.45386439012, 2078.8239930658333, 0.0, 0.0, 13252.461046273835, -17938.236050395495, 11221.31332413117, 2639.025764349194, -19795.084869275674, -33275.71252294928, 0.062, -0.008, 1.034, 192.0, 0.0, 0.0, 0.0, 0.0, 0.0, 0.0, 0.0, 0.0, 0.0, 1.747689099071864E9, 0.0, 2025-05-19 23:11:39.071
72.0, 24243.193774604057, 20397.732603279663, 48433.749191015864, 32526.079717407196, 43037.03225100425, 8307.785786126351, 8547.016507031502, 2085.5742198913363, 0.0, 0.0, 13275.550398296165, -17913.49266928347, 11240.46876912937, 2675.772032233719, -19758.942098491443, -33245.38120572343, 0.062, -0.008, 1.034, 192.0, 0.0, 0.0, 0.0, 0.0, 0.0, 0.0, 0.0, 0.0, 0.0, 1.747689099078959E9, 0.0, 2025-05-19 23:11:39.078
74.0, 24231.146184342648, 20389.32834736447, 48423.15446414405, 32499.458789760924, 43025.99048924333, 8306.332922736756, 8493.05939591639, 2071.291455184395, 0.0, 0.0, 13270.34244183808, -17915.034939650886, 11251.13055123455, 2666.00431990675, -19776.57762486668, -33247.03523481313, 0.058, -0.006, 1.034, 192.0, 0.5, 104.0, 127.5, 104.0, 16.0, 40.0, 0.0, 0.0, 0.0, 1.747689099086992E9, 0.0, 2025-05-19 23:11:39.086
76.0, 24248.2229171065, 20408.684958062764, 48429.211786891436, 32512.53456026728, 43035.489980636834, 8306.332922736756, 8550.659841377717, 2085.708330358068, 0.0, 0.0, 13262.675793489909, -17922.12044264322, 11227.370646878559, 2649.642842965465, -19780.332717935173, -33264.08961583253, 0.058, -0.006, 1.034, 192.0, 0.0, 0.0, 0.0, 0.0, 0.0, 0.0, 0.0, 0.0, 0.0, 1.747689099095963E9, 0.0, 2025-05-19 23:11:39.095
78.0, 24224.97710287298, 20381.818161227486, 48421.29926935426, 32508.86887417661, 43033.0089370023, 8304.321265735778, 8515.679361305161, 2065.234132437007, 0.0, 0.0, 13273.806962228653, -17910.430480293093, 11254.41625766948, 2678.0519101681602, -19758.85269151362, -33237.66985388635, 0.058, -0.006, 1.034, 192.0, 0.0, 0.0, 0.0, 0.0, 0.0, 0.0, 0.0, 0.0, 0.0, 1.747689099104402E9, 0.0, 2025-05-19 23:11:39.104
80.0, 24220.864381893207, 20378.063068158994, 48411.19628086046, 32484.930155864975, 43017.07214320566, 8279.197904968012, 8520.037951473947, 2064.809449292356, 0.0, 0.0, 13249.532967750189, -17936.06793118333, 11221.447434597903, 2635.2706712807026, -19794.973110553397, -33276.07015086057, 0.058, -0.006, 1.034, 192.0, 0.0, 0.0, 0.0, 0.0, 0.0, 0.0, 0.0, 0.0, 0.0, 1.747689099111016E9, 0.0, 2025-05-19 23:11:39.111
82.0, 24233.873097166193, 20391.94350146574, 48422.573318788214, 32516.982557413885, 43031.62312884607, 8306.042350058837, 8552.626794889784, 2078.488716899004, 0.0, 0.0, 13261.021764400217, -17924.288561855385, 11229.89639400201, 2663.1432966164707, -19765.893491017043, -33255.10421456149, 0.058, -0.006, 1.034, 192.0, 0.0, 0.0, 0.0, 0.0, 0.0, 0.0, 0.0, 0.0, 0.0, 1.747689099119129E9, 0.0, 2025-05-19 23:11:39.119
84.0, 24223.256018549924, 20375.403210568813, 48416.851272207656, 32498.877644405085, 43019.08380020664, 8297.995722054926, 8504.592896055328, 2075.605341864269, 0.0, 0.0, 13256.663174231431, -17923.282733354896, 11241.36283890758, 2660.6399012374764, -19776.599976611134, -33251.37147323746, 0.058, -0.006, 1.0350000000000001, 192.0, 0.5, 104.0, 127.5, 104.0, 16.0, 48.0, 0.0, 0.0, 0.0, 1.747689099128143E9, 0.0, 2025-05-19 23:11:39.128
86.0, 24232.062605865314, 20386.959062452206, 48419.75699898684, 32507.14778985355, 43029.43265788945, 8295.849954587216, 8554.59374840185, 2090.0445687823976, 0.0, 0.0, 13253.355116052046, -17927.59662003477, 11219.972219463853, 2653.330880800591, -19776.667031844503, -33259.64161868592, 0.058, -0.006, 1.0350000000000001, 192.0, 0.0, 0.0, 0.0, 0.0, 0.0, 0.0, 0.0, 0.0, 0.0, 1.747689099135103E9, 0.0, 2025-05-19 23:11:39.135
88.0, 24231.03442562037, 20386.355565351914, 48418.39354257507, 32508.779467198787, 43033.254806191304, 8312.904335606616, 8533.046666746935, 2077.996978520987, 0.0, 0.0, 13258.29485157667, -17925.048521166864, 11237.89831851701, 2675.4814595558, -19760.685534558957, -33241.60376091048, 0.058, -0.006, 1.0350000000000001, 192.0, 0.0, 0.0, 0.0, 0.0, 0.0, 0.0, 0.0, 0.0, 0.0, 1.747689099143249E9, 0.0, 2025-05-19 23:11:39.143
90.0, 24227.771070929895, 20382.3098996055, 48411.26333609383, 32490.294574534248, 43023.21887293087, 8288.429175428055, 8523.25660267551, 2072.8784290407216, 0.0, 0.0, 13246.828406671097, -17936.11263467224, 11220.687475286422, 2644.3007760406467, -19789.7204506064, -33266.235383300234, 0.058, -0.006, 1.0350000000000001, 192.0, 0.0, 0.0, 0.0, 0.0, 0.0, 0.0, 0.0, 0.0, 0.0, 1.747689099151271E9, 0.0, 2025-05-19 23:11:39.151
92.0, 24238.879887924184, 20394.42454510028, 48422.10393215465, 32514.412106801527, 43037.97102427138, 8299.694454633529, 8547.93292855417, 2074.1077749857636, 0.0, 0.0, 13257.758409709742, -17924.64618976667, 11228.018847467763, 2664.5067530282445, -19766.407581139516, -33253.49488896071, 0.058, -0.006, 1.0350000000000001, 192.0, 0.0, 0.0, 0.0, 0.0, 0.0, 0.0, 0.0, 0.0, 0.0, 1.747689099160206E9, 0.0, 2025-05-19 23:11:39.160
94.0, 24227.100518596235, 20381.639347271845, 48414.7278564844, 32490.987478612362, 43027.71157356639, 8288.250361472412, 8513.913573493192, 2065.7035190705683, 0.0, 0.0, 13254.539758508177, -17932.044617181375, 11234.992591737819, 2655.5660552461213, -19780.15390397953, -33256.06533957307, 0.06, -0.007, 1.0325000000000002, 192.0, 0.5, 120.0, 127.5, 96.0, 16.0, 24.0, 0.0, 0.0, 0.0, 1.747689099167185E9, 0.0, 2025-05-19 23:11:39.167
96.0, 24237.69524546805, 20396.570312567987, 48419.15350188655, 32506.745458453355, 43036.205236459406, 8295.31351272029, 8560.427553704685, 2083.6519698681795, 0.0, 0.0, 13253.712743963331, -17929.49651831347, 11218.944039218908, 2647.832351664585, -19779.68451734597, -33265.07309258856, 0.06, -0.007, 1.0325000000000002, 192.0, 0.0, 0.0, 0.0, 0.0, 0.0, 0.0, 0.0, 0.0, 0.0, 1.747689099175268E9, 0.0, 2025-05-19 23:11:39.175
98.0, 24228.016940118905, 20384.030983928562, 48411.308039582735, 32503.012717129317, 43033.835951547146, 8308.679855904562, 8523.703637564617, 2070.5538476173697, 0.0, 0.0, 13256.640822486976, -17923.506250799448, 11238.524167361757, 2668.284197841191, -19768.218072440395, -33245.78353712363, 0.06, -0.007, 1.0325000000000002, 192.0, 0.0, 0.0, 0.0, 0.0, 0.0, 0.0, 0.0, 0.0, 0.0, 1.747689099183276E9, 0.0, 2025-05-19 23:11:39.183
100.0, 24230.833259920273, 20389.12718166437, 48414.124359384106, 32493.937908880464, 43028.49388462232, 8309.104539049213, 8539.841597061348, 2087.5635251478584, 0.0, 0.0, 13243.676810702898, -17938.50427132896, 11216.373588606548, 2638.33286027108, -19792.425011685493, -33270.28104904664, 0.06, -0.007, 1.0325000000000002, 192.0, 0.0, 0.0, 0.0, 0.0, 0.0, 0.0, 0.0, 0.0, 0.0, 1.747689099191316E9, 0.0, 2025-05-19 23:11:39.191
102.0, 24235.88475416717, 20397.50908583511, 48422.081580410195, 32518.368365570113, 43045.05652726371, 8306.467033203488, 8557.857103092325, 2086.803565836378, 0.0, 0.0, 13258.205444598849, -17919.527640286404, 11230.32107714666, 2670.4299653089006, -19761.57960433717, -33245.98470282373, 0.06, -0.007, 1.0325000000000002, 192.0, 0.0, 0.0, 0.0, 0.0, 0.0, 0.0, 0.0, 0.0, 0.0, 1.747689099199313E9, 0.0, 2025-05-19 23:11:39.199
104.0, 24220.4173470041, 20380.968794938184, 48410.413969804526, 32492.842673402152, 43030.63965209003, 8291.200791740512, 8499.899029719714, 2069.100984227775, 0.0, 0.0, 13247.320145049114, -17931.508175314448, 11232.243327169816, 2660.461087281834, -19778.745744078846, -33252.1984877823, 0.062, -0.0055, 1.0322500000000001, 192.0, 1.0, 0.0, 127.5, 112.0, 16.0, 32.0, 0.0, 0.0, 0.0, 1.747689099209948E9, 0.0, 2025-05-19 23:11:39.209
106.0, 24240.757434458428, 20400.817144014498, 48425.41199033404, 32518.234255103383, 43049.90685581051, 8304.522431435875, 8572.631606177283, 2094.5596211623697, 0.0, 0.0, 13249.421209027912, -17924.065044410832, 11221.179213664438, 2657.8235814361074, -19771.839055042157, -33256.57942969554, 0.062, -0.0055, 1.0322500000000001, 192.0, 0.0, 0.0, 0.0, 0.0, 0.0, 0.0, 0.0, 0.0, 0.0, 1.747689099216375E9, 0.0, 2025-05-19 23:11:39.216
108.0, 24231.101480853737, 20391.250597387625, 48420.69577225397, 32515.86497019112, 43050.867980822084, 8322.090902577747, 8537.874643549281, 2079.9415802885987, 0.0, 0.0, 13261.826427200607, -17912.352730316252, 11247.330754677148, 2687.193773650381, -19750.113159431596, -33229.82439158254, 0.062, -0.0055, 1.0322500000000001, 192.0, 0.0, 0.0, 0.0, 0.0, 0.0, 0.0, 0.0, 0.0, 0.0, 1.747689099222437E9, 0.0, 2025-05-19 23:11:39.222
110.0, 24225.55824822882, 20385.640309529343, 48412.31386808323, 32493.24500480235, 43041.54730338422, 8303.360140724199, 8543.999021530035, 2087.4294146811267, 0.0, 0.0, 13243.18507232488, -17934.63741953819, 11218.586411307622, 2649.799305176652, -19780.355069679626, -33261.22859254225, 0.062, -0.0055, 1.0322500000000001, 192.0, 0.0, 0.0, 0.0, 0.0, 0.0, 0.0, 0.0, 0.0, 0.0, 1.747689099231528E9, 0.0, 2025-05-19 23:11:39.231
112.0, 24229.447451764045, 20388.88131247536, 48417.00773441884, 32514.300348079247, 43053.885466323554, 8310.825623372271, 8562.640376405761, 2089.1952024930956, 0.0, 0.0, 13251.946956151362, -17926.16610838963, 11223.995533465808, 2672.3745670765124, -19756.461054856904, -33246.96817957976, 0.062, -0.0055, 1.0322500000000001, 192.0, 0.0, 0.0, 0.0, 0.0, 0.0, 0.0, 0.0, 0.0, 0.0, 1.747689099239502E9, 0.0, 2025-05-19 23:11:39.239
114.0, 24219.188001059058, 20376.163169880292, 48409.63165874859, 32491.032182101273, 43040.36266092809, 8299.046254044326, 8518.182756684155, 2075.985321520009, 0.0, 0.0, 13244.995563625762, -17934.145681160175, 11230.678705057944, 2663.120944872015, -19771.839055042157, -33251.52793544864, 0.06, -0.00475, 1.0321250000000002, 192.0, 0.5, 104.0, 127.5, 112.0, 16.0, 32.0, 0.0, 0.0, 0.0, 1.747689099247539E9, 0.0, 2025-05-19 23:11:39.247
116.0, 24229.4698035085, 20390.289472376047, 48413.118530883614, 32501.85042641764, 43046.21881797539, 8302.890754090638, 8566.373117729798, 2092.190336250107, 0.0, 0.0, 13241.799264168652, -17937.140814917188, 11210.495079814802, 2648.9499388873505, -19777.24817720034, -33267.44237750082, 0.06, -0.00475, 1.0321250000000002, 192.0, 0.0, 0.0, 0.0, 0.0, 0.0, 0.0, 0.0, 0.0, 0.0, 1.747689099255515E9, 0.0, 2025-05-19 23:11:39.255
118.0, 24218.98683535896, 20378.17482688127, 48405.317772068716, 32500.6210804726, 43043.02251851827, 8310.579754183264, 8522.720160808583, 2071.7831935624117, 0.0, 0.0, 13250.069409617116, -17928.781262490902, 11234.992591737819, 2673.3133403436354, -19763.21128168241, -33243.88363884493, 0.06, -0.00475, 1.0321250000000002, 192.0, 0.0, 0.0, 0.0, 0.0, 0.0, 0.0, 0.0, 0.0, 0.0, 1.747689099263547E9, 0.0, 2025-05-19 23:11:39.263
120.0, 24222.56311447181, 20378.755972237108, 48404.71427496842, 32486.00303959883, 43038.440410904936, 8293.391262697132, 8536.69000109315, 2081.3497401892832, 0.0, 0.0, 13234.646705942954, -17945.299201643375, 11210.495079814802, 2634.9800986027835, -19797.7223751214, -33275.77957818265, 0.06, -0.00475, 1.0321250000000002, 192.0, 0.0, 0.0, 0.0, 0.0, 0.0, 0.0, 0.0, 0.0, 0.0, 1.747689099271618E9, 0.0, 2025-05-19 23:11:39.271
122.0, 24233.157841343625, 20388.83660898645, 48415.13018788459, 32510.612310244123, 43053.37137620108, 8314.267792018389, 8565.657861907228, 2080.7015396000793, 0.0, 0.0, 13252.282232318192, -17927.663675268137, 11225.582507322135, 2666.7642792182305, -19763.077171215675, -33253.13726104942, 0.06, -0.00475, 1.0321250000000002, 192.0, 0.0, 0.0, 0.0, 0.0, 0.0, 0.0, 0.0, 0.0, 0.0, 1.747689099278617E9, 0.0, 2025-05-19 23:11:39.278
124.0, 24223.256018549924, 20377.638385014343, 48405.027199390795, 32485.28778377626, 43040.69793709492, 8305.952943081014, 8503.698826277117, 2058.93094050061, 0.0, 0.0, 13249.309450305636, -17934.570364304825, 11235.707847560388, 2653.4649912673226, -19781.517360391303, -33260.781557653136, 0.06, -0.0063750000000000005, 1.0330625000000002, 192.0, 0.5, 112.0, 127.5, 96.0, 16.0, 40.0, 0.0, 0.0, 0.0, 1.747689099300834E9, 0.0, 2025-05-19 23:11:39.300
126.0, 24236.063568122812, 20392.99403345514, 48408.69288548147, 32496.642469959555, 43055.494791924335, 8318.425216487076, 8564.227350262088, 2073.772498818934, 0.0, 0.0, 13246.426075270901, -17938.861899240244, 11214.585449050122, 2637.5952527040545, -19787.641738372058, -33279.311153806586, 0.06, -0.0063750000000000005, 1.0330625000000002, 192.0, 0.0, 0.0, 0.0, 0.0, 0.0, 0.0, 0.0, 0.0, 0.0, 1.747689099302356E9, 0.0, 2025-05-19 23:11:39.302
128.0, 24226.02763486238, 20383.338079850448, 48406.636524991576, 32497.80476067123, 43051.60558838911, 8330.226937559479, 8528.643373089239, 2064.809449292356, 0.0, 0.0, 13253.757447452243, -17930.12236715822, 11236.534862105234, 2668.1053838855487, -19764.82060728319, -33250.41034822587, 0.06, -0.0063750000000000005, 1.0330625000000002, 192.0, 0.0, 0.0, 0.0, 0.0, 0.0, 0.0, 0.0, 0.0, 0.0, 1.74768909930482E9, 0.0, 2025-05-19 23:11:39.304
130.0, 24227.525201740886, 20383.829818228463, 48408.58112675919, 32486.38301925457, 43047.49286740934, 8311.719693150484, 8536.444131904142, 2073.727795330023, 0.0, 0.0, 13240.033476356683, -17943.332248131304, 11214.36193160557, 2635.6059474475323, -19793.743764608356, -33276.226613071754, 0.06, -0.0063750000000000005, 1.0330625000000002, 192.0, 0.0, 0.0, 0.0, 0.0, 0.0, 0.0, 0.0, 0.0, 0.0, 1.747689099312988E9, 0.0, 2025-05-19 23:11:39.312
132.0, 24234.27542856639, 20392.32348112148, 48417.09714139666, 32512.512208522825, 43063.58612341715, 8323.007324100414, 8564.808495617926, 2083.070824512342, 0.0, 0.0, 13259.077162632604, -17924.959114189045, 11229.650524813, 2664.730270472797, -19763.323040404684, -33254.00897908318, 0.06, -0.0063750000000000005, 1.0330625000000002, 192.0, 0.0, 0.0, 0.0, 0.0, 0.0, 0.0, 0.0, 0.0, 0.0, 1.747689099319789E9, 0.0, 2025-05-19 23:11:39.319
134.0, 24220.998492359937, 20375.22439661317, 48404.24488833486, 32485.131321565073, 43047.71638485389, 8315.07245481878, 8519.143881695734, 2070.1738679616296, 0.0, 0.0, 13246.135502592982, -17937.431387595105, 11230.902222502496, 2652.1909418333703, -19779.997441768344, -33260.26746753067, 0.061, -0.0051875, 1.0325312500000001, 192.0, 0.5, 120.0, 127.5, 112.0, 16.0, 32.0, 0.0, 0.0, 0.0, 1.747689099327838E9, 0.0, 2025-05-19 23:11:39.327
136.0, 24224.015977861403, 20379.40417282631, 48404.64721973506, 32494.7202199364, 43054.46661167939, 8313.641943173641, 8560.718126382604, 2079.606304121769, 0.0, 0.0, 13241.5757467241, -17941.745274274977, 11208.93045770293, 2638.4893224822667, -19784.57954938168, -33275.176081082354, 0.061, -0.0051875, 1.0325312500000001, 192.0, 0.0, 0.0, 0.0, 0.0, 0.0, 0.0, 0.0, 0.0, 0.0, 1.747689099334849E9, 0.0, 2025-05-19 23:11:39.334
138.0, 24221.780803415873, 20378.84537921493, 48409.72106572641, 32502.543330495755, 43054.08663202365, 8332.752684682928, 8523.055436975412, 2070.2185714505404, 0.0, 0.0, 13250.628203228498, -17929.98825669149, 11235.372571393558, 2664.9314361728952, -19767.927499762478, -33250.61151392597, 0.061, -0.0051875, 1.0325312500000001, 192.0, 0.0, 0.0, 0.0, 0.0, 0.0, 0.0, 0.0, 0.0, 0.0, 1.747689099343921E9, 0.0, 2025-05-19 23:11:39.343
140.0, 24224.08303309477, 20381.862864716397, 48409.51990002632, 32489.355801267127, 43048.632806376554, 8312.79257688434, 8546.189492486656, 2075.6276936087243, 0.0, 0.0, 13243.274479302703, -17937.900774228667, 11220.17338516395, 2635.2483195362474, -19792.670880874502, -33275.041970615624, 0.061, -0.0051875, 1.0325312500000001, 192.0, 0.0, 0.0, 0.0, 0.0, 0.0, 0.0, 0.0, 0.0, 0.0, 1.747689099351912E9, 0.0, 2025-05-19 23:11:39.351
142.0, 24238.052873379336, 20395.005690456117, 48419.82405422021, 32517.29548183626, 43064.50254493982, 8333.065609105302, 8556.02426004699, 2078.55577213237, 0.0, 0.0, 13257.28902307618, -17920.533468786893, 11233.316210903671, 2665.8255059511075, -19762.7642467933, -33251.684397659825, 0.061, -0.0051875, 1.0325312500000001, 192.0, 0.0, 0.0, 0.0, 0.0, 0.0, 0.0, 0.0, 0.0, 0.0, 1.747689099359239E9, 0.0, 2025-05-19 23:11:39.359
144.0, 24225.55824822882, 20379.98531818215, 48411.5762605162, 32497.313022293216, 43055.80771634671, 8321.152129310623, 8516.998114228025, 2069.391556905694, 0.0, 0.0, 13253.332764307592, -17923.729768244, 11243.061571486185, 2659.745831459264, -19777.33758417816, -33251.95261859329, 0.0605, -0.00559375, 1.0302656250000002, 192.0, 0.5, 112.0, 127.5, 104.0, 16.0, 16.0, 0.0, 0.0, 0.0, 1.747689099367016E9, 0.0, 2025-05-19 23:11:39.367
146.0, 24243.50669902643, 20397.93376897976, 48418.43824606398, 32511.886359678076, 43071.34217874315, 8317.50879496441, 8574.062117822423, 2092.9726473060427, 0.0, 0.0, 13253.712743963331, -17924.377968833207, 11223.481443343335, 2653.4426395228675, -19774.208339954417, -33258.546383207606, 0.0605, -0.00559375, 1.0302656250000002, 192.0, 0.0, 0.0, 0.0, 0.0, 0.0, 0.0, 0.0, 0.0, 0.0, 1.747689099375139E9, 0.0, 2025-05-19 23:11:39.375
148.0, 24233.090786110257, 20388.367222352892, 48413.4761587949, 32505.20318808594, 43073.33148399967, 8321.956792111016, 8531.414989401697, 2071.2467516954844, 0.0, 0.0, 13264.933319679896, -17916.912486185134, 11248.202472710906, 2676.6661020119313, -19756.885738001554, -33238.00513005318, 0.0605, -0.00559375, 1.0302656250000002, 192.0, 0.0, 0.0, 0.0, 0.0, 0.0, 0.0, 0.0, 0.0, 0.0, 1.747689099384031E9, 0.0, 2025-05-19 23:11:39.384
150.0, 24226.429966262578, 20379.42652457077, 48409.989286659875, 32490.786312912267, 43068.10117579713, 8307.271696003878, 8543.283765707465, 2074.9124377861544, 0.0, 0.0, 13244.079142103094, -17941.70057078607, 11219.771053763754, 2635.449485236345, -19791.01685178481, -33275.041970615624, 0.0605, -0.00559375, 1.0302656250000002, 192.0, 0.0, 0.0, 0.0, 0.0, 0.0, 0.0, 0.0, 0.0, 0.0, 1.747689099391076E9, 0.0, 2025-05-19 23:11:39.391
152.0, 24227.21227731851, 20382.17578913877, 48414.169062873014, 32514.00977540133, 43077.24303927935, 8317.2629257754, 8562.081582794379, 2080.098042499786, 0.0, 0.0, 13257.490188776279, -17925.78612873389, 11230.41048412448, 2670.2735030977137, -19756.52811009027, -33245.93999933481, 0.0605, -0.00559375, 1.0302656250000002, 192.0, 0.0, 0.0, 0.0, 0.0, 0.0, 0.0, 0.0, 0.0, 0.0, 1.747689099399342E9, 0.0, 2025-05-19 23:11:39.399
154.0, 24213.577713200775, 20367.155416864804, 48402.300286567246, 32490.026353600784, 43058.221704747884, 8316.435911230554, 8532.30905917991, 2070.486792384004, 0.0, 0.0, 13244.995563625762, -17934.01157069344, 11231.79629228071, 2661.2657500822247, -19771.526130619783, -33249.00218832519, 0.05925, -0.004796875, 1.0291328125, 192.0, 0.5, 104.0, 127.5, 112.0, 16.0, 16.0, 0.0, 0.0, 0.0, 1.747689099407192E9, 0.0, 2025-05-19 23:11:39.407
156.0, 24232.531992498876, 20384.18744613975, 48411.84448144966, 32505.985499141872, 43072.32565549918, 8321.50975722191, 8569.211789275621, 2085.641275124702, 0.0, 0.0, 13239.184110067381, -17939.130120173708, 11208.751643747288, 2644.0325551071833, -19781.003270268833, -33267.01769435617, 0.05925, -0.004796875, 1.0291328125, 192.0, 0.0, 0.0, 0.0, 0.0, 0.0, 0.0, 0.0, 0.0, 0.0, 1.747689099415197E9, 0.0, 2025-05-19 23:11:39.415
158.0, 24227.301684296333, 20381.639347271845, 48413.36440007263, 32509.807647443733, 43065.82129786269, 8338.921766152593, 8538.031105760469, 2072.341987173794, 0.0, 0.0, 13262.228758600802, -17919.50528854195, 11246.503740132302, 2677.224895623314, -19755.56698507869, -33237.91572307536, 0.05925, -0.004796875, 1.0291328125, 192.0, 0.0, 0.0, 0.0, 0.0, 0.0, 0.0, 0.0, 0.0, 0.0, 1.747689099423192E9, 0.0, 2025-05-19 23:11:39.423
160.0, 24222.920742383092, 20375.582024524454, 48406.81533894722, 32493.4685222469, 43057.12646926957, 8330.02577185938, 8543.037896518457, 2078.7569378324674, 0.0, 0.0, 13243.140368835971, -17937.677256784114, 11220.21808865286, 2642.3785260174905, -19784.95952903742, -33267.24121180072, 0.05925, -0.004796875, 1.0291328125, 192.0, 0.0, 0.0, 0.0, 0.0, 0.0, 0.0, 0.0, 0.0, 0.0, 1.747689099431224E9, 0.0, 2025-05-19 23:11:39.431
162.0, 24230.185059331066, 20386.355565351914, 48410.615135504624, 32516.446115546958, 43068.68232115297, 8339.368801041699, 8564.853199106838, 2080.6568361111686, 0.0, 0.0, 13254.830331186096, -17921.78516647639, 11231.528071347246, 2669.3347298305907, -19757.712752546402, -33245.6494266569, 0.05925, -0.004796875, 1.0291328125, 192.0, 0.0, 0.0, 0.0, 0.0, 0.0, 0.0, 0.0, 0.0, 0.0, 1.747689099439307E9, 0.0, 2025-05-19 23:11:39.439
164.0, 24219.1656493146, 20371.111675633394, 48399.68513246598, 32489.065228589207, 43052.38789944505, 8319.341638009744, 8519.032122973458, 2062.6860335691017, 0.0, 0.0, 13245.710819448332, -17934.21273639354, 11234.74672254881, 2652.682680211387, -19780.891511546553, -33256.512374462174, 0.061625, -0.0063984375, 1.0305664062500002, 192.0, 1.0, 0.0, 127.5, 96.0, 16.0, 32.0, 0.0, 0.0, 0.0, 1.747689099447266E9, 0.0, 2025-05-19 23:11:39.447
166.0, 24237.359969301222, 20388.009594441606, 48417.14184488557, 32511.372269555603, 43071.47628920988, 8324.057856089814, 8579.113612069323, 2087.6305803812243, 0.0, 0.0, 13247.029572371195, -17935.911468972143, 11216.5971060511, 2645.0160318632165, -19778.321060934195, -33267.17415656736, 0.061625, -0.0063984375, 1.0305664062500002, 192.0, 0.0, 0.0, 0.0, 0.0, 0.0, 0.0, 0.0, 0.0, 0.0, 1.747689099455302E9, 0.0, 2025-05-19 23:11:39.455
168.0, 24224.775937172883, 20380.4100013268, 48413.18558611698, 32515.10501087964, 43068.794079875246, 8336.574832984787, 8533.851329547326, 2071.067937739842, 0.0, 0.0, 13263.480456290301, -17916.17487861811, 11248.761266322288, 2681.717596258831, -19750.113159431596, -33232.886580572915, 0.061625, -0.0063984375, 1.0305664062500002, 192.0, 0.0, 0.0, 0.0, 0.0, 0.0, 0.0, 0.0, 0.0, 0.0, 1.747689099463274E9, 0.0, 2025-05-19 23:11:39.463
170.0, 24223.41248076111, 20375.22439661317, 48408.75994071483, 32496.19543507045, 43069.17405953098, 8322.560289211307, 8550.659841377717, 2075.1806587196184, 0.0, 0.0, 13243.497996747255, -17934.45860558255, 11221.514489831268, 2644.1219620850043, -19782.433781913973, -33264.93898212183, 0.061625, -0.0063984375, 1.0305664062500002, 192.0, 0.0, 0.0, 0.0, 0.0, 0.0, 0.0, 0.0, 0.0, 0.0, 1.747689099471365E9, 0.0, 2025-05-19 23:11:39.471
172.0, 24231.54851574284, 20383.494542061635, 48409.05051339275, 32511.036993388774, 43081.8698503816, 8337.759475440917, 8573.279806766488, 2076.4323564091155, 0.0, 0.0, 13252.505749762744, -17928.155413646153, 11226.498928844801, 2666.294892584669, -19756.796331023736, -33250.05272031459, 0.061625, -0.0063984375, 1.0305664062500002, 192.0, 0.0, 0.0, 0.0, 0.0, 0.0, 0.0, 0.0, 0.0, 0.0, 1.747689099479361E9, 0.0, 2025-05-19 23:11:39.479
174.0, 24211.767221899896, 20364.115579618883, 48388.665722449514, 32477.44232147245, 43065.843649607144, 8313.88781236265, 8507.11864317878, 2052.963024731043, 0.0, 0.0, 13241.262822301725, -17941.678219041612, 11227.147129434006, 2650.1792848323926, -19778.611633612112, -33262.390883253924, 0.0628125, -0.00719921875, 1.0262832031250002, 192.0, 1.0, 0.0, 127.5, 96.0, 15.5, 120.0, 0.0, 0.0, 0.0, 1.747689099487385E9, 0.0, 2025-05-19 23:11:39.487
176.0, 24227.391091274156, 20378.711268748197, 48401.58503074468, 32497.491836248857, 43073.890277611055, 8317.50879496441, 8566.820152618904, 2076.253542453473, 0.0, 0.0, 13229.639915184966, -17948.36139063375, 11202.40374832198, 2630.8226741340964, -19790.323947706693, -33282.73097070825, 0.0628125, -0.00719921875, 1.0262832031250002, 192.0, 0.0, 0.0, 0.0, 0.0, 0.0, 0.0, 0.0, 0.0, 0.0, 1.747689099495427E9, 0.0, 2025-05-19 23:11:39.495
178.0, 24221.378472015676, 20373.07862914546, 48404.758978457336, 32502.90095840704, 43076.21485903441, 8336.552481240331, 8540.489797650553, 2067.0446237378865, 0.0, 0.0, 13251.298755562158, -17929.74238750248, 11237.831263283642, 2669.4688402973225, -19759.47854035837, -33247.39286272441, 0.0628125, -0.00719921875, 1.0262832031250002, 192.0, 0.0, 0.0, 0.0, 0.0, 0.0, 0.0, 0.0, 0.0, 0.0, 1.747689099502434E9, 0.0, 2025-05-19 23:11:39.502
180.0, 24221.333768526765, 20371.715172733686, 48401.607382489135, 32489.71342917841, 43070.04577756474, 8319.431044987565, 8540.243928461543, 2079.1145657437523, 0.0, 0.0, 13236.032514099183, -17946.305030143863, 11214.160765905472, 2637.125866070493, -19788.178180238985, -33274.19260432632, 0.0628125, -0.00719921875, 1.0262832031250002, 192.0, 0.0, 0.0, 0.0, 0.0, 0.0, 0.0, 0.0, 0.0, 0.0, 1.747689099511505E9, 0.0, 2025-05-19 23:11:39.511
182.0, 24227.927533141083, 20382.823989727975, 48406.77063545831, 32515.037955646272, 43080.75226315883, 8342.207472587523, 8583.89688538276, 2091.6538943831797, 0.0, 0.0, 13246.426075270901, -17932.961038704045, 11221.670952042456, 2667.747755974264, -19759.29972640273, -33247.54932493559, 0.0628125, -0.00719921875, 1.0262832031250002, 192.0, 0.0, 0.0, 0.0, 0.0, 0.0, 0.0, 0.0, 0.0, 0.0, 1.747689099519542E9, 0.0, 2025-05-19 23:11:39.519
184.0, 24219.41151850361, 20370.821102955473, 48396.80175743124, 32491.412161757013, 43070.69397815395, 8344.532054010875, 8537.472312149086, 2076.633522109213, 0.0, 0.0, 13242.492168246767, -17935.26326838294, 11231.326905647149, 2660.036404137183, -19774.565967865703, -33248.77867088064, 0.059406249999999994, -0.006599609375, 1.0281416015625, 192.0, 0.5, 96.0, 127.5, 104.0, 16.0, 24.0, 0.0, 0.0, 0.0, 1.747689099527461E9, 0.0, 2025-05-19 23:11:39.527
186.0, 24233.60487623273, 20385.75206825162, 48404.37899880159, 32502.47627526239, 43086.83193765068, 8327.991763113949, 8584.947417372157, 2087.4964699144925, 0.0, 0.0, 13239.251165300748, -17938.861899240244, 11210.137451903516, 2643.6525754514428, -19778.857502801122, -33268.85053740151, 0.059406249999999994, -0.006599609375, 1.0281416015625, 192.0, 0.0, 0.0, 0.0, 0.0, 0.0, 0.0, 0.0, 0.0, 0.0, 1.747689099534529E9, 0.0, 2025-05-19 23:11:39.534
188.0, 24233.470765766, 20385.394440340333, 48411.21863260492, 32504.867911919107, 43089.04476035175, 8341.603975487229, 8547.26237622051, 2072.8113738073557, 0.0, 0.0, 13262.116999878526, -17925.249686866962, 11243.352144164104, 2674.140354888482, -19753.77884552227, -33242.4978306887, 0.059406249999999994, -0.006599609375, 1.0281416015625, 192.0, 0.0, 0.0, 0.0, 0.0, 0.0, 0.0, 0.0, 0.0, 0.0, 1.747689099543549E9, 0.0, 2025-05-19 23:11:39.543
190.0, 24230.56503898681, 20380.164132137794, 48403.86490867912, 32490.18281581197, 43081.847498637144, 8328.349391025233, 8541.652088362229, 2077.549943631881, 0.0, 0.0, 13249.488264261277, -17942.30406788636, 11219.927515974941, 2635.069505580605, -19787.082944760674, -33276.360723538484, 0.059406249999999994, -0.006599609375, 1.0281416015625, 192.0, 0.0, 0.0, 0.0, 0.0, 0.0, 0.0, 0.0, 0.0, 0.0, 1.747689099551607E9, 0.0, 2025-05-19 23:11:39.551
192.0, 24242.210297848025, 20390.714155520698, 48406.1224348691, 32513.18276085648, 43095.03502786577, 8351.282280836378, 8563.601501417339, 2086.4906414140037, 0.0, 0.0, 13257.646650987464, -17926.724902001013, 11229.024675968252, 2663.2774070832024, -19762.093694459643, -33252.600819182495, 0.059406249999999994, -0.006599609375, 1.0281416015625, 192.0, 0.0, 0.0, 0.0, 0.0, 0.0, 0.0, 0.0, 0.0, 0.0, 1.74768909955862E9, 0.0, 2025-05-19 23:11:39.558
194.0, 24227.480498251974, 20375.872597202375, 48394.410120774526, 32486.785350654765, 43085.71435042791, 8337.960641141015, 8526.341143410342, 2071.3361586733054, 0.0, 0.0, 13247.275441560203, -17935.777358505413, 11232.869176014565, 2654.8507994235515, -19777.76226732281, -33255.81947038406, 0.058703124999999995, -0.0072998046875, 1.0290708007812501, 192.0, 0.5, 104.0, 127.5, 96.0, 16.0, 24.0, 0.0, 0.0, 0.0, 1.74768909956767E9, 0.0, 2025-05-19 23:11:39.567
196.0, 24235.124794855692, 20381.639347271845, 48394.186603329974, 32491.61332745711, 43089.111815585115, 8322.113254322203, 8572.273978266, 2076.678225598124, 0.0, 0.0, 13244.280307803192, -17942.393474864184, 11212.149108904494, 2637.99758410425, -19782.7690580808, -33275.8019299271, 0.058703124999999995, -0.0072998046875, 1.0290708007812501, 192.0, 0.0, 0.0, 0.0, 0.0, 0.0, 0.0, 0.0, 0.0, 0.0, 1.747689099575666E9, 0.0, 2025-05-19 23:11:39.575
198.0, 24219.79149815935, 20364.22733834116, 48383.18954505796, 32478.761074395312, 43082.85332713763, 8332.864443405204, 8532.599631857829, 2052.73950728649, 0.0, 0.0, 13244.593232225567, -17944.472187098527, 11226.565984078168, 2652.5932732335655, -19775.638851599557, -33266.28008678914, 0.058703124999999995, -0.0072998046875, 1.0290708007812501, 192.0, 0.0, 0.0, 0.0, 0.0, 0.0, 0.0, 0.0, 0.0, 0.0, 1.747689099582656E9, 0.0, 2025-05-19 23:11:39.582
200.0, 24220.26088479291, 20367.423637798267, 48382.586047957666, 32464.791234110744, 43077.935943357465, 8318.604030442719, 8538.053457504924, 2058.707423056057, 0.0, 0.0, 13226.287153516669, -17967.449780398583, 11198.000454664285, 2618.0151245612055, -19803.980863568886, -33297.23725285974, 0.058703124999999995, -0.0072998046875, 1.0290708007812501, 192.0, 0.0, 0.0, 0.0, 0.0, 0.0, 0.0, 0.0, 0.0, 0.0, 1.74768909959069E9, 0.0, 2025-05-19 23:11:39.590
202.0, 24237.248210578946, 20386.444972329733, 48397.94169639846, 32503.14682759605, 43094.05155110974, 8335.054914361825, 8567.803629374937, 2070.6656063396463, 0.0, 0.0, 13241.754560679741, -17943.153434175663, 11215.233649639327, 2649.844008665563, -19774.387153910062, -33269.43168275734, 0.058703124999999995, -0.0072998046875, 1.0290708007812501, 192.0, 0.0, 0.0, 0.0, 0.0, 0.0, 0.0, 0.0, 0.0, 0.0, 1.747689099598732E9, 0.0, 2025-05-19 23:11:39.598
204.0, 24232.80021343234, 20378.912434448295, 48395.5724114862, 32488.841711144654, 43079.81348989171, 8334.294955050344, 8534.231309203065, 2066.3740714042274, 0.0, 0.0, 13240.927546134895, -17942.63934405319, 11228.17530967895, 2649.5534359876438, -19782.143209236052, -33261.94384836481, 0.058703124999999995, -0.0072998046875, 1.0290708007812501, 192.0, 0.0, 0.0, 0.0, 0.0, 0.0, 0.0, 0.0, 0.0, 0.0, 1.747689099607826E9, 0.0, 2025-05-19 23:11:39.607
206.0, 24244.534879271374, 20398.291396891047, 48405.20601334644, 32510.43349628848, 43088.977705118385, 8346.878987178683, 8576.610216690327, 2088.345836203794, 0.0, 0.0, 13245.844929915063, -17932.84927998177, 11217.290010129216, 2651.229816821792, -19778.164598723008, -33260.15570880839, 0.058, -0.008, 1.026, 192.0, 0.5, 104.0, 127.5, 96.0, 16.0, 8.0, 0.0, 0.0, 0.0, 1.747689099614825E9, 0.0, 2025-05-19 23:11:39.614
208.0, 24233.64957972164, 20385.394440340333, 48400.24392607736, 32509.606481743635, 43086.474309739395, 8357.674879750595, 8554.92902456868, 2076.298245942384, 0.0, 0.0, 13252.5281015072, -17920.712282742534, 11241.899280774509, 2680.3094363581463, -19759.411485125005, -33233.13244976192, 0.058, -0.008, 1.026, 192.0, 0.0, 0.0, 0.0, 0.0, 0.0, 0.0, 0.0, 0.0, 0.0, 1.747689099622841E9, 0.0, 2025-05-19 23:11:39.622
210.0, 24233.046082621346, 20380.544111793533, 48394.924210897, 32489.53461522277, 43085.691998683455, 8340.978126642482, 8556.918329825203, 2080.0086355219646, 0.0, 0.0, 13236.993639110762, -17939.957134718556, 11216.708864773378, 2643.80903766263, -19787.552331394236, -33265.29661003311, 0.058, -0.008, 1.026, 192.0, 0.0, 0.0, 0.0, 0.0, 0.0, 0.0, 0.0, 0.0, 0.0, 1.747689099631926E9, 0.0, 2025-05-19 23:11:39.631
212.0, 24248.51348978442, 20398.403155613323, 48404.043722634764, 32512.869836434107, 43100.77942619079, 8356.55729252783, 8572.341033499364, 2078.891048299199, 0.0, 0.0, 13254.71857246382, -17925.16027988914, 11231.013981224774, 2667.5018867852555, -19760.216147925395, -33247.77284238015, 0.058, -0.008, 1.026, 192.0, 0.0, 0.0, 0.0, 0.0, 0.0, 0.0, 0.0, 0.0, 0.0, 1.74768909963891E9, 0.0, 2025-05-19 23:11:39.638
214.0, 24242.90320192614, 20395.02804220057, 48396.19826033095, 32488.037048344264, 43087.7707109178, 8349.449437791043, 8518.048646217423, 2059.1544579451634, 0.0, 0.0, 13250.874072417508, -17933.676294526613, 11239.686458073433, 2655.968386646317, -19777.38228766707, -33256.57942969554, 0.058, -0.008, 1.026, 192.0, 0.0, 0.0, 0.0, 0.0, 0.0, 0.0, 0.0, 0.0, 0.0, 1.74768909964694E9, 0.0, 2025-05-19 23:11:39.646
216.0, 24249.519318284907, 20397.486734090657, 48400.04276037726, 32499.950528138943, 43104.154539603536, 8338.497083007942, 8571.737536399072, 2069.6821295836126, 0.0, 0.0, 13250.494092761766, -17938.057236439854, 11220.307495630681, 2640.746848672253, -19784.132514492576, -33275.041970615624, 0.062, -0.008, 1.03, 192.0, 0.5, 120.0, 127.5, 96.0, 16.0, 24.0, 0.0, 0.0, 0.0, 1.747689099657046E9, 0.0, 2025-05-19 23:11:39.657
218.0, 24234.3201320553, 20381.572292038476, 48391.72791143989, 32495.323717036692, 43098.45484476744, 8342.207472587523, 8530.54327136794, 2052.515989841937, 0.0, 0.0, 13253.198653840858, -17929.250649124464, 11239.820568540164, 2662.4950960272668, -19768.843921285144, -33252.93609534932, 0.062, -0.008, 1.03, 192.0, 0.0, 0.0, 0.0, 0.0, 0.0, 0.0, 0.0, 0.0, 0.0, 1.747689099664037E9, 0.0, 2025-05-19 23:11:39.664
220.0, 24232.330826798778, 20384.232149628657, 48388.33044628268, 32482.359705252613, 43087.83776615116, 8327.276507291377, 8524.843576531837, 2063.8483242807774, 0.0, 0.0, 13235.227851298792, -17950.30599240136, 11211.322094359648, 2623.5360054416665, -19802.34918622365, -33285.16731085388, 0.062, -0.008, 1.03, 192.0, 0.0, 0.0, 0.0, 0.0, 0.0, 0.0, 0.0, 0.0, 0.0, 1.74768909967103E9, 0.0, 2025-05-19 23:11:39.671
222.0, 24241.875021681193, 20385.014460684593, 48400.623905733104, 32514.792086457266, 43102.880490169584, 8350.164693613613, 8563.288576994966, 2075.8065075643667, 0.0, 0.0, 13248.124807849505, -17932.871631726222, 11222.520318331757, 2659.835238437085, -19768.508645118316, -33254.23249652774, 0.062, -0.008, 1.03, 192.0, 0.0, 0.0, 0.0, 0.0, 0.0, 0.0, 0.0, 0.0, 0.0, 1.747689099679046E9, 0.0, 2025-05-19 23:11:39.679
224.0, 24226.295855795845, 20371.290489589035, 48399.05928362123, 32498.14003683806, 43092.79985342024, 8348.912995924115, 8542.836730818359, 2078.131088987719, 0.0, 0.0, 13242.559223480133, -17933.318666615327, 11234.299687659704, 2659.4999622702558, -19773.42602889848, -33250.41034822587, 0.062, -0.008, 1.03, 192.0, 0.0, 0.0, 0.0, 0.0, 0.0, 0.0, 0.0, 0.0, 0.0, 1.74768909968708E9, 0.0, 2025-05-19 23:11:39.687
226.0, 24238.455204779533, 20388.188408397247, 48403.59668774566, 32509.96410965492, 43102.120530858105, 8349.672955235596, 8592.055272108946, 2093.12910951723, 0.0, 0.0, 13249.935299150384, -17928.580096790804, 11221.715655531367, 2654.9849098902837, -19767.97220325139, -33258.05464482959, 0.058, -0.006, 1.03, 192.0, 0.5, 104.0, 127.5, 104.0, 16.0, 24.0, 0.0, 0.0, 0.0, 1.747689099695077E9, 0.0, 2025-05-19 23:11:39.695
228.0, 24230.788556431362, 20378.286585603546, 48398.96987664341, 32506.81251368672, 43097.91840290051, 8365.18506588758, 8564.495571195552, 2074.621865108236, 0.0, 0.0, 13255.545587008666, -17925.40614907815, 11242.994516252818, 2677.0460816676714, -19753.35416237762, -33238.36275796447, 0.058, -0.006, 1.03, 192.0, 0.0, 0.0, 0.0, 0.0, 0.0, 0.0, 0.0, 0.0, 0.0, 1.747689099703106E9, 0.0, 2025-05-19 23:11:39.703
230.0, 24233.2696000659, 20380.90173970482, 48399.7745394438, 32494.00496411383, 43097.04668486675, 8336.12779809568, 8560.338146726865, 2077.996978520987, 0.0, 0.0, 13243.497996747255, -17939.666562040635, 11221.402731108992, 2645.708935941331, -19778.879854545576, -33265.94481062231, 0.058, -0.006, 1.03, 192.0, 0.0, 0.0, 0.0, 0.0, 0.0, 0.0, 0.0, 0.0, 0.0, 1.747689099711152E9, 0.0, 2025-05-19 23:11:39.711
232.0, 24257.744760244463, 20402.27000740409, 48408.2234988479, 32520.357670826637, 43113.028182152295, 8358.859522206727, 8576.78903064597, 2083.9872460350093, 0.0, 0.0, 13262.116999878526, -17922.768643232423, 11234.79142603772, 2673.201581621359, -19752.370685621583, -33244.978874323235, 0.058, -0.006, 1.03, 192.0, 0.0, 0.0, 0.0, 0.0, 0.0, 0.0, 0.0, 0.0, 0.0, 1.747689099719214E9, 0.0, 2025-05-19 23:11:39.719
234.0, 24225.580599973277, 20373.6597745013, 48403.66374297902, 32503.124475851593, 43101.226461079896, 8353.070420392802, 8533.583108613862, 2067.066975482342, 0.0, 0.0, 13259.278328332703, -17921.87457345421, 11247.800141310709, 2666.1384303734817, -19766.608746839614, -33245.38120572343, 0.058, -0.006, 1.03, 192.0, 0.0, 0.0, 0.0, 0.0, 0.0, 0.0, 0.0, 0.0, 0.0, 1.747689099726387E9, 0.0, 2025-05-19 23:11:39.726
236.0, 24235.75064370044, 20383.293376361537, 48406.68122848049, 32513.406278301038, 43109.09427512816, 8364.55921704283, 8588.970731374113, 2092.704426372579, 0.0, 0.0, 13253.153950351949, -17927.529564801403, 11223.973181721352, 2653.196770333859, -19768.128665462573, -33259.28399077463, 0.06, -0.008, 1.03, 192.0, 0.5, 112.0, 127.5, 96.0, 16.0, 24.0, 0.0, 0.0, 0.0, 1.747689099735357E9, 0.0, 2025-05-19 23:11:39.735
238.0, 24217.60102720273, 20372.385725067346, 48405.76480695782, 32515.01560390182, 43105.42858903749, 8379.512534083431, 8552.336222211865, 2081.863830311755, 0.0, 0.0, 13264.754505724253, -17915.12434662871, 11253.27631870226, 2679.9294567024062, -19749.464958842393, -33233.646539884394, 0.06, -0.008, 1.03, 192.0, 0.0, 0.0, 0.0, 0.0, 0.0, 0.0, 0.0, 0.0, 0.0, 1.747689099743321E9, 0.0, 2025-05-19 23:11:39.743
240.0, 24210.35906199921, 20364.65202148581, 48399.72983595489, 32497.983574626873, 43101.94171690247, 8362.055821663836, 8560.315794982409, 2084.478984413026, 0.0, 0.0, 13245.889633403975, -17932.715169515035, 11226.387170122525, 2643.943148129362, -19779.68451734597, -33264.849575144006, 0.06, -0.008, 1.03, 192.0, 0.0, 0.0, 0.0, 0.0, 0.0, 0.0, 0.0, 0.0, 0.0, 1.747689099751457E9, 0.0, 2025-05-19 23:11:39.751
242.0, 24214.203562045524, 20370.821102955473, 48404.15548135704, 32520.178856870993, 43109.96599316192, 8376.405641604142, 8579.113612069323, 2085.082481513319, 0.0, 0.0, 13257.512540520733, -17919.393529819674, 11234.970239993363, 2669.0218054082166, -19754.13647343355, -33247.52697319114, 0.06, -0.008, 1.03, 192.0, 0.0, 0.0, 0.0, 0.0, 0.0, 0.0, 0.0, 0.0, 0.0, 1.747689099759397E9, 0.0, 2025-05-19 23:11:39.759
244.0, 24203.74294564044, 20360.44989352821, 48395.61711497511, 32503.52680725179, 43092.30811504223, 8367.08496416628, 8540.042762761446, 2075.7618040754564, 0.0, 0.0, 13246.202557826347, -17925.65201826716, 11239.708809817888, 2657.1530291024483, -19772.844883542646, -33250.522106948156, 0.06, -0.008, 1.03, 192.0, 0.0, 0.0, 0.0, 0.0, 0.0, 0.0, 0.0, 0.0, 0.0, 1.747689099767334E9, 0.0, 2025-05-19 23:11:39.767
246.0, 24218.070413836293, 20379.42652457077, 48402.90378366754, 32519.553008026247, 43101.226461079896, 8377.94791197156, 8592.502306998053, 2097.3088857303724, 0.0, 0.0, 13251.388162539979, -17916.35369257375, 11228.801158523698, 2654.00143313425, -19769.20154919643, -33254.05368257209, 0.056, -0.006, 1.03, 192.0, 0.5, 96.0, 127.5, 104.0, 16.0, 24.0, 0.0, 0.0, 0.0, 1.747689099775436E9, 0.0, 2025-05-19 23:11:39.775
248.0, 24207.94507359804, 20371.961041922696, 48394.43247251898, 32514.367403312615, 43094.61034472112, 8387.961493487537, 8557.544178669952, 2083.540211145903, 0.0, 0.0, 13254.226834085803, -17913.31385532783, 11247.196644210417, 2676.733157245297, -19753.376514122072, -33233.735946862216, 0.056, -0.006, 1.03, 192.0, 0.0, 0.0, 0.0, 0.0, 0.0, 0.0, 0.0, 0.0, 0.0, 1.747689099782457E9, 0.0, 2025-05-19 23:11:39.782
250.0, 24212.4154224891, 20377.012536169594, 48394.16425158552, 32508.86887417661, 43087.502489984334, 8380.473659095009, 8568.78710613097, 2102.2709729994504, 0.0, 0.0, 13235.876051887995, -17927.797785734867, 11223.928478232441, 2645.194845818859, -19782.52318889179, -33257.02646458465, 0.056, -0.006, 1.03, 192.0, 0.0, 0.0, 0.0, 0.0, 0.0, 0.0, 0.0, 0.0, 0.0, 1.747689099791493E9, 0.0, 2025-05-19 23:11:39.791
252.0, 24223.41248076111, 20389.864789231397, 48395.594763230656, 32527.666691263523, 43098.25367906734, 8397.595095347773, 8586.13205982829, 2100.41577820966, 0.0, 0.0, 13252.975136396306, -17905.44604127956, 11239.708809817888, 2674.542686288677, -19754.359990878107, -33232.99833929519, 0.056, -0.006, 1.03, 192.0, 0.0, 0.0, 0.0, 0.0, 0.0, 0.0, 0.0, 0.0, 0.0, 1.747689099799473E9, 0.0, 2025-05-19 23:11:39.799
254.0, 24210.94020735505, 20377.97366118117, 48386.5199549818, 32501.112818850615, 43084.55205971623, 8389.146135943667, 8547.150617498233, 2085.373054191238, 0.0, 0.0, 13240.882842645984, -17917.73950072998, 11239.977030751352, 2658.0247471362054, -19775.97412776639, -33246.00705456818, 0.056, -0.006, 1.03, 192.0, 0.0, 0.0, 0.0, 0.0, 0.0, 0.0, 0.0, 0.0, 0.0, 1.747689099806577E9, 0.0, 2025-05-19 23:11:39.806
0.0, 24228.620437219197, 20402.292359148545, 48398.81341443222, 32521.095278393663, 43101.04764712425, 8395.024644735413, 8592.79287967597, 2103.388560222216, 0.0, 0.0, 13244.302659547648, -17914.610256506236, 11224.196699165905, 2648.2346830647807, -19776.15294172203, -33257.361740751476, 0.058, -0.012, 1.036, 192.0, 0.5, 104.0, 127.5, 80.0, 16.0, 48.0, 0.0, 0.0, 0.0, 1.747689099814547E9, 0.0, 2025-05-19 23:11:39.814
2.0, 24220.819678404296, 20393.75399276662, 48393.73956844087, 32518.658938248034, 43101.04764712425, 8406.826365807816, 8553.230291990078, 2079.9415802885987, 0.0, 0.0, 13255.34442130857, -17901.15450634414, 11253.991574524829, 2675.3697008335234, -19755.365819378596, -33232.17132475034, 0.058, -0.012, 1.036, 192.0, 0.0, 0.0, 0.0, 0.0, 0.0, 0.0, 0.0, 0.0, 0.0, 1.747689099823576E9, 0.0, 2025-05-19 23:11:39.823
4.0, 24219.545628970343, 20390.602396798422, 48390.29739979475, 32503.504455507336, 43097.784292433775, 8391.940104000581, 8554.392582701754, 2088.3011327148834, 0.0, 0.0, 13239.653496700943, -17917.851259452254, 11229.717580046366, 2636.745886414753, -19789.899264562042, -33264.89427863291, 0.058, -0.012, 1.036, 192.0, 0.0, 0.0, 0.0, 0.0, 0.0, 0.0, 0.0, 0.0, 0.0, 1.747689099831645E9, 0.0, 2025-05-19 23:11:39.831
6.0, 24226.072338351292, 20399.27487364708, 48400.15451909954, 32528.20313313045, 43117.11855138762, 8406.625200107717, 8572.497495710551, 2087.340007703305, 0.0, 0.0, 13256.596118998066, -17899.813401676824, 11245.140283720528, 2666.071375140116, -19758.942098491443, -33241.53670567712, 0.058, -0.012, 1.036, 192.0, 0.0, 0.0, 0.0, 0.0, 0.0, 0.0, 0.0, 0.0, 0.0, 1.747689099838695E9, 0.0, 2025-05-19 23:11:39.838
8.0, 24222.74192842745, 20390.46828633169, 48396.91351615352, 32508.44419103196, 43107.507301271835, 8392.029510978402, 8544.535463396962, 2079.9862837775095, 0.0, 0.0, 13251.81284568463, -17912.531544271893, 11250.83997855663, 2654.224950578803, -19776.219996955395, -33249.38216798093, 0.058, -0.012, 1.036, 192.0, 0.0, 0.0, 0.0, 0.0, 0.0, 0.0, 0.0, 0.0, 0.0, 1.74768909984671E9, 0.0, 2025-05-19 23:11:39.846
10.0, 24243.014960648416, 20410.115469707904, 48411.28568783828, 32533.00875818834, 43120.180740378, 8394.689368568585, 8594.201039576656, 2102.1815660216294, 0.0, 0.0, 13262.318165578625, -17901.310968555328, 11245.922594776464, 2656.4377732798785, -19769.112142218608, -33250.45505171479, 0.054, -0.006, 1.028, 192.0, 0.5, 88.0, 127.5, 104.0, 16.0, 16.0, 0.0, 0.0, 0.0, 1.747689099855697E9, 0.0, 2025-05-19 23:11:39.855
12.0, 24230.162707586613, 20398.067879446495, 48406.74828371385, 32533.54520005527, 43116.447999053955, 8403.540659372886, 8565.188475273666, 2090.4469001825933, 0.0, 0.0, 13273.00229942826, -17890.336262027773, 11271.560045666702, 2690.2336108963027, -19748.14620591953, -33219.96727227775, 0.054, -0.006, 1.028, 192.0, 0.0, 0.0, 0.0, 0.0, 0.0, 0.0, 0.0, 0.0, 0.0, 1.74768909986349E9, 0.0, 2025-05-19 23:11:39.863
14.0, 24230.095652353248, 20393.508123577612, 48401.54032725577, 32518.614234759123, 43110.234214095384, 8391.202496433556, 8568.183609030677, 2097.9347345751207, 0.0, 0.0, 13254.204482341347, -17908.485878525484, 11244.805007553698, 2660.170514603915, -19775.90707253302, -33244.53183943413, 0.054, -0.006, 1.028, 192.0, 0.0, 0.0, 0.0, 0.0, 0.0, 0.0, 0.0, 0.0, 0.0, 1.747689099870731E9, 0.0, 2025-05-19 23:11:39.870
16.0, 24237.471728023498, 20402.337062637456, 48402.56850750071, 32541.122441425618, 43117.00679266534, 8407.85454605276, 8595.162164588233, 2107.121301546252, 0.0, 0.0, 13264.419229557423, -17894.40427951864, 11253.991574524829, 2690.5912388075876, -19745.35223786262, -33219.252016455175, 0.054, -0.006, 1.028, 192.0, 0.0, 0.0, 0.0, 0.0, 0.0, 0.0, 0.0, 0.0, 0.0, 1.747689099878846E9, 0.0, 2025-05-19 23:11:39.878
18.0, 24223.814812161305, 20393.508123577612, 48393.09136785166, 32518.10014463665, 43101.360571546626, 8404.322970428822, 8558.639414148261, 2106.6295631682356, 0.0, 0.0, 13244.995563625762, -17909.871686681712, 11248.89537678902, 2677.0460816676714, -19764.082999716164, -33225.264635713655, 0.054, -0.006, 1.028, 192.0, 0.0, 0.0, 0.0, 0.0, 0.0, 0.0, 0.0, 0.0, 0.0, 1.747689099887876E9, 0.0, 2025-05-19 23:11:39.887
20.0, 24228.687492452562, 20396.235036401158, 48388.19633581595, 32521.00587141584, 43106.85910068263, 8399.763214559938, 8599.744272201571, 2116.732551662034, 0.0, 0.0, 13244.61558397002, -17908.128250614198, 11232.779769036742, 2669.513543786233, -19762.63013632657, -33232.37249045044, 0.054, -0.01, 1.028, 192.0, 0.5, 88.0, 127.5, 88.0, 16.0, 16.0, 0.0, 0.0, 0.0, 1.747689099894982E9, 0.0, 2025-05-19 23:11:39.894
22.0, 24218.584503958762, 20375.716134991188, 48377.51220196631, 32512.75807771183, 43104.66862972601, 8404.61354310674, 8562.103934538834, 2101.7792346214337, 0.0, 0.0, 13238.401799011446, -17914.274980339407, 11243.396847653014, 2678.700110757364, -19762.697191559935, -33221.8895223009, 0.054, -0.01, 1.028, 192.0, 0.0, 0.0, 0.0, 0.0, 0.0, 0.0, 0.0, 0.0, 0.0, 1.747689099902912E9, 0.0, 2025-05-19 23:11:39.902
24.0, 24211.543704455344, 20372.966870423184, 48377.89218162205, 32502.34216479566, 43103.90867041453, 8391.537772600386, 8588.434289507186, 2123.192205809618, 0.0, 0.0, 13220.654513913933, -17929.273000868918, 11216.015960695262, 2648.547607487155, -19786.34533719365, -33246.319978990556, 0.054, -0.01, 1.028, 192.0, 0.0, 0.0, 0.0, 0.0, 0.0, 0.0, 0.0, 0.0, 0.0, 1.747689099910928E9, 0.0, 2025-05-19 23:11:39.910
26.0, 24219.70209118153, 20386.757896752108, 48392.8231469182, 32528.896037208564, 43118.7278769884, 8418.493976413487, 8612.41771130773, 2123.415723254171, 0.0, 0.0, 13243.833272914086, -17908.083547125287, 11232.958582992385, 2682.38814859249, -19749.42025535348, -33221.487190900705, 0.054, -0.01, 1.028, 192.0, 0.0, 0.0, 0.0, 0.0, 0.0, 0.0, 0.0, 0.0, 0.0, 1.747689099918978E9, 0.0, 2025-05-19 23:11:39.918
28.0, 24215.857591135216, 20377.258405358603, 48384.888277636564, 32501.269281061803, 43112.00000190735, 8397.684502325596, 8568.094202052856, 2102.896821844199, 0.0, 0.0, 13233.462063486822, -17925.048521166864, 11232.533899847735, 2668.351253074557, -19767.30165091773, -33232.86422882846, 0.054, -0.01, 1.028, 192.0, 0.0, 0.0, 0.0, 0.0, 0.0, 0.0, 0.0, 0.0, 0.0, 1.74768909992701E9, 0.0, 2025-05-19 23:11:39.927
30.0, 24239.639847235663, 20402.89585624884, 48401.026237133294, 32523.53161853929, 43130.88722597209, 8403.786528561894, 8614.786996219993, 2122.208729053584, 0.0, 0.0, 13245.487302003778, -17916.711320485036, 11225.135472433029, 2665.8925611844734, -19759.500892102827, -33239.189772509315, 0.056, -0.012, 1.024, 192.0, 0.5, 96.0, 127.5, 80.0, 16.0, 0.0, 0.0, 0.0, 0.0, 1.747689099934982E9, 0.0, 2025-05-19 23:11:39.934
32.0, 24236.28708556737, 20403.85698126042, 48393.58310622968, 32515.954377168942, 43132.451848083954, 8408.99448501998, 8572.206923032632, 2100.8628130987663, 0.0, 0.0, 13257.803113198652, -17905.423689535106, 11254.03627801374, 2688.6913405288865, -19744.033484939755, -33217.57563562103, 0.056, -0.012, 1.024, 192.0, 0.0, 0.0, 0.0, 0.0, 0.0, 0.0, 0.0, 0.0, 0.0, 1.747689099943116E9, 0.0, 2025-05-19 23:11:39.943
34.0, 24232.97902738798, 20400.079536447472, 48389.023350360796, 32500.397563028047, 43122.84059796818, 8392.811822034339, 8573.928007355691, 2102.1368625327186, 0.0, 0.0, 13235.540775721167, -17930.21177413604, 11221.447434597903, 2641.6632701949206, -19785.83124707118, -33258.83695588553, 0.056, -0.012, 1.024, 192.0, 0.0, 0.0, 0.0, 0.0, 0.0, 0.0, 0.0, 0.0, 0.0, 1.747689099951084E9, 0.0, 2025-05-19 23:11:39.951
36.0, 24239.148108857647, 20409.4672691187, 48405.54128951327, 32537.903790224052, 43132.58595855069, 8409.419168164632, 8606.315685071431, 2114.407970238682, 0.0, 0.0, 13256.171435853415, -17903.076756367296, 11242.279260430249, 2683.5280875597105, -19745.396941351526, -33223.43179266832, 0.056, -0.012, 1.024, 192.0, 0.0, 0.0, 0.0, 0.0, 0.0, 0.0, 0.0, 0.0, 0.0, 1.747689099959096E9, 0.0, 2025-05-19 23:11:39.959
38.0, 24244.31136182682, 20413.93761800976, 48399.10398711014, 32518.502476036847, 43119.3760775776, 8408.212173964044, 8565.568454929407, 2107.6800951576347, 0.0, 0.0, 13252.550453251655, -17903.657901723134, 11255.84676931462, 2681.8964102144732, -19752.28127864376, -33221.509542645166, 0.056, -0.012, 1.024, 192.0, 0.0, 0.0, 0.0, 0.0, 0.0, 0.0, 0.0, 0.0, 0.0, 1.747689099967102E9, 0.0, 2025-05-19 23:11:39.967
40.0, 24265.210242892535, 20437.697522365754, 48406.77063545831, 32533.76871749982, 43125.32164160271, 8407.608676863752, 8613.311781085942, 2124.823883154855, 0.0, 0.0, 13252.729267207298, -17902.763831944925, 11239.306478417693, 2673.6933199993755, -19752.080112943666, -33232.10426951698, 0.056, -0.002, 1.022, 192.0, 0.5, 96.0, 127.5, 120.0, 15.5, 120.0, 0.0, 0.0, 0.0, 1.747689099975136E9, 0.0, 2025-05-19 23:11:39.975
42.0, 24253.74379798696, 20432.66837986331, 48398.746359198856, 32530.885342465088, 43123.48879855738, 8422.405531693164, 8574.84442887836, 2106.7189701460566, 0.0, 0.0, 13263.122828379015, -17891.58795971727, 11265.435667685946, 2699.8225092676294, -19733.975199934866, -33206.2880046711, 0.056, -0.002, 1.022, 192.0, 0.0, 0.0, 0.0, 0.0, 0.0, 0.0, 0.0, 0.0, 0.0, 1.747689099983118E9, 0.0, 2025-05-19 23:11:39.983
44.0, 24261.14222540167, 20434.814147331017, 48396.60059173115, 32513.76390621232, 43121.4771415564, 8403.741825072984, 8577.057251579434, 2111.479891715037, 0.0, 0.0, 13243.90032814745, -17915.727843729, 11236.154882449495, 2657.2424360802697, -19771.05674398622, -33242.43077545533, 0.056, -0.002, 1.022, 192.0, 0.0, 0.0, 0.0, 0.0, 0.0, 0.0, 0.0, 0.0, 0.0, 1.747689099991142E9, 0.0, 2025-05-19 23:11:39.991
