%OpenBCI Raw EXG Data
%Number of channels = 16
%Sample Rate = 125 Hz
%Board = OpenBCI_GUI$BoardCytonSerialDaisy
Sample Index, EXG Channel 0, EXG Channel 1, EXG Channel 2, EXG Channel 3, EXG Channel 4, EXG Channel 5, EXG Channel 6, EXG Channel 7, EXG Channel 8, EXG Channel 9, EXG Channel 10, EXG Channel 11, EXG Channel 12, EXG Channel 13, EXG Channel 14, EXG Channel 15, Accel Channel 0, Accel Channel 1, Accel Channel 2, Not Used, Digital Channel 0 (D11), Digital Channel 1 (D12), Digital Channel 2 (D13), Digital Channel 3 (D17), Not Used, Digital Channel 4 (D18), Analog Channel 0, Analog Channel 1, Analog Channel 2, Timestamp, Marker Channel, Timestamp (Formatted)
106.0, 23283.521626415448, 19457.28295532262, 48828.257480652035, 33634.301559245774, 46621.06741917937, 4649.296957170601, 8323.432007245065, 3786.6090281735696, 0.0, 0.0, 10683.999739170044, -22188.91199695015, 14278.316709794606, 4372.917636980729, -13685.816667773328, -32490.898071634543, 0.0, 0.0, 0.0, 192.0, 0.0, 0.0, 0.0, 0.0, 0.0, 0.0, 0.0, 0.0, 0.0, 1.747690180810238E9, 0.0, 2025-05-19 23:29:40.810
0.0, 11398.294436728293, 9659.328718105402, 24357.657057959685, 16765.93175720355, 22967.512663306316, 2007.678390464591, 4173.584779928301, 1831.8148650902351, 0.0, 0.0, 5334.377924725763, -11091.807316757122, 7141.024725559321, 2187.7440437965447, -6844.081800470567, -16243.54913753857, 0.056, -0.006, 1.034, 192.0, 0.5, 96.0, 127.5, 104.0, 16.0, 40.0, 0.0, 0.0, 0.0, 1.747690180886782E9, 0.0, 2025-05-19 23:29:40.886
2.0, 22795.65010018946, 19316.757537932102, 48717.12460722025, 33545.185154102466, 45928.56567246505, 4083.1719736065834, 8334.3173067948, 3656.4548202103165, 0.0, 0.0, 10437.415294339096, -22472.153302687802, 14336.45359712286, 4355.393869327769, -13203.667188127898, -32470.66974290249, 0.056, -0.006, 1.034, 192.0, 0.0, 0.0, 0.0, 0.0, 0.0, 0.0, 0.0, 0.0, 0.0, 1.747690180893837E9, 0.0, 2025-05-19 23:29:40.893
4.0, 22791.023289087214, 19314.365901275385, 48705.72521754804, 33525.1132875816, 45900.69304712928, 4032.32175497076, 8330.383399770666, 3643.826084593068, 0.0, 0.0, 10430.218032624487, -22478.970584746672, 14333.92784999941, 4343.703906977643, -13222.4203017259, -32476.414141227502, 0.056, -0.006, 1.034, 192.0, 0.0, 0.0, 0.0, 0.0, 0.0, 0.0, 0.0, 0.0, 0.0, 1.747690180900848E9, 0.0, 2025-05-19 23:29:40.900
6.0, 22800.969815369823, 19323.798337435524, 48726.31117419138, 33544.268732579796, 45947.989338396714, 4081.920275917086, 8346.253138333934, 3659.8746371119782, 0.0, 0.0, 10433.190814637044, -22471.25923290959, 14324.853041750555, 4338.540654008467, -13223.023798826194, -32485.19837679844, 0.056, -0.006, 1.034, 192.0, 0.0, 0.0, 0.0, 0.0, 0.0, 0.0, 0.0, 0.0, 0.0, 1.747690180908922E9, 0.0, 2025-05-19 23:29:40.908
8.0, 22799.69576593587, 19324.625351980372, 48719.471540388055, 33545.40867154702, 45944.43541102832, 4061.714298929489, 8312.345541995233, 3648.542302673138, 0.0, 0.0, 10446.713620032504, -22463.704343283694, 14352.300983941674, 4362.524075809011, -13198.481583414268, -32460.656161386512, 0.054, -0.002, 1.03, 192.0, 0.5, 88.0, 127.5, 120.0, 16.0, 24.0, 0.0, 0.0, 0.0, 1.747690180916937E9, 0.0, 2025-05-19 23:29:40.916
10.0, 22800.902760136458, 19325.698235714226, 48721.93023227814, 33531.37177602908, 45947.34113780751, 4058.830923894754, 8328.59526021424, 3654.1749422758753, 0.0, 0.0, 10436.58827979425, -22469.739314286628, 14330.239812164285, 4329.689363204166, -13231.04807508565, -32489.08758033366, 0.054, -0.002, 1.03, 192.0, 0.0, 0.0, 0.0, 0.0, 0.0, 0.0, 0.0, 0.0, 0.0, 1.747690180923971E9, 0.0, 2025-05-19 23:29:40.923
12.0, 22806.423641016918, 19327.2628578261, 48724.27716544595, 33553.16472687301, 45952.61614949896, 4069.6491682111227, 8328.259984047412, 3653.012651564199, 0.0, 0.0, 10447.853558999725, -22460.53039557104, 14348.300021684174, 4354.835075716385, -13200.381481692968, -32470.066245802194, 0.054, -0.002, 1.03, 192.0, 0.0, 0.0, 0.0, 0.0, 0.0, 0.0, 0.0, 0.0, 0.0, 1.747690180934082E9, 0.0, 2025-05-19 23:29:40.934
14.0, 22796.90179787896, 19318.16569783279, 48711.49196761751, 33524.50979048131, 45936.85816965797, 4034.9816125609414, 8306.668198903584, 3641.568558403082, 0.0, 0.0, 10442.39973335263, -22468.085285196936, 14345.260184438252, 4339.680592975687, -13226.354208750035, -32477.554080194725, 0.054, -0.002, 1.03, 192.0, 0.0, 0.0, 0.0, 0.0, 0.0, 0.0, 0.0, 0.0, 0.0, 1.74769018094207E9, 0.0, 2025-05-19 23:29:40.942
16.0, 22792.297338521166, 19312.890686141334, 48714.04006648542, 33527.32611028267, 45934.80180916808, 4026.3314874567377, 8334.898452150637, 3651.9621195747995, 0.0, 0.0, 10438.868157728692, -22480.334041158443, 14322.55081207166, 4329.018810870506, -13224.878993615985, -32496.933042637476, 0.054, -0.002, 1.03, 192.0, 0.0, 0.0, 0.0, 0.0, 0.0, 0.0, 0.0, 0.0, 0.0, 1.747690180948094E9, 0.0, 2025-05-19 23:29:40.948
18.0, 22793.593739699572, 19314.075328597468, 48708.63094432723, 33533.15991558551, 45939.58508248151, 4066.3634617761927, 8315.877117619171, 3641.1885787473416, 0.0, 0.0, 10437.884680972658, -22476.377782389856, 14343.114416970542, 4352.1752181262045, -13209.970380064295, -32470.982667324864, 0.058, -0.004, 1.036, 192.0, 0.5, 104.0, 127.5, 112.0, 16.0, 48.0, 0.0, 0.0, 0.0, 1.747690180956108E9, 0.0, 2025-05-19 23:29:40.956
20.0, 22788.60930068604, 19311.326064029465, 48699.891412245204, 33512.7080694089, 45933.103076589476, 4025.3033072117937, 8329.958716626015, 3640.4509711803166, 0.0, 0.0, 10413.856555683204, -22490.325270929967, 14310.123242154508, 4313.931383363174, -13244.034438614182, -32505.449057274946, 0.058, -0.004, 1.036, 192.0, 0.0, 0.0, 0.0, 0.0, 0.0, 0.0, 0.0, 0.0, 0.0, 1.747690180965135E9, 0.0, 2025-05-19 23:29:40.965
22.0, 22788.251672774753, 19309.314407028487, 48705.3452378923, 33532.4670115074, 45930.97966086622, 4050.672537168567, 8339.70407720853, 3647.603529406015, 0.0, 0.0, 10431.402675080619, -22480.44579988072, 14328.921059241422, 4341.066401131917, -13212.85375509903, -32484.773693653788, 0.058, -0.004, 1.036, 192.0, 0.0, 0.0, 0.0, 0.0, 0.0, 0.0, 0.0, 0.0, 0.0, 1.747690180972185E9, 0.0, 2025-05-19 23:29:40.972
24.0, 22788.497541963763, 19310.454345995706, 48708.31801990486, 33524.21921780339, 45934.26536730115, 4071.839639167743, 8294.128870264158, 3645.278947982663, 0.0, 0.0, 10416.672875484572, -22492.22516920867, 14321.83555624909, 4323.9449648791515, -13242.04513335766, -32494.206129813927, 0.058, -0.004, 1.036, 192.0, 0.0, 0.0, 0.0, 0.0, 0.0, 0.0, 0.0, 0.0, 0.0, 1.7476901809802E9, 0.0, 2025-05-19 23:29:40.980
26.0, 22791.537379209683, 19317.651607710315, 48723.56190962338, 33546.570962258695, 45931.985489366714, 4060.194380306528, 8348.175388357091, 3670.245846539241, 0.0, 0.0, 10433.079055914766, -22469.135817186336, 14326.9317539849, 4344.329755822391, -13210.864449842507, -32480.07982731817, 0.058, -0.004, 1.036, 192.0, 0.0, 0.0, 0.0, 0.0, 0.0, 0.0, 0.0, 0.0, 0.0, 1.747690180989246E9, 0.0, 2025-05-19 23:29:40.989
28.0, 22787.961100096836, 19314.209439064198, 48714.576508352344, 33545.028691891275, 45927.85041664248, 4060.395546006626, 8324.191966556546, 3655.761916132202, 0.0, 0.0, 10438.219957139489, -22467.21356716318, 14348.568242617637, 4364.468677576623, -13199.263894470203, -32457.99630379633, 0.06, -0.004, 1.036, 192.0, 0.5, 112.0, 127.5, 112.0, 16.0, 48.0, 0.0, 0.0, 0.0, 1.747690180996294E9, 0.0, 2025-05-19 23:29:40.996
30.0, 22796.70063217886, 19321.339645545442, 48722.73489507853, 33537.339691798654, 45936.23232081322, 4043.385868476137, 8341.760437698416, 3661.6404249239476, 0.0, 0.0, 10431.201509380522, -22470.58868057593, 14326.12709118451, 4338.115970863816, -13223.157909292926, -32481.33152500767, 0.06, -0.004, 1.036, 192.0, 0.0, 0.0, 0.0, 0.0, 0.0, 0.0, 0.0, 0.0, 0.0, 1.747690181004367E9, 0.0, 2025-05-19 23:29:41.004
32.0, 22786.55294019615, 19310.856677395903, 48716.811682797874, 33546.03452039177, 45942.401402282885, 4056.1040110712065, 8326.382437513166, 3656.7677446326907, 0.0, 0.0, 10438.532881561861, -22469.62755556435, 14340.387504146995, 4361.406488586246, -13196.13465024646, -32464.791234110744, 0.06, -0.004, 1.036, 192.0, 0.0, 0.0, 0.0, 0.0, 0.0, 0.0, 0.0, 0.0, 0.0, 1.747690181013353E9, 0.0, 2025-05-19 23:29:41.013
34.0, 22794.957196111347, 19321.786680434547, 48717.102255475795, 33536.82560167618, 45944.45776277277, 4065.6929094425336, 8317.844071131238, 3650.8668840964897, 0.0, 0.0, 10433.168462892589, -22476.042506223024, 14338.331143657106, 4351.14703788126, -13212.47377544329, -32468.94865857943, 0.06, -0.004, 1.036, 192.0, 0.0, 0.0, 0.0, 0.0, 0.0, 0.0, 0.0, 0.0, 0.0, 1.74769018102041E9, 0.0, 2025-05-19 23:29:41.020
36.0, 22798.377013013007, 19321.04907286752, 48717.392828153716, 33546.72742446988, 45934.287719045606, 4067.9504356325197, 8362.681670508584, 3661.215741779297, 0.0, 0.0, 10432.520262303384, -22466.54301482952, 14329.41279761944, 4344.3744593113015, -13214.731301633276, -32477.174100538985, 0.06, -0.004, 1.036, 192.0, 0.0, 0.0, 0.0, 0.0, 0.0, 0.0, 0.0, 0.0, 0.0, 1.74769018102846E9, 0.0, 2025-05-19 23:29:41.028
38.0, 22790.598605942563, 19311.080194840455, 48707.33454314883, 33536.11034585361, 45938.221626069746, 4059.188551806039, 8306.779957625862, 3641.4120961918948, 0.0, 0.0, 10428.988686679446, -22472.48857885463, 14343.717914070836, 4359.9312734521955, -13203.153098005427, -32463.360722465604, 0.06, -0.008, 1.028, 192.0, 0.5, 112.0, 127.5, 96.0, 16.0, 16.0, 0.0, 0.0, 0.0, 1.747690181037469E9, 0.0, 2025-05-19 23:29:41.037
40.0, 22794.37605075551, 19314.50001174212, 48705.81462452586, 33519.368889256584, 45928.208044553765, 4026.1079700121845, 8345.202606344534, 3659.7181749007914, 0.0, 0.0, 10426.284125600354, -22482.34569815942, 14320.136823670486, 4327.834168414374, -13232.545641964156, -32492.95443212443, 0.06, -0.008, 1.028, 192.0, 0.0, 0.0, 0.0, 0.0, 0.0, 0.0, 0.0, 0.0, 0.0, 1.74769018104448E9, 0.0, 2025-05-19 23:29:41.044
42.0, 22793.347870510563, 19320.49027925614, 48712.45309262909, 33541.63122673407, 45951.140934364914, 4040.7483626304106, 8317.911126364605, 3660.433430723361, 0.0, 0.0, 10422.30551508731, -22484.714983071684, 14325.992980717778, 4340.976994154095, -13216.765310378709, -32483.38788549756, 0.06, -0.008, 1.028, 192.0, 0.0, 0.0, 0.0, 0.0, 0.0, 0.0, 0.0, 0.0, 0.0, 1.747690181052519E9, 0.0, 2025-05-19 23:29:41.052
44.0, 22794.51016122224, 19318.322160043976, 48705.03231346993, 33527.88490389406, 45938.623957469936, 4065.4470402535253, 8304.365969224687, 3643.7143258707915, 0.0, 0.0, 10428.608707023706, -22475.126084700358, 14336.565355845138, 4342.474561032601, -13219.335760991069, -32476.749417394334, 0.06, -0.008, 1.028, 192.0, 0.0, 0.0, 0.0, 0.0, 0.0, 0.0, 0.0, 0.0, 0.0, 1.747690181060548E9, 0.0, 2025-05-19 23:29:41.060
46.0, 22787.201140785353, 19312.26483729659, 48703.11006344677, 33533.89752315253, 45923.20125379578, 4049.5325982013464, 8359.172446629102, 3657.4830004552605, 0.0, 0.0, 10419.1092156302, -22475.461360867186, 14318.393387602973, 4332.349220794346, -13225.057807571628, -32486.89710937704, 0.06, -0.008, 1.028, 192.0, 0.0, 0.0, 0.0, 0.0, 0.0, 0.0, 0.0, 0.0, 0.0, 1.747690181068511E9, 0.0, 2025-05-19 23:29:41.068
48.0, 22783.781323883693, 19308.934427372747, 48702.75243553548, 33535.35038654213, 45920.04965782758, 4070.3420722892374, 8311.697341406028, 3647.514122428194, 0.0, 0.0, 10420.673837742072, -22479.797599291516, 14335.9842104893, 4349.269491347014, -13214.306618488625, -32470.647391158032, 0.066, -0.008, 1.028, 192.0, 1.0, 8.0, 127.5, 96.0, 16.0, 16.0, 0.0, 0.0, 0.0, 1.747690181076628E9, 0.0, 2025-05-19 23:29:41.076
50.0, 22795.203065300353, 19318.277456555064, 48715.917613019665, 33531.72940394037, 45921.90485261737, 4071.839639167743, 8332.976202127482, 3658.3770702334728, 0.0, 0.0, 10424.92066918858, -22477.2047969347, 14323.869564994522, 4330.091694604361, -13228.745845406753, -32488.059400088718, 0.066, -0.008, 1.028, 192.0, 0.0, 0.0, 0.0, 0.0, 0.0, 0.0, 0.0, 0.0, 0.0, 1.747690181084655E9, 0.0, 2025-05-19 23:29:41.084
52.0, 22796.968853112325, 19330.146232860832, 48708.34037164931, 33542.77116570129, 45931.24788179969, 4059.0097378503965, 8326.69536193554, 3646.1059625275093, 0.0, 0.0, 10433.25786987041, -22469.82872126445, 14338.956992501855, 4347.682517490687, -13210.082138786573, -32472.971972581385, 0.066, -0.008, 1.028, 192.0, 0.0, 0.0, 0.0, 0.0, 0.0, 0.0, 0.0, 0.0, 0.0, 1.747690181092648E9, 0.0, 2025-05-19 23:29:41.092
54.0, 22789.123390808512, 19314.231790808655, 48704.45116811409, 33528.15312482752, 45915.0875705585, 4055.969900604475, 8311.45147221702, 3644.273119482174, 0.0, 0.0, 10419.01980865238, -22477.562424845986, 14330.64214356448, 4327.700057947643, -13238.804130411641, -32486.405370999026, 0.066, -0.008, 1.028, 192.0, 0.0, 0.0, 0.0, 0.0, 0.0, 0.0, 0.0, 0.0, 0.0, 1.747690181099666E9, 0.0, 2025-05-19 23:29:41.099
56.0, 22795.761858911737, 19318.120994343877, 48715.291764174915, 33539.373700544085, 45932.678393444825, 4023.314001955271, 8338.497083007942, 3655.7842678766574, 0.0, 0.0, 10427.960506434501, -22471.86273000988, 14325.83651850659, 4337.646584230254, -13218.017008068206, -32484.90780412052, 0.066, -0.008, 1.028, 192.0, 0.0, 0.0, 0.0, 0.0, 0.0, 0.0, 0.0, 0.0, 0.0, 1.747690181108683E9, 0.0, 2025-05-19 23:29:41.108
58.0, 22802.668547948426, 19321.07142461198, 48714.62121184125, 33539.95484589993, 45933.438352756304, 4059.412069250592, 8311.876155361671, 3640.4733229247718, 0.0, 0.0, 10433.190814637044, -22473.047372466015, 14347.093027483586, 4351.169389625716, -13210.126842275482, -32472.56964118119, 0.066, -0.01, 1.028, 192.0, 1.0, 8.0, 127.5, 88.0, 16.0, 16.0, 0.0, 0.0, 0.0, 1.747690181116684E9, 0.0, 2025-05-19 23:29:41.116
60.0, 22806.289530550188, 19317.673959454773, 48711.93900250662, 33524.64390094804, 45934.26536730115, 4032.455865437492, 8322.269716533388, 3644.116657270987, 0.0, 0.0, 10429.279259357365, -22478.523549857564, 14324.07073069462, 4325.107255590828, -13234.356133265035, -32496.553062981733, 0.066, -0.01, 1.028, 192.0, 0.0, 0.0, 0.0, 0.0, 0.0, 0.0, 0.0, 0.0, 0.0, 1.747690181124748E9, 0.0, 2025-05-19 23:29:41.124
62.0, 22806.84832416157, 19315.662302453795, 48714.710618819074, 33542.50294476783, 45942.62491972744, 4040.837769608232, 8320.012190343403, 3642.3508694590178, 0.0, 0.0, 10436.25300362742, -22477.338907401434, 14336.610059334047, 4349.045973902461, -13205.65649338442, -32477.934059850464, 0.066, -0.01, 1.028, 192.0, 0.0, 0.0, 0.0, 0.0, 0.0, 0.0, 0.0, 0.0, 0.0, 1.747690181131707E9, 0.0, 2025-05-19 23:29:41.131
64.0, 22813.822068431626, 19316.556372232008, 48711.33550540632, 33523.05692709171, 45940.68031795983, 4040.256624252394, 8311.227954772468, 3644.943671815833, 0.0, 0.0, 10428.049913412324, -22490.59349186343, 14330.709198797847, 4333.2209388281035, -13231.003371596738, -32488.506434977822, 0.066, -0.01, 1.028, 192.0, 0.0, 0.0, 0.0, 0.0, 0.0, 0.0, 0.0, 0.0, 0.0, 1.747690181140733E9, 0.0, 2025-05-19 23:29:41.140
66.0, 22818.51593476724, 19318.120994343877, 48708.94386874961, 33532.57877022967, 45939.33921329251, 3998.3471033986934, 8354.031545404381, 3653.660852153403, 0.0, 0.0, 10436.767093749893, -22482.323346414967, 14324.964800472833, 4338.76417145302, -13217.592324923555, -32486.271260532292, 0.066, -0.01, 1.028, 192.0, 0.0, 0.0, 0.0, 0.0, 0.0, 0.0, 0.0, 0.0, 0.0, 1.747690181148771E9, 0.0, 2025-05-19 23:29:41.148
68.0, 22832.821051218638, 19330.034474138556, 48726.35587768029, 33550.39311056055, 45954.2478268442, 4073.0466333683294, 8296.83343134325, 3644.183712504353, 0.0, 0.0, 10440.566890307295, -22483.105657470904, 14347.025972250221, 4351.705831492643, -13210.193897508849, -32474.223670270883, 0.062, -0.01, 1.032, 192.0, 0.5, 120.0, 127.5, 88.0, 16.0, 32.0, 0.0, 0.0, 0.0, 1.747690181155797E9, 0.0, 2025-05-19 23:29:41.155
70.0, 22844.689827524406, 19339.77983472107, 48732.12262774976, 33539.507811010815, 45958.137030379425, 4009.2100512039724, 8325.890699135149, 3659.4499539673275, 0.0, 0.0, 10450.960451479013, -22471.92978524325, 14340.834539036101, 4342.206340099137, -13214.977170822283, -32480.772731396286, 0.062, -0.01, 1.032, 192.0, 0.0, 0.0, 0.0, 0.0, 0.0, 0.0, 0.0, 0.0, 0.0, 1.747690181164822E9, 0.0, 2025-05-19 23:29:41.164
72.0, 22848.087292681612, 19341.83619521096, 48733.88841556173, 33558.529145542285, 45966.653045016894, 4045.129304543651, 8336.865405662706, 3656.4101167214058, 0.0, 0.0, 10451.407486368118, -22475.126084700358, 14348.32237342863, 4358.277244362503, -13197.855734569519, -32470.401521969026, 0.062, -0.01, 1.032, 192.0, 0.0, 0.0, 0.0, 0.0, 0.0, 0.0, 0.0, 0.0, 0.0, 1.747690181172848E9, 0.0, 2025-05-19 23:29:41.172
74.0, 22848.511975826263, 19338.52813703157, 48727.518168391965, 33536.155049342524, 45960.014576913665, 4005.723179068945, 8319.498100220932, 3650.5763114185706, 0.0, 0.0, 10456.280166659375, -22471.5051020986, 14356.07842875462, 4360.534770552489, -13199.777984592676, -32464.65712364401, 0.062, -0.01, 1.032, 192.0, 0.0, 0.0, 0.0, 0.0, 0.0, 0.0, 0.0, 0.0, 0.0, 1.747690181179897E9, 0.0, 2025-05-19 23:29:41.179
76.0, 22849.786025260215, 19343.579631278473, 48735.4530376736, 33549.655502993526, 45960.930998436335, 4041.5306736863467, 8354.903263438138, 3661.3275005015735, 0.0, 0.0, 10451.563948579305, -22477.607128334897, 14337.21355643434, 4346.09554363436, -13205.432975939868, -32482.270298274794, 0.062, -0.01, 1.032, 192.0, 0.0, 0.0, 0.0, 0.0, 0.0, 0.0, 0.0, 0.0, 0.0, 1.747690181187987E9, 0.0, 2025-05-19 23:29:41.187
78.0, 22846.52267056974, 19341.053884155022, 48727.74168583652, 33545.1180988691, 45939.89800690389, 4056.3498802602153, 8318.469919975987, 3651.2021602633195, 0.0, 0.0, 10453.821474769293, -22475.841340522926, 14358.537120644703, 4361.115915908327, -13199.442708425846, -32465.03710329975, 0.06, -0.002, 1.028, 192.0, 0.5, 112.0, 127.5, 120.0, 16.0, 16.0, 0.0, 0.0, 0.0, 1.747690181197013E9, 0.0, 2025-05-19 23:29:41.197
80.0, 22852.28942063921, 19348.139387147356, 48743.4549621886, 33539.55251449973, 45964.976664182745, 4016.452016407492, 8315.698303663528, 3645.927148571867, 0.0, 0.0, 10460.728163805981, -22469.96283173118, 14346.623640850024, 4344.754438967042, -13208.204592252327, -32480.973897096384, 0.06, -0.002, 1.028, 192.0, 0.0, 0.0, 0.0, 0.0, 0.0, 0.0, 0.0, 0.0, 0.0, 1.747690181205092E9, 0.0, 2025-05-19 23:29:41.205
82.0, 22845.33802811361, 19342.484395800162, 48734.022526028464, 33552.60593326163, 45967.05537641709, 4025.0574380227854, 8335.613707973207, 3642.52968341466, 0.0, 0.0, 10455.900187003635, -22475.21549167818, 14351.250451952274, 4353.449267560157, -13196.022891524184, -32475.497719704836, 0.06, -0.002, 1.028, 192.0, 0.0, 0.0, 0.0, 0.0, 0.0, 0.0, 0.0, 0.0, 0.0, 1.74769018121209E9, 0.0, 2025-05-19 23:29:41.212
84.0, 22858.614964320062, 19354.889613972857, 48737.91172956368, 33543.46406977941, 45958.74052747971, 4023.1351879996287, 8310.959733839003, 3639.400439190917, 0.0, 0.0, 10460.54934985034, -22467.72765728565, 14360.8393503236, 4347.101372134849, -13211.780871365176, -32475.94475459394, 0.06, -0.002, 1.028, 192.0, 0.0, 0.0, 0.0, 0.0, 0.0, 0.0, 0.0, 0.0, 0.0, 1.747690181220102E9, 0.0, 2025-05-19 23:29:41.220
86.0, 22855.91040324097, 19350.240451126152, 48736.1012382628, 33542.54764825674, 45962.316806592564, 4021.7940833323105, 8326.337734024255, 3646.798866605624, 0.0, 0.0, 10464.684422574572, -22465.31366888448, 14350.55754787416, 4341.424029043202, -13209.411586452912, -32485.935984365464, 0.06, -0.002, 1.028, 192.0, 0.0, 0.0, 0.0, 0.0, 0.0, 0.0, 0.0, 0.0, 0.0, 1.747690181229142E9, 0.0, 2025-05-19 23:29:41.229
88.0, 22854.36813287355, 19350.374561592886, 48729.753342837495, 33540.87126742259, 45952.70555647678, 4050.6948889130226, 8323.700228178528, 3636.8746920674675, 0.0, 0.0, 10457.889492260158, -22475.528416100555, 14361.711068357357, 4350.565892525422, -13205.23181023977, -32479.632792429067, 0.062, 0.004, 1.032, 192.0, 0.5, 120.0, 0.0, 16.0, 16.0, 32.0, 0.0, 0.0, 0.0, 1.74769018123613E9, 0.0, 2025-05-19 23:29:41.236
90.0, 22852.423531105942, 19348.765235992105, 48724.657145101686, 33530.88003765107, 45952.52674252114, 4006.706655824978, 8326.538899724354, 3636.829988578557, 0.0, 0.0, 10451.943928235047, -22475.684878311742, 14342.063884981142, 4327.1189125918045, -13228.90230761794, -32498.43060951598, 0.062, 0.004, 1.032, 192.0, 0.0, 0.0, 0.0, 0.0, 0.0, 0.0, 0.0, 0.0, 0.0, 1.747690181245185E9, 0.0, 2025-05-19 23:29:41.245
92.0, 22849.361342115564, 19344.987791179155, 48729.28395620394, 33552.583581517174, 45961.57919902554, 4015.356780929182, 8328.528204980876, 3644.2284159932633, 0.0, 0.0, 10452.458018357518, -22472.600337576907, 14351.093989741086, 4355.438572816679, -13202.817821838597, -32473.866042359597, 0.062, 0.004, 1.032, 192.0, 0.0, 0.0, 0.0, 0.0, 0.0, 0.0, 0.0, 0.0, 0.0, 1.74769018125419E9, 0.0, 2025-05-19 23:29:41.254
94.0, 22844.019275190745, 19339.131634131867, 48717.661049087175, 33528.42134576099, 45944.52481800614, 4008.7853680593216, 8308.098710548724, 3643.8707880819784, 0.0, 0.0, 10448.367649122198, -22481.004593492104, 14347.294193183685, 4348.755401224542, -13217.480566201279, -32476.212975527404, 0.062, 0.004, 1.032, 192.0, 0.0, 0.0, 0.0, 0.0, 0.0, 0.0, 0.0, 0.0, 0.0, 1.747690181261223E9, 0.0, 2025-05-19 23:29:41.261
96.0, 22842.454653078876, 19338.572840520483, 48724.59008986832, 33537.60791273211, 45951.05152738709, 4000.1128912106624, 8341.291051064856, 3661.5510179461266, 0.0, 0.0, 10439.985744951457, -22485.743163316627, 14327.9822859743, 4341.602842998844, -13218.195822023848, -32485.48894947636, 0.062, 0.004, 1.032, 192.0, 0.0, 0.0, 0.0, 0.0, 0.0, 0.0, 0.0, 0.0, 0.0, 1.747690181268251E9, 0.0, 2025-05-19 23:29:41.268
98.0, 22837.492565809796, 19337.388198064353, 48718.64452584321, 33537.49615400984, 45940.18857958181, 4043.385868476137, 8301.907277334605, 3641.1885787473416, 0.0, 0.0, 10441.68447753006, -22483.73150631565, 14350.758713574258, 4359.595997285366, -13203.33191196107, -32467.85342310112, 0.058, -0.01, 1.03, 192.0, 0.5, 104.0, 127.5, 88.0, 16.0, 24.0, 0.0, 0.0, 0.0, 1.747690181276263E9, 0.0, 2025-05-19 23:29:41.276
100.0, 22843.66164727946, 19345.79245397955, 48722.77959856744, 33529.78480217276, 45937.97575688073, 4036.2333102504385, 8343.302708065834, 3656.4548202103165, 0.0, 0.0, 10440.321021118287, -22484.60322434941, 14333.033780221198, 4330.918709149207, -13233.372656509002, -32489.914594878508, 0.058, -0.01, 1.03, 192.0, 0.0, 0.0, 0.0, 0.0, 0.0, 0.0, 0.0, 0.0, 0.0, 1.747690181284316E9, 0.0, 2025-05-19 23:29:41.284
102.0, 22834.1398041415, 19336.382369563864, 48715.35881940828, 33540.20071508893, 45941.86496041596, 4031.830016592743, 8317.531146708865, 3646.463590438794, 0.0, 0.0, 10442.757361263915, -22480.579910347453, 14341.92977451441, 4352.286976848481, -13205.768252106698, -32471.80968186971, 0.058, -0.01, 1.03, 192.0, 0.0, 0.0, 0.0, 0.0, 0.0, 0.0, 0.0, 0.0, 0.0, 1.747690181292338E9, 0.0, 2025-05-19 23:29:41.292
104.0, 22827.680149993917, 19329.699197971728, 48701.45603435708, 33516.84314213313, 45915.2887362586, 3988.6017428161795, 8334.071437605791, 3651.2021602633195, 0.0, 0.0, 10425.211241866498, -22494.393288420833, 14328.78694877469, 4329.71171494862, -13236.300735032646, -32489.825187900686, 0.058, -0.01, 1.03, 192.0, 0.0, 0.0, 0.0, 0.0, 0.0, 0.0, 0.0, 0.0, 0.0, 1.747690181300382E9, 0.0, 2025-05-19 23:29:41.300
106.0, 22840.957086200367, 19340.182166121267, 48724.567738123864, 33541.20654358942, 45949.91158841987, 4028.253737479894, 8348.13068486818, 3654.7113841428027, 0.0, 0.0, 10436.387114094152, -22481.58573884794, 14325.613001062036, 4335.523168507, -13222.822633126098, -32483.901975620032, 0.058, -0.01, 1.03, 192.0, 0.0, 0.0, 0.0, 0.0, 0.0, 0.0, 0.0, 0.0, 0.0, 1.747690181308415E9, 0.0, 2025-05-19 23:29:41.308
108.0, 22836.8890687095, 19339.0645788985, 48724.45597940159, 33538.323168554685, 45952.3479285655, 4032.388810204126, 8314.40190248512, 3647.156494516909, 0.0, 0.0, 10446.378343865676, -22479.618785335875, 14351.384562419005, 4357.2267123731035, -13197.498106658233, -32468.56867892369, 0.059, -0.008, 1.03, 192.0, 0.5, 112.0, 127.5, 104.0, 16.0, 24.0, 0.0, 0.0, 0.0, 1.747690181317454E9, 0.0, 2025-05-19 23:29:41.317
110.0, 22844.890993224504, 19346.68652375776, 48721.93023227814, 33523.32514802518, 45951.632672742926, 4023.4928159109136, 8330.942193382049, 3642.8426078370344, 0.0, 0.0, 10443.182044408566, -22481.98807024814, 14330.865661009035, 4329.309383548425, -13221.816804625609, -32493.267356546803, 0.059, -0.008, 1.03, 192.0, 0.0, 0.0, 0.0, 0.0, 0.0, 0.0, 0.0, 0.0, 0.0, 1.747690181324456E9, 0.0, 2025-05-19 23:29:41.324
112.0, 22827.769556971736, 19327.68754097075, 48711.581374595335, 33529.024842861276, 45938.66866095885, 4026.800874090299, 8357.36195532822, 3645.502465427216, 0.0, 0.0, 10441.72918101897, -22483.35152665991, 14338.755826801756, 4344.530921522489, -13201.364958449001, -32481.890318619055, 0.059, -0.008, 1.03, 192.0, 0.0, 0.0, 0.0, 0.0, 0.0, 0.0, 0.0, 0.0, 0.0, 1.747690181332458E9, 0.0, 2025-05-19 23:29:41.332
114.0, 22833.402196574476, 19331.621447994883, 48702.23834541302, 33509.22119727387, 45924.81057939656, 4038.870816096165, 8314.468957718487, 3630.593851875526, 0.0, 0.0, 10422.551384276318, -22502.529323402563, 14323.757806272246, 4319.09463633235, -13237.105397833038, -32503.169179340504, 0.059, -0.008, 1.03, 192.0, 0.0, 0.0, 0.0, 0.0, 0.0, 0.0, 0.0, 0.0, 0.0, 1.747690181340516E9, 0.0, 2025-05-19 23:29:41.340
116.0, 22837.00082743178, 19338.148157375832, 48715.40352289719, 33528.041366105244, 45957.712347234774, 4001.141071455607, 8334.004382372426, 3645.6812793828585, 0.0, 0.0, 10436.476521071974, -22486.816047050484, 14323.109605683043, 4326.336601535869, -13216.430034211879, -32496.19543507045, 0.059, -0.008, 1.03, 192.0, 0.0, 0.0, 0.0, 0.0, 0.0, 0.0, 0.0, 0.0, 0.0, 1.747690181347573E9, 0.0, 2025-05-19 23:29:41.347
118.0, 22828.10483313857, 19328.82747993797, 48701.992476224004, 33520.978214857365, 45931.627861455425, 4012.7639785723663, 8311.339713494745, 3632.761971087691, 0.0, 0.0, 10432.386151836652, -22488.850055795916, 14340.923946013922, 4337.4454185301565, -13213.18903126586, -32484.43841748696, 0.0605, -0.002, 1.03, 192.0, 0.5, 120.0, 0.0, 16.0, 16.0, 24.0, 0.0, 0.0, 0.0, 1.747690181356577E9, 0.0, 2025-05-19 23:29:41.356
120.0, 22840.532403055717, 19341.25504985512, 48718.778636309944, 33522.76635441379, 45939.45097201478, 3989.0264259608302, 8324.706056679017, 3646.3965352054283, 0.0, 0.0, 10427.759340734405, -22494.437991909745, 14319.533326570194, 4312.277354273481, -13240.81578741262, -32506.76781019781, 0.0605, -0.002, 1.03, 192.0, 0.0, 0.0, 0.0, 0.0, 0.0, 0.0, 0.0, 0.0, 0.0, 1.747690181364583E9, 0.0, 2025-05-19 23:29:41.364
122.0, 22831.681112251415, 19333.811918951502, 48708.25096467149, 33529.91891263949, 45929.817370154546, 4008.070112236752, 8324.59429795674, 3642.641442136937, 0.0, 0.0, 10436.655335027615, -22486.21254995019, 14338.353495401561, 4345.246177345059, -13203.533077661166, -32480.213937784905, 0.0605, -0.002, 1.03, 192.0, 0.0, 0.0, 0.0, 0.0, 0.0, 0.0, 0.0, 0.0, 0.0, 1.747690181371629E9, 0.0, 2025-05-19 23:29:41.371
124.0, 22845.963876958358, 19343.758445234114, 48722.064342744874, 33527.75079342732, 45946.581178496024, 4017.5249001413467, 8305.058873302803, 3635.108904255498, 0.0, 0.0, 10433.503739059417, -22491.17463721927, 14338.800530290668, 4331.410447527224, -13223.42613022639, -32492.753266424334, 0.0605, -0.002, 1.03, 192.0, 0.0, 0.0, 0.0, 0.0, 0.0, 0.0, 0.0, 0.0, 0.0, 1.747690181379684E9, 0.0, 2025-05-19 23:29:41.379
126.0, 22848.735493270815, 19348.564070292006, 48731.78735158293, 33547.97912215938, 45942.06612611606, 4039.541368429824, 8330.69632419304, 3641.590910147537, 0.0, 0.0, 10453.173274180088, -22467.906471241295, 14340.812187291645, 4341.245215087559, -13204.427147439379, -32481.53269070777, 0.0605, -0.002, 1.03, 192.0, 0.0, 0.0, 0.0, 0.0, 0.0, 0.0, 0.0, 0.0, 0.0, 1.747690181388682E9, 0.0, 2025-05-19 23:29:41.388
128.0, 22841.22530713383, 19341.63502951086, 48720.11974097726, 33535.6186074756, 45932.9913178672, 4071.839639167743, 8327.164748569101, 3638.5510729016155, 0.0, 0.0, 10445.528977576372, -22474.58964283343, 14354.133826987008, 4352.5775495264, -13200.828516582074, -32470.66974290249, 0.06025, -0.001, 1.026, 192.0, 0.5, 112.0, 0.0, 0.0, 15.5, 120.0, 0.0, 0.0, 0.0, 1.747690181396681E9, 0.0, 2025-05-19 23:29:41.396
130.0, 22846.81324324766, 19346.842985968946, 48724.41127591268, 33528.0637178497, 45933.52775973413, 3982.678530535523, 8317.128815308668, 3641.4791514252606, 0.0, 0.0, 10441.416256596596, -22484.22324469367, 14331.64797206497, 4326.157787580227, -13226.085987816572, -32495.502530992337, 0.06025, -0.001, 1.026, 192.0, 0.0, 0.0, 0.0, 0.0, 0.0, 0.0, 0.0, 0.0, 0.0, 1.747690181403797E9, 0.0, 2025-05-19 23:29:41.403
132.0, 22841.314714111653, 19342.752616733625, 48722.17610146715, 33542.90527616802, 45946.75999245167, 4022.039952521319, 8341.425161531588, 3642.7755526036685, 0.0, 0.0, 10448.904090989125, -22471.3039363985, 14345.081370482609, 4347.9507384241515, -13197.609865380511, -32474.536594693258, 0.06025, -0.001, 1.026, 192.0, 0.0, 0.0, 0.0, 0.0, 0.0, 0.0, 0.0, 0.0, 0.0, 1.747690181411775E9, 0.0, 2025-05-19 23:29:41.411
134.0, 22850.52363282724, 19348.63112552537, 48721.66201134468, 33528.957787627915, 45934.13125683442, 4026.353839201193, 8320.414521743598, 3639.311032213096, 0.0, 0.0, 10438.73404726196, -22482.36804990388, 14338.420550634928, 4330.114046348816, -13225.61660118301, -32488.506434977822, 0.06025, -0.001, 1.026, 192.0, 0.0, 0.0, 0.0, 0.0, 0.0, 0.0, 0.0, 0.0, 0.0, 1.747690181420768E9, 0.0, 2025-05-19 23:29:41.420
136.0, 22851.440054349907, 19350.553375548527, 48724.63479335723, 33535.77506968678, 45953.733736721726, 4003.3091906677714, 8336.798350429339, 3657.1924277773414, 0.0, 0.0, 10454.112047447212, -22470.476921853653, 14337.83940527909, 4340.038220886972, -13201.454365426824, -32480.817434885197, 0.06025, -0.001, 1.026, 192.0, 0.0, 0.0, 0.0, 0.0, 0.0, 0.0, 0.0, 0.0, 0.0, 1.74769018142786E9, 0.0, 2025-05-19 23:29:41.427
138.0, 22839.61598153305, 19337.29879108653, 48711.78254029543, 33527.16964807149, 45935.539416735104, 4040.3013277413047, 8301.303780234311, 3637.701706612314, 0.0, 0.0, 10436.029486182868, -22484.58087260495, 14342.846196037079, 4344.888549433774, -13206.70702537382, -32474.067208059696, 0.055125, -5.0E-4, 1.03, 192.0, 0.5, 72.0, 0.0, 0.0, 16.0, 40.0, 0.0, 0.0, 0.0, 1.747690181435843E9, 0.0, 2025-05-19 23:29:41.435
140.0, 22836.37497858703, 19332.135538117356, 48707.938040249115, 33510.78581938575, 45935.15943707937, 4009.2771064373383, 8327.254155546923, 3646.6871078833474, 0.0, 0.0, 10431.626192525173, -22491.420506408278, 14318.281628880695, 4319.47461598809, -13229.170528551404, -32497.849464160143, 0.055125, -5.0E-4, 1.03, 192.0, 0.0, 0.0, 0.0, 0.0, 0.0, 0.0, 0.0, 0.0, 0.0, 1.747690181443854E9, 0.0, 2025-05-19 23:29:41.443
142.0, 22830.474118050828, 19326.569953747985, 48699.422025611646, 33522.90046488053, 45931.51610273315, 4036.8144556062766, 8339.637021975162, 3651.313918985596, 0.0, 0.0, 10421.143224375634, -22500.562369890496, 14316.761710257735, 4329.778770181986, -13216.072406300595, -32490.495740234346, 0.055125, -5.0E-4, 1.03, 192.0, 0.0, 0.0, 0.0, 0.0, 0.0, 0.0, 0.0, 0.0, 0.0, 1.747690181452907E9, 0.0, 2025-05-19 23:29:41.452
144.0, 22830.76469072875, 19328.402796793318, 48698.63971455571, 33510.986985085845, 45924.296489274086, 4013.099254739196, 8307.562268681797, 3639.087514768543, 0.0, 0.0, 10416.851689440215, -22501.63525362435, 14318.348684114062, 4319.027581098983, -13236.367790266013, -32494.407295514025, 0.055125, -5.0E-4, 1.03, 192.0, 0.0, 0.0, 0.0, 0.0, 0.0, 0.0, 0.0, 0.0, 0.0, 1.74769018145987E9, 0.0, 2025-05-19 23:29:41.459
146.0, 22828.395405816485, 19326.234677581153, 48706.77574953744, 33519.48064797886, 45938.0428121141, 4013.4121791615703, 8330.405751515122, 3655.8066196211125, 0.0, 0.0, 10425.032427910857, -22493.141590731335, 14312.8278032336, 4326.604822469333, -13215.781833622676, -32490.62985070108, 0.055125, -5.0E-4, 1.03, 192.0, 0.0, 0.0, 0.0, 0.0, 0.0, 0.0, 0.0, 0.0, 0.0, 1.747690181467908E9, 0.0, 2025-05-19 23:29:41.467
148.0, 22825.288513337196, 19321.63021822336, 48701.18781342362, 33518.51952296728, 45923.804750896066, 4020.028295520341, 8300.007379055904, 3639.24397697973, 0.0, 0.0, 10415.242363839432, -22506.284416471055, 14322.774329516213, 4335.366706295813, -13213.5690109216, -32483.52199596429, 0.0535625, -0.0032500000000000003, 1.032, 192.0, 0.5, 80.0, 127.5, 104.0, 16.0, 40.0, 0.0, 0.0, 0.0, 1.74769018147692E9, 0.0, 2025-05-19 23:29:41.476
150.0, 22841.18060364492, 19338.59519226494, 48717.102255475795, 33525.98500561536, 45942.62491972744, 4029.7513043584, 8317.061760075303, 3648.3187852285846, 0.0, 0.0, 10422.439625554041, -22493.566273875986, 14312.537230555681, 4317.373552009291, -13228.499976217745, -32496.24013855936, 0.0535625, -0.0032500000000000003, 1.032, 192.0, 0.0, 0.0, 0.0, 0.0, 0.0, 0.0, 0.0, 0.0, 0.0, 1.747690181483987E9, 0.0, 2025-05-19 23:29:41.483
152.0, 22837.492565809796, 19340.249221354632, 48719.42683689915, 33548.806136704225, 45941.1944080823, 4028.1419787576174, 8327.522376480387, 3644.3625264599955, 0.0, 0.0, 10437.012962938901, -22474.34377364442, 14337.079445967609, 4346.184950612182, -13198.861563070008, -32468.479271945867, 0.0535625, -0.0032500000000000003, 1.032, 192.0, 0.0, 0.0, 0.0, 0.0, 0.0, 0.0, 0.0, 0.0, 0.0, 1.747690181492085E9, 0.0, 2025-05-19 23:29:41.492
154.0, 22831.61405701805, 19330.48150902766, 48709.59206933881, 33519.525351467775, 45925.03409684111, 4006.103158724685, 8309.2610012604, 3635.1983112333196, 0.0, 0.0, 10431.425026825074, -22480.44579988072, 14335.35836164455, 4331.410447527224, -13220.989790080761, -32481.37622849658, 0.0535625, -0.0032500000000000003, 1.032, 192.0, 0.0, 0.0, 0.0, 0.0, 0.0, 0.0, 0.0, 0.0, 0.0, 1.747690181500098E9, 0.0, 2025-05-19 23:29:41.500
156.0, 22826.04847264868, 19325.58647699195, 48703.42298786915, 33524.46508699239, 45919.55791944956, 4017.457844907981, 8327.812949158306, 3639.5121979131936, 0.0, 0.0, 10426.127663389167, -22488.514779629088, 14315.711178268335, 4321.2404038000595, -13223.694351159855, -32496.888339148565, 0.0535625, -0.0032500000000000003, 1.032, 192.0, 0.0, 0.0, 0.0, 0.0, 0.0, 0.0, 0.0, 0.0, 0.0, 1.74769018150907E9, 0.0, 2025-05-19 23:29:41.509
158.0, 22835.749129742282, 19337.54466027554, 48717.996325254004, 33539.55251449973, 45941.99907088269, 4027.0243915348524, 8306.981123325959, 3636.6064711340036, 0.0, 0.0, 10424.831262210759, -22485.78786680554, 14336.78887328969, 4338.563005752922, -13215.6700749004, -32477.218804027892, 0.05378125, -0.004625000000000001, 1.036, 192.0, 0.5, 88.0, 127.5, 104.0, 16.0, 64.0, 0.0, 0.0, 0.0, 1.747690181516105E9, 0.0, 2025-05-19 23:29:41.516
160.0, 22838.341932099098, 19339.53396553206, 48717.236365942525, 33525.62737770407, 45935.539416735104, 4001.7222168114445, 8319.319286265289, 3646.173017760875, 0.0, 0.0, 10440.20926239601, -22472.600337576907, 14332.519690098727, 4329.018810870506, -13219.268705757702, -32486.740647165854, 0.05378125, -0.004625000000000001, 1.036, 192.0, 0.0, 0.0, 0.0, 0.0, 0.0, 0.0, 0.0, 0.0, 0.0, 1.747690181525118E9, 0.0, 2025-05-19 23:29:41.525
162.0, 22833.89393495249, 19335.376541063375, 48714.75532230799, 33538.63609297706, 45928.9903556097, 4044.0787725542514, 8333.60205097223, 3651.8503608525234, 0.0, 0.0, 10431.849709969725, -22479.64113708033, 14334.486643610793, 4344.083886633383, -13206.192935251349, -32476.212975527404, 0.05378125, -0.004625000000000001, 1.036, 192.0, 0.0, 0.0, 0.0, 0.0, 0.0, 0.0, 0.0, 0.0, 0.0, 1.747690181532151E9, 0.0, 2025-05-19 23:29:41.532
164.0, 22830.94350468439, 19330.280343327566, 48705.16642393666, 33515.457333976905, 45930.867902143946, 4030.8241880922546, 8296.855783087705, 3624.111845983487, 0.0, 0.0, 10428.698114001527, -22489.900587785316, 14331.916192998433, 4331.5222062495, -13223.448481970845, -32485.354839009626, 0.05378125, -0.004625000000000001, 1.036, 192.0, 0.0, 0.0, 0.0, 0.0, 0.0, 0.0, 0.0, 0.0, 0.0, 1.747690181540182E9, 0.0, 2025-05-19 23:29:41.540
166.0, 22835.86088846456, 19333.58840150695, 48711.514319361966, 33526.432040504464, 45933.70657368977, 4002.2139551894616, 8324.683704934563, 3637.4558374233056, 0.0, 0.0, 10421.34439007573, -22493.342756431433, 14311.151422399453, 4316.300668275437, -13228.924659362396, -32501.693964206454, 0.05378125, -0.004625000000000001, 1.036, 192.0, 0.0, 0.0, 0.0, 0.0, 0.0, 0.0, 0.0, 0.0, 0.0, 1.74769018154823E9, 0.0, 2025-05-19 23:29:41.548
168.0, 22839.86185072206, 19340.428035310273, 48710.48613911702, 33530.72357543988, 45931.650213199886, 4044.6152144211787, 8292.988931296937, 3628.917471041378, 0.0, 0.0, 10437.214128639, -22481.518683614577, 14345.394294904983, 4344.597976755855, -13206.103528273527, -32473.933097592962, 0.054890625, -0.0043125, 1.033, 192.0, 0.5, 96.0, 127.5, 112.0, 16.0, 24.0, 0.0, 0.0, 0.0, 1.747690181556231E9, 0.0, 2025-05-19 23:29:41.556
170.0, 22838.408987332463, 19339.332799831966, 48703.35593263578, 33511.6575374195, 45919.06618107155, 3997.967123742953, 8306.422329714576, 3634.6171658774815, 0.0, 0.0, 10426.597050022729, -22489.4088494073, 14319.399216103462, 4314.646639185744, -13236.121921077005, -32501.135170595073, 0.054890625, -0.0043125, 1.033, 192.0, 0.0, 0.0, 0.0, 0.0, 0.0, 0.0, 0.0, 0.0, 0.0, 1.747690181565275E9, 0.0, 2025-05-19 23:29:41.565
172.0, 22840.33123735562, 19341.098587643934, 48708.74270304951, 33534.143392341546, 45923.42477124033, 4022.330525199238, 8333.93732713906, 3635.2653664666855, 0.0, 0.0, 10422.238459853943, -22491.331099430456, 14326.350608629062, 4332.684496961177, -13216.787662123164, -32488.819359400197, 0.054890625, -0.0043125, 1.033, 192.0, 0.0, 0.0, 0.0, 0.0, 0.0, 0.0, 0.0, 0.0, 0.0, 1.74769018157131E9, 0.0, 2025-05-19 23:29:41.571
174.0, 22846.254449636275, 19346.39595107984, 48718.46571188757, 33523.30279628072, 45940.25563481518, 4020.095350753707, 8288.049195772313, 3626.2576134511964, 0.0, 0.0, 10436.677686772071, -22481.451628381208, 14340.611021591547, 4332.550386494445, -13219.827499369087, -32484.281955275772, 0.054890625, -0.0043125, 1.033, 192.0, 0.0, 0.0, 0.0, 0.0, 0.0, 0.0, 0.0, 0.0, 0.0, 1.747690181580353E9, 0.0, 2025-05-19 23:29:41.580
176.0, 22841.64999027848, 19343.24435511164, 48711.93900250662, 33528.0637178497, 45937.72988769173, 4023.269298466361, 8328.148225325134, 3637.120561256476, 0.0, 0.0, 10436.096541416233, -22478.970584746672, 14328.116396441032, 4326.157787580227, -13214.306618488625, -32492.19447281295, 0.054890625, -0.0043125, 1.033, 192.0, 0.0, 0.0, 0.0, 0.0, 0.0, 0.0, 0.0, 0.0, 0.0, 1.747690181588364E9, 0.0, 2025-05-19 23:29:41.588
178.0, 22832.463423307352, 19337.656418997816, 48697.812700010865, 33521.42524974648, 45923.00008809568, 4026.6220601346567, 8299.180364511058, 3629.4315611638503, 0.0, 0.0, 10426.082959900255, -22486.88310228385, 14341.21451869184, 4334.629098728788, -13215.915944089407, -32482.069132574696, 0.0534453125, -0.00415625, 1.0314999999999999, 192.0, 0.5, 80.0, 127.5, 112.0, 16.0, 24.0, 0.0, 0.0, 0.0, 1.74769018159641E9, 0.0, 2025-05-19 23:29:41.596
180.0, 22836.196164631387, 19340.696256243737, 48708.45213037159, 33518.96655785639, 45926.41990499734, 3989.9204957390425, 8304.88005934716, 3636.092381011532, 0.0, 0.0, 10421.34439007573, -22489.07357324047, 14317.096986424565, 4307.807005382419, -13241.262822301725, -32504.085600863174, 0.0534453125, -0.00415625, 1.0314999999999999, 192.0, 0.0, 0.0, 0.0, 0.0, 0.0, 0.0, 0.0, 0.0, 0.0, 1.747690181604439E9, 0.0, 2025-05-19 23:29:41.604
182.0, 22836.173812886933, 19337.857584697915, 48714.77767405244, 33537.78672668776, 45936.589948724504, 4040.837769608232, 8321.912088622104, 3634.2595379661966, 0.0, 0.0, 10432.788483236847, -22480.714020814183, 14333.234945921296, 4340.529959264989, -13200.694406115343, -32479.185757539963, 0.0534453125, -0.00415625, 1.0314999999999999, 192.0, 0.0, 0.0, 0.0, 0.0, 0.0, 0.0, 0.0, 0.0, 0.0, 1.747690181612464E9, 0.0, 2025-05-19 23:29:41.612
184.0, 22831.099966895577, 19331.509689272607, 48696.22572615454, 33507.835389117645, 45912.74063739069, 4000.783443544322, 8301.817870356783, 3627.57636637406, 0.0, 0.0, 10421.702017987016, -22491.711079086195, 14326.84234700708, 4320.52514797749, -13228.56703145111, -32496.597766470644, 0.0534453125, -0.00415625, 1.0314999999999999, 192.0, 0.0, 0.0, 0.0, 0.0, 0.0, 0.0, 0.0, 0.0, 0.0, 1.747690181620503E9, 0.0, 2025-05-19 23:29:41.620
186.0, 22838.721911754837, 19339.377503320873, 48709.81558678336, 33533.94222664145, 45928.02923059812, 4019.961240286975, 8342.095713865247, 3646.86592183899, 0.0, 0.0, 10424.183061621556, -22482.949195259716, 14318.616905047526, 4321.598031711344, -13224.14138604896, -32493.267356546803, 0.0534453125, -0.00415625, 1.0314999999999999, 192.0, 0.0, 0.0, 0.0, 0.0, 0.0, 0.0, 0.0, 0.0, 0.0, 1.747690181627541E9, 0.0, 2025-05-19 23:29:41.627
188.0, 22838.56544954365, 19337.365846319895, 48715.02354324145, 33536.423270275984, 45940.166227837355, 4036.7921038618215, 8285.21052422649, 3628.8057123191015, 0.0, 0.0, 10427.044084911835, -22486.97250926167, 14335.961858744844, 4344.396811055757, -13202.6166561385, -32474.402484226524, 0.05272265625, -0.005078125, 1.02975, 192.0, 0.5, 80.0, 127.5, 104.0, 16.0, 16.0, 0.0, 0.0, 0.0, 1.747690181636597E9, 0.0, 2025-05-19 23:29:41.636
190.0, 22843.371074601542, 19341.8138434665, 48717.92927002064, 33530.835334162155, 45931.27023354414, 4023.22459497745, 8312.904335606616, 3639.1992734908195, 0.0, 0.0, 10432.632021025662, -22477.338907401434, 14325.613001062036, 4328.527072492489, -13217.100586545539, -32486.204205298927, 0.05272265625, -0.005078125, 1.02975, 192.0, 0.0, 0.0, 0.0, 0.0, 0.0, 0.0, 0.0, 0.0, 0.0, 1.747690181644578E9, 0.0, 2025-05-19 23:29:41.644
192.0, 22836.352626842574, 19336.851756197426, 48709.43560712762, 33541.742985456345, 45924.20708229626, 4005.2761441798384, 8326.158920068612, 3636.472360667272, 0.0, 0.0, 10433.771959992882, -22475.77428528956, 14338.26408842374, 4348.978918669095, -13197.498106658233, -32469.105120790617, 0.05272265625, -0.005078125, 1.02975, 192.0, 0.0, 0.0, 0.0, 0.0, 0.0, 0.0, 0.0, 0.0, 0.0, 1.747690181652632E9, 0.0, 2025-05-19 23:29:41.652
194.0, 22844.019275190745, 19342.037360911057, 48717.57164210935, 33528.7119184389, 45930.39851551039, 4019.000115275397, 8299.716806377985, 3633.6560408659034, 0.0, 0.0, 10423.288991843343, -22485.318480171976, 14331.424454620417, 4330.091694604361, -13221.101548803039, -32485.064266331705, 0.05272265625, -0.005078125, 1.02975, 192.0, 0.0, 0.0, 0.0, 0.0, 0.0, 0.0, 0.0, 0.0, 0.0, 1.747690181660682E9, 0.0, 2025-05-19 23:29:41.660
196.0, 22836.196164631387, 19337.991695164645, 48708.295668160405, 33535.171572586485, 45927.89512013139, 4001.386940644615, 8324.08020783427, 3642.283814225652, 0.0, 0.0, 10434.621326282184, -22471.795674776517, 14330.508033097749, 4336.081962118383, -13203.75659510572, -32476.592955183147, 0.05272265625, -0.005078125, 1.02975, 192.0, 0.0, 0.0, 0.0, 0.0, 0.0, 0.0, 0.0, 0.0, 0.0, 1.747690181668643E9, 0.0, 2025-05-19 23:29:41.668
198.0, 22832.28460935171, 19333.83427069596, 48701.299572145894, 33531.37177602908, 45919.62497468293, 4027.1808537460392, 8306.69055064804, 3633.2984129546185, 0.0, 0.0, 10415.622343495172, -22488.671241840275, 14334.084312210598, 4337.400715041246, -13211.914981831907, -32474.849519115633, 0.054361328125, -0.0015390625, 1.026875, 192.0, 0.5, 96.0, 0.0, 8.0, 16.0, 0.0, 0.0, 0.0, 0.0, 1.747690181676676E9, 0.0, 2025-05-19 23:29:41.676
200.0, 22839.392464088498, 19340.58449752146, 48710.039104227915, 33527.706089938416, 45914.6852391583, 3999.285876665816, 8326.3153822798, 3652.0068230637103, 0.0, 0.0, 10425.412407566597, -22479.171750446767, 14324.808338261646, 4319.89929913274, -13227.494147717256, -32487.701772177432, 0.054361328125, -0.0015390625, 1.026875, 192.0, 0.0, 0.0, 0.0, 0.0, 0.0, 0.0, 0.0, 0.0, 0.0, 1.747690181683676E9, 0.0, 2025-05-19 23:29:41.683
202.0, 22834.408025074965, 19333.34253231794, 48716.4987583755, 33546.63801749206, 45939.80859992607, 4073.09133685724, 8319.945135110038, 3636.2264914782636, 0.0, 0.0, 10431.179157636067, -22476.109561456393, 14338.621716335025, 4341.736953465575, -13202.393138693946, -32470.446225457938, 0.054361328125, -0.0015390625, 1.026875, 192.0, 0.0, 0.0, 0.0, 0.0, 0.0, 0.0, 0.0, 0.0, 0.0, 1.747690181691739E9, 0.0, 2025-05-19 23:29:41.691
204.0, 22843.549888557183, 19337.231735853165, 48712.45309262909, 33524.688604436946, 45929.34798352099, 3987.3723968711374, 8297.280466232356, 3632.247880965219, 0.0, 0.0, 10432.721428003482, -22484.960852260694, 14336.967687245333, 4334.182063839682, -13211.736167876265, -32478.582260439667, 0.054361328125, -0.0015390625, 1.026875, 192.0, 0.0, 0.0, 0.0, 0.0, 0.0, 0.0, 0.0, 0.0, 0.0, 1.747690181700801E9, 0.0, 2025-05-19 23:29:41.700
206.0, 22841.784100745215, 19340.003352165622, 48716.63286884223, 33540.04425287774, 45932.588986467, 4004.4714813794476, 8328.259984047412, 3637.1876164898417, 0.0, 0.0, 10433.101407659222, -22478.478846368653, 14327.26703015173, 4331.633964971777, -13208.450461441334, -32484.37136225359, 0.054361328125, -0.0015390625, 1.026875, 192.0, 0.0, 0.0, 0.0, 0.0, 0.0, 0.0, 0.0, 0.0, 0.0, 1.747690181707835E9, 0.0, 2025-05-19 23:29:41.707
208.0, 22836.620847776037, 19336.471776541686, 48712.78836879592, 33537.831430176666, 45933.75127717868, 4020.5200338983577, 8303.293085490834, 3629.3645059304845, 0.0, 0.0, 10429.815701224292, -22480.53520685854, 14344.164948959942, 4346.520226779011, -13198.772156092187, -32469.44039695745, 0.055180664062499996, -0.0027695312500000003, 1.0274375, 192.0, 0.5, 96.0, 127.5, 112.0, 16.0, 16.0, 0.0, 0.0, 0.0, 1.747690181715832E9, 0.0, 2025-05-19 23:29:41.715
210.0, 22844.242792635298, 19340.562145777007, 48717.21401419807, 33528.7119184389, 45933.08072484502, 4010.774673315844, 8328.550556725331, 3644.6754508823697, 0.0, 0.0, 10432.296744858832, -22478.63530857984, 14327.55760282965, 4327.8788719032855, -13214.641894655455, -32486.494777976848, 0.055180664062499996, -0.0027695312500000003, 1.0274375, 192.0, 0.0, 0.0, 0.0, 0.0, 0.0, 0.0, 0.0, 0.0, 0.0, 1.747690181723836E9, 0.0, 2025-05-19 23:29:41.723
212.0, 22835.927943697923, 19334.482471285162, 48707.379246637734, 33539.12783135508, 45914.774646136124, 4016.6978855965003, 8324.191966556546, 3633.2537094657077, 0.0, 0.0, 10431.782654736358, -22480.155227202802, 14334.017256977233, 4342.899244177252, -13199.621522381489, -32474.29072550425, 0.055180664062499996, -0.0027695312500000003, 1.0274375, 192.0, 0.0, 0.0, 0.0, 0.0, 0.0, 0.0, 0.0, 0.0, 0.0, 1.747690181732891E9, 0.0, 2025-05-19 23:29:41.732
214.0, 22843.304019368177, 19337.097625386432, 48709.614421083264, 33521.84993289113, 45918.70855316026, 4011.959315771975, 8287.982140538948, 3630.8397210645344, 0.0, 0.0, 10420.606782508705, -22488.961814518192, 14328.78694877469, 4324.302592790436, -13226.33185700558, -32486.539481465756, 0.055180664062499996, -0.0027695312500000003, 1.0274375, 192.0, 0.0, 0.0, 0.0, 0.0, 0.0, 0.0, 0.0, 0.0, 0.0, 1.747690181739936E9, 0.0, 2025-05-19 23:29:41.739
216.0, 22844.198089146386, 19338.52813703157, 48712.22957518454, 33534.83629641966, 45929.05741084307, 4036.993269561919, 8335.054914361825, 3647.5811776615597, 0.0, 0.0, 10428.54165179034, -22481.943366759228, 14321.544983571172, 4329.175273081693, -13206.975246307284, -32485.980687854375, 0.055180664062499996, -0.0027695312500000003, 1.0274375, 192.0, 0.0, 0.0, 0.0, 0.0, 0.0, 0.0, 0.0, 0.0, 0.0, 1.747690181747939E9, 0.0, 2025-05-19 23:29:41.747
218.0, 22835.793833231193, 19330.637971238848, 48697.83505175532, 33528.13077308307, 45924.89998637438, 4019.7600745868776, 8298.107480777202, 3635.108904255498, 0.0, 0.0, 10419.176270863565, -22491.621672108373, 14332.854966265557, 4339.591185997866, -13207.623446896489, -32472.994324325842, 0.05859033203125, -0.004384765625, 1.02971875, 192.0, 0.5, 120.0, 127.5, 104.0, 16.0, 32.0, 0.0, 0.0, 0.0, 1.74769018175799E9, 0.0, 2025-05-19 23:29:41.757
220.0, 22846.969705458847, 19344.428997567775, 48715.06824673036, 33530.92474113998, 45925.27996603012, 3994.4355481190146, 8326.69536193554, 3647.8717503394787, 0.0, 0.0, 10425.211241866498, -22481.74220105913, 14321.187355659886, 4321.016886355506, -13221.749749392242, -32488.57349021119, 0.05859033203125, -0.004384765625, 1.02971875, 192.0, 0.0, 0.0, 0.0, 0.0, 0.0, 0.0, 0.0, 0.0, 0.0, 1.747690181764945E9, 0.0, 2025-05-19 23:29:41.764
222.0, 22839.37011234404, 19337.49995678663, 48714.35299090779, 33543.776994201784, 45936.63465221342, 4042.290632997827, 8327.432969502564, 3644.697802626825, 0.0, 0.0, 10431.715599502993, -22475.841340522926, 14337.034742478698, 4349.627119258299, -13185.629330352465, -32467.5628504232, 0.05859033203125, -0.004384765625, 1.02971875, 192.0, 0.0, 0.0, 0.0, 0.0, 0.0, 0.0, 0.0, 0.0, 0.0, 1.747690181772078E9, 0.0, 2025-05-19 23:29:41.772
224.0, 22838.18546988791, 19334.951857918724, 48707.69217106011, 33525.06858409269, 45919.893195616394, 3989.004074216375, 8311.496175705932, 3638.2605002236965, 0.0, 0.0, 10429.547480290828, -22479.01528823558, 14338.174681445918, 4337.288956318969, -13205.857659084519, -32474.76011213781, 0.05859033203125, -0.004384765625, 1.02971875, 192.0, 0.0, 0.0, 0.0, 0.0, 0.0, 0.0, 0.0, 0.0, 0.0, 1.747690181780069E9, 0.0, 2025-05-19 23:29:41.780
226.0, 22832.57518202963, 19330.92854391677, 48705.009961725475, 33531.37177602908, 45913.679410657816, 3997.0283504758304, 8322.493233977943, 3643.6472706374257, 0.0, 0.0, 10417.119910373678, -22488.000689506614, 14313.45365207835, 4317.66412468721, -13221.637990669966, -32494.67551644749, 0.05859033203125, -0.004384765625, 1.02971875, 192.0, 0.0, 0.0, 0.0, 0.0, 0.0, 0.0, 0.0, 0.0, 0.0, 1.74769018178904E9, 0.0, 2025-05-19 23:29:41.789
228.0, 22835.167984386444, 19331.196764850232, 48709.56971759436, 33537.98789238786, 45930.0408875991, 4020.7659030873665, 8286.708091104996, 3628.1128082409873, 0.0, 0.0, 10427.401712823119, -22483.01625049308, 14339.627544835514, 4342.3180988214135, -13198.570990392089, -32470.08859754665, 0.05859033203125, -0.004384765625, 1.02971875, 192.0, 0.0, 0.0, 0.0, 0.0, 0.0, 0.0, 0.0, 0.0, 0.0, 1.74769018179608E9, 0.0, 2025-05-19 23:29:41.796
230.0, 22848.22140314834, 19344.9654394347, 48713.77184555195, 33532.39995627403, 45922.4412944843, 4046.8503888667096, 8326.225975301979, 3645.3683549604843, 0.0, 0.0, 10430.01686692439, -22477.271852168065, 14327.132919684998, 4323.0061916120285, -13216.966476078805, -32488.260565788816, 0.056, 0.004, 1.028, 192.0, 0.5, 96.0, 0.0, 16.0, 16.0, 16.0, 0.0, 0.0, 0.0, 1.747690181804085E9, 0.0, 2025-05-19 23:29:41.804
232.0, 22837.693731509895, 19335.39889280783, 48708.94386874961, 33543.419366290495, 45926.397553252886, 4002.102196467185, 8323.253193289424, 3639.6463083799254, 0.0, 0.0, 10425.881794200159, -22476.958927745694, 14336.855928523057, 4336.9760318965955, -13206.70702537382, -32474.80481562672, 0.056, 0.004, 1.028, 192.0, 0.0, 0.0, 0.0, 0.0, 0.0, 0.0, 0.0, 0.0, 0.0, 1.747690181812111E9, 0.0, 2025-05-19 23:29:41.812
234.0, 22843.57224030164, 19337.67877074227, 48711.648429828696, 33527.348462027134, 45928.18569280931, 4005.8349377912214, 8274.101707232203, 3632.0690670095764, 0.0, 0.0, 10425.546518033329, -22478.747067302116, 14338.64406807948, 4332.975069639096, -13209.121013774993, -32478.24698427284, 0.056, 0.004, 1.028, 192.0, 0.0, 0.0, 0.0, 0.0, 0.0, 0.0, 0.0, 0.0, 0.0, 1.74769018182018E9, 0.0, 2025-05-19 23:29:41.820
236.0, 22837.00082743178, 19332.44846253973, 48710.93317400613, 33532.62347371858, 45918.82031188253, 3991.038082961808, 8341.98395514297, 3644.7425061157355, 0.0, 0.0, 10425.747683733427, -22480.892834769827, 14323.467233594327, 4327.85652015883, -13205.701196873331, -32486.785350654765, 0.056, 0.004, 1.028, 192.0, 0.0, 0.0, 0.0, 0.0, 0.0, 0.0, 0.0, 0.0, 0.0, 1.747690181828178E9, 0.0, 2025-05-19 23:29:41.828
238.0, 22835.682074508917, 19331.085006127956, 48706.23930767051, 33532.310549296206, 45918.57444269353, 4030.8241880922546, 8299.158012766602, 3624.022439005666, 0.0, 0.0, 10422.461977298497, -22488.514779629088, 14339.26991692423, 4339.457075531134, -13202.080214271571, -32475.117740049096, 0.056, 0.004, 1.028, 192.0, 0.0, 0.0, 0.0, 0.0, 0.0, 0.0, 0.0, 0.0, 0.0, 1.747690181836243E9, 0.0, 2025-05-19 23:29:41.836
240.0, 22843.818109490647, 19339.60102076543, 48716.901089775696, 33530.410651017504, 45928.52096897614, 3987.417100360048, 8326.829472402273, 3640.7415438582357, 0.0, 0.0, 10431.246212869431, -22480.043468480526, 14329.569259830627, 4328.258851559026, -13206.908191073919, -32483.410237242013, 0.054, -0.002, 1.032, 192.0, 0.5, 88.0, 127.5, 120.0, 16.0, 32.0, 0.0, 0.0, 0.0, 1.747690181844226E9, 0.0, 2025-05-19 23:29:41.844
242.0, 22841.359417600564, 19337.567012019994, 48713.615383340766, 33543.24055233486, 45913.00885832416, 4037.261490495383, 8327.835300902761, 3637.142913000931, 0.0, 0.0, 10424.428930810564, -22484.089134226935, 14333.570222088127, 4341.558139509933, -13195.866429312997, -32472.636696414556, 0.054, -0.002, 1.032, 192.0, 0.0, 0.0, 0.0, 0.0, 0.0, 0.0, 0.0, 0.0, 0.0, 1.747690181851258E9, 0.0, 2025-05-19 23:29:41.851
244.0, 22851.171833416443, 19345.1666051348, 48722.64548810071, 33535.93153189797, 45923.737695662705, 4006.103158724685, 8297.63809414364, 3634.48305541075, 0.0, 0.0, 10434.464864070997, -22478.612956835386, 14345.997792005277, 4334.04795337295, -13212.339664976558, -32477.151748794528, 0.054, -0.002, 1.032, 192.0, 0.0, 0.0, 0.0, 0.0, 0.0, 0.0, 0.0, 0.0, 0.0, 1.74769018186036E9, 0.0, 2025-05-19 23:29:41.860
246.0, 22841.47117632284, 19336.516480030594, 48715.291764174915, 33538.949017399435, 45922.530701462114, 3997.877716765132, 8318.380512998167, 3647.201198005819, 0.0, 0.0, 10441.662125785604, -22470.096942197913, 14337.884108768, 4332.7515521945425, -13204.427147439379, -32479.073998817683, 0.054, -0.002, 1.032, 192.0, 0.0, 0.0, 0.0, 0.0, 0.0, 0.0, 0.0, 0.0, 0.0, 1.747690181868369E9, 0.0, 2025-05-19 23:29:41.868
248.0, 22843.304019368177, 19338.841061453946, 48720.96910726656, 33548.515564026304, 45931.56080622206, 4032.7017346265, 8298.465108688488, 3632.270232709674, 0.0, 0.0, 10429.234555868454, -22476.288375412034, 14349.641126351491, 4348.509532035534, -13198.727452603276, -32460.075016030674, 0.054, -0.002, 1.032, 192.0, 0.0, 0.0, 0.0, 0.0, 0.0, 0.0, 0.0, 0.0, 0.0, 1.747690181876365E9, 0.0, 2025-05-19 23:29:41.876
250.0, 22845.159214157968, 19338.706950987216, 48718.13043572074, 33533.7634126858, 45918.37327699343, 3980.3763008566266, 8327.164748569101, 3645.658927638403, 0.0, 0.0, 10440.276317629376, -22468.420561363764, 14339.202861690863, 4335.165540595715, -13205.321217217592, -32471.89908884753, 0.06, 0.002, 1.034, 192.0, 0.5, 112.0, 0.0, 8.0, 16.0, 40.0, 0.0, 0.0, 0.0, 1.747690181884464E9, 0.0, 2025-05-19 23:29:41.884
252.0, 22842.47700482333, 19338.662247498305, 48712.40838914018, 33547.04034889225, 45921.48016947272, 4019.8941850536094, 8305.908239592105, 3634.5501106441156, 0.0, 0.0, 10419.39978830812, -22485.25142493861, 14331.938544742889, 4333.690325461665, -13210.506821931223, -32476.23532727186, 0.06, 0.002, 1.034, 192.0, 0.0, 0.0, 0.0, 0.0, 0.0, 0.0, 0.0, 0.0, 0.0, 1.747690181892487E9, 0.0, 2025-05-19 23:29:41.892
254.0, 22853.228193906332, 19347.044151669044, 48722.6007846118, 33539.03842437726, 45932.81250391156, 4041.9553568309975, 8292.474841174466, 3632.7172675987804, 0.0, 0.0, 10433.883718715158, -22470.87925325385, 14347.338896672594, 4340.865235431818, -13199.643874125943, -32467.048760300728, 0.06, 0.002, 1.034, 192.0, 0.0, 0.0, 0.0, 0.0, 0.0, 0.0, 0.0, 0.0, 0.0, 1.747690181900542E9, 0.0, 2025-05-19 23:29:41.900
0.0, 22841.51587981175, 19335.085968385454, 48718.711581076575, 33541.13948835606, 45933.21483531175, 4001.2528301778834, 8332.238594560456, 3649.9951660627326, 0.0, 0.0, 10433.816663481792, -22473.91909049977, 14332.251469165263, 4337.534825507978, -13192.893647300441, -32473.128434792572, 0.06, 0.002, 1.034, 192.0, 0.0, 0.0, 0.0, 0.0, 0.0, 0.0, 0.0, 0.0, 0.0, 1.747690181907498E9, 0.0, 2025-05-19 23:29:41.907
2.0, 22836.173812886933, 19327.844003181937, 48700.58431632332, 33531.84116266265, 45916.69689615928, 4007.645429092101, 8304.16480352459, 3630.9738315312666, 0.0, 0.0, 10422.663142998594, -22480.646965580818, 14342.957954759355, 4343.838017444375, -13196.5146299022, -32467.540498678747, 0.06, 0.002, 1.034, 192.0, 0.0, 0.0, 0.0, 0.0, 0.0, 0.0, 0.0, 0.0, 0.0, 1.747690181916535E9, 0.0, 2025-05-19 23:29:41.916
4.0, 22839.727740255326, 19331.53204101706, 48703.333580891325, 33520.88880787955, 45910.28194550061, 3993.7202922964448, 8313.306667006811, 3633.119598998976, 0.0, 0.0, 10413.811852194292, -22489.475904640665, 14315.085329423588, 4310.511566461511, -13225.974229094296, -32494.943737380952, 0.058, 0.0, 1.036, 192.0, 0.5, 104.0, 0.0, 0.0, 16.0, 48.0, 0.0, 0.0, 0.0, 1.74769018192457E9, 0.0, 2025-05-19 23:29:41.924
6.0, 22837.13493789851, 19329.07334912698, 48705.79227278141, 33538.07729936568, 45922.46364622875, 4006.684304080523, 8327.656486947119, 3631.219700720275, 0.0, 0.0, 10417.63400049615, -22486.97250926167, 14326.060035951143, 4334.897319662252, -13197.095775258038, -32475.43066447147, 0.058, 0.0, 1.036, 192.0, 0.0, 0.0, 0.0, 0.0, 0.0, 0.0, 0.0, 0.0, 0.0, 1.747690181932576E9, 0.0, 2025-05-19 23:29:41.932
8.0, 22847.729664770326, 19335.153023618823, 48707.535708848925, 33523.34749976963, 45925.95051836378, 4017.9495832859975, 8292.92187606357, 3626.2576134511964, 0.0, 0.0, 10419.131567374656, -22488.246558695624, 14329.904535997455, 4325.978973624584, -13209.500993430735, -32483.656106431023, 0.058, 0.0, 1.036, 192.0, 0.0, 0.0, 0.0, 0.0, 0.0, 0.0, 0.0, 0.0, 0.0, 1.747690181939589E9, 0.0, 2025-05-19 23:29:41.939
10.0, 22853.496414839796, 19343.154948133822, 48722.17610146715, 33546.45920353642, 45927.67160268684, 4000.6716848220453, 8321.50975722191, 3638.4616659237945, 0.0, 0.0, 10427.088788400744, -22479.171750446767, 14327.289381896184, 4327.4094852697235, -13203.153098005427, -32483.05260933073, 0.058, 0.0, 1.036, 192.0, 0.0, 0.0, 0.0, 0.0, 0.0, 0.0, 0.0, 0.0, 0.0, 1.747690181948627E9, 0.0, 2025-05-19 23:29:41.948
12.0, 22841.627638534028, 19333.610753251407, 48708.139205949214, 33538.390223788054, 45909.52198618913, 4012.3392954277156, 8301.370835467676, 3630.2585757086968, 0.0, 0.0, 10430.77682623587, -22475.193139933723, 14350.781065318712, 4345.648508745255, -13193.89947580093, -32462.310190476204, 0.058, 0.0, 1.036, 192.0, 0.0, 0.0, 0.0, 0.0, 0.0, 0.0, 0.0, 0.0, 0.0, 1.747690181956663E9, 0.0, 2025-05-19 23:29:41.956
14.0, 22856.0445137077, 19345.993619679644, 48733.30727020589, 33542.48059302337, 45937.05933535807, 4023.6939816110116, 8324.236670045457, 3649.794000362635, 0.0, 0.0, 10429.659239013105, -22479.48467486914, 14330.351570886562, 4324.213185812615, -13213.144327776949, -32483.790216897753, 0.06, 0.002, 1.03, 192.0, 0.5, 112.0, 0.0, 8.0, 16.0, 24.0, 0.0, 0.0, 0.0, 1.747690181963673E9, 0.0, 2025-05-19 23:29:41.963
16.0, 22849.51780432675, 19342.05971265551, 48723.338392178826, 33558.28327635328, 45928.38685850941, 4022.3081734547823, 8334.429065517077, 3646.15066601642, 0.0, 0.0, 10442.086808930257, -22466.699477040707, 14350.26697519624, 4359.528942052, -13173.537036602145, -32453.347140949627, 0.06, 0.002, 1.03, 192.0, 0.0, 0.0, 0.0, 0.0, 0.0, 0.0, 0.0, 0.0, 0.0, 1.74769018197171E9, 0.0, 2025-05-19 23:29:41.971
18.0, 22846.746188014295, 19337.567012019994, 48709.01092398297, 33531.28236905127, 45912.338305990495, 3997.7436062984, 8300.87909708966, 3637.2546717232076, 0.0, 0.0, 10426.172366878078, -22480.49050336963, 14338.711123312847, 4331.209281827126, -13213.099624288037, -32474.33542899316, 0.06, 0.002, 1.03, 192.0, 0.0, 0.0, 0.0, 0.0, 0.0, 0.0, 0.0, 0.0, 0.0, 1.747690181980722E9, 0.0, 2025-05-19 23:29:41.980
20.0, 22847.57320255914, 19334.77304396308, 48718.37630490975, 33544.961636657914, 45940.90383540438, 4009.232402948428, 8331.568042226798, 3635.5782908890596, 0.0, 0.0, 10428.318134345787, -22472.26506141008, 14331.066826709131, 4331.231633571581, -13198.146307247438, -32476.034161571763, 0.06, 0.002, 1.03, 192.0, 0.0, 0.0, 0.0, 0.0, 0.0, 0.0, 0.0, 0.0, 0.0, 1.747690181987805E9, 0.0, 2025-05-19 23:29:41.987
22.0, 22845.248621135786, 19332.671979984283, 48710.173214694645, 33533.696357452434, 45924.25178578518, 4031.4947404259137, 8295.961713309493, 3626.8164070625794, 0.0, 0.0, 10427.357009334208, -22481.36222140339, 14347.383600161505, 4344.217997100115, -13187.75274607572, -32465.95352482242, 0.06, 0.002, 1.03, 192.0, 0.0, 0.0, 0.0, 0.0, 0.0, 0.0, 0.0, 0.0, 0.0, 1.747690181995779E9, 0.0, 2025-05-19 23:29:41.995
24.0, 22846.723836269837, 19334.795395707537, 48704.98760998101, 33518.69833692293, 45906.70566638776, 3974.6989577649783, 8330.02577185938, 3649.1905032623417, 0.0, 0.0, 10418.371608063175, -22492.02400350857, 14320.092120181576, 4312.389112995757, -13221.056845314128, -32496.32954553718, 0.056, 0.002, 1.028, 192.0, 0.5, 96.0, 0.0, 8.0, 16.0, 16.0, 0.0, 0.0, 0.0, 1.747690182003816E9, 0.0, 2025-05-19 23:29:42.003
26.0, 22846.053283936177, 19335.287134085553, 48712.96718275156, 33546.68272098097, 45939.45097201478, 4030.712429369978, 8313.060797817803, 3632.404343176406, 0.0, 0.0, 10426.619401767184, -22485.87727378336, 14335.224251177819, 4340.462904031623, -13191.105507744016, -32471.742626636344, 0.056, 0.002, 1.028, 192.0, 0.0, 0.0, 0.0, 0.0, 0.0, 0.0, 0.0, 0.0, 0.0, 1.747690182012891E9, 0.0, 2025-05-19 23:29:42.012
28.0, 22849.763673515758, 19336.44942479723, 48704.27235415845, 33527.32611028267, 45910.460759456255, 4021.5035106543914, 8300.074434289269, 3626.727000084758, 0.0, 0.0, 10419.1092156302, -22483.530340615554, 14334.330181399606, 4328.884700403774, -13212.943162076852, -32474.782463882264, 0.056, 0.002, 1.028, 192.0, 0.0, 0.0, 0.0, 0.0, 0.0, 0.0, 0.0, 0.0, 0.0, 1.747690182019959E9, 0.0, 2025-05-19 23:29:42.019
30.0, 22851.797682261193, 19342.842023711448, 48716.36464790877, 33542.61470349011, 45928.632727698416, 3997.3412748982046, 8330.338696281755, 3638.796942090624, 0.0, 0.0, 10427.938154690046, -22476.176616689758, 14329.658666808447, 4331.410447527224, -13200.04620552614, -32475.52007144929, 0.056, 0.002, 1.028, 192.0, 0.0, 0.0, 0.0, 0.0, 0.0, 0.0, 0.0, 0.0, 0.0, 1.747690182028034E9, 0.0, 2025-05-19 23:29:42.028
32.0, 22852.356475872573, 19341.25504985512, 48707.26748791546, 33537.3173400542, 45913.92527984682, 4021.8164350767656, 8305.751777380918, 3625.43059890635, 0.0, 0.0, 10427.222898867476, -22483.619747593373, 14345.729571071814, 4337.1548458522375, -13200.828516582074, -32468.76984462379, 0.056, 0.002, 1.028, 192.0, 0.0, 0.0, 0.0, 0.0, 0.0, 0.0, 0.0, 0.0, 0.0, 1.747690182037081E9, 0.0, 2025-05-19 23:29:42.037
34.0, 22846.589725803107, 19334.05778814051, 48708.78740653842, 33522.185209057956, 45911.287774001095, 3980.868039234643, 8314.915992607594, 3635.8465118225236, 0.0, 0.0, 10427.44641631203, -22478.791770791027, 14330.999771475766, 4316.7253514200875, -13217.078234801083, -32487.366496010603, 0.06, 0.0, 1.024, 192.0, 0.5, 112.0, 0.0, 0.0, 16.0, 0.0, 0.0, 0.0, 0.0, 1.747690182044077E9, 0.0, 2025-05-19 23:29:42.044
36.0, 22834.765652986247, 19320.758500189604, 48701.76895877945, 33532.84699116313, 45915.04286706959, 4010.0147140043637, 8299.180364511058, 3629.610375119493, 0.0, 0.0, 10410.883773670646, -22493.789791320538, 14325.389483617484, 4322.872081145297, -13203.488374172257, -32487.031219843775, 0.06, 0.0, 1.024, 192.0, 0.0, 0.0, 0.0, 0.0, 0.0, 0.0, 0.0, 0.0, 0.0, 1.747690182052063E9, 0.0, 2025-05-19 23:29:42.052
38.0, 22840.308885611164, 19328.223982837677, 48714.442397885614, 33527.907255638514, 45915.31108800305, 4002.415120889559, 8299.515640677886, 3632.0020117762106, 0.0, 0.0, 10418.863346441192, -22488.760648818094, 14330.709198797847, 4321.262755544514, -13214.396025466445, -32486.38301925457, 0.06, 0.0, 1.024, 192.0, 0.0, 0.0, 0.0, 0.0, 0.0, 0.0, 0.0, 0.0, 0.0, 1.747690182060099E9, 0.0, 2025-05-19 23:29:42.060
40.0, 22840.957086200367, 19329.699197971728, 48712.78836879592, 33542.77116570129, 45905.051637298064, 4030.13128401414, 8349.069458135302, 3648.34113697304, 0.0, 0.0, 10426.842919211736, -22479.283509169043, 14325.054207450654, 4330.806950426931, -13199.688577614854, -32478.09052206165, 0.06, 0.0, 1.024, 192.0, 0.0, 0.0, 0.0, 0.0, 0.0, 0.0, 0.0, 0.0, 0.0, 1.747690182068101E9, 0.0, 2025-05-19 23:29:42.068
42.0, 22854.345781129097, 19336.941163175245, 48723.964241023576, 33550.482517538374, 45930.82319865504, 4015.22267046245, 8302.68958839054, 3636.6288228784592, 0.0, 0.0, 10428.63105876816, -22476.556596345497, 14347.562414117148, 4347.928386679696, -13194.36886243449, -32458.108062518608, 0.06, 0.0, 1.024, 192.0, 0.0, 0.0, 0.0, 0.0, 0.0, 0.0, 0.0, 0.0, 0.0, 1.747690182075094E9, 0.0, 2025-05-19 23:29:42.075
44.0, 22862.705333555383, 19346.440654568753, 48728.32283119236, 33542.61470349011, 45933.90773938987, 4011.579336116235, 8316.525318208376, 3640.2274537357634, 0.0, 0.0, 10437.884680972658, -22469.62755556435, 14337.392370389984, 4331.09752310485, -13202.37078694949, -32477.03999007225, 0.058, -0.002, 1.024, 192.0, 0.5, 104.0, 127.5, 120.0, 16.0, 0.0, 0.0, 0.0, 0.0, 1.747690182084305E9, 0.0, 2025-05-19 23:29:42.084
46.0, 22854.36813287355, 19341.344456832943, 48710.597897839296, 33546.32509306969, 45917.07687581502, 4007.6901325810118, 8327.902356136126, 3633.879558310456, 0.0, 0.0, 10433.079055914766, -22471.460398609688, 14344.567280360137, 4347.056668645939, -13186.255179197215, -32464.254792243817, 0.058, -0.002, 1.024, 192.0, 0.0, 0.0, 0.0, 0.0, 0.0, 0.0, 0.0, 0.0, 0.0, 1.747690182092237E9, 0.0, 2025-05-19 23:29:42.092
48.0, 22868.270917924754, 19353.414398838806, 48731.07209576036, 33543.59818024614, 45932.09724808899, 4044.414048721081, 8278.370890423166, 3622.9495552718113, 0.0, 0.0, 10430.508605302406, -22474.679049811253, 14342.868547781534, 4329.219976570604, -13211.892630087452, -32475.788292382753, 0.058, -0.002, 1.024, 192.0, 0.0, 0.0, 0.0, 0.0, 0.0, 0.0, 0.0, 0.0, 0.0, 1.747690182100229E9, 0.0, 2025-05-19 23:29:42.100
50.0, 22860.693676554405, 19351.089817415457, 48725.17123522416, 33550.54957277174, 45926.77753290863, 4005.9466965134975, 8315.430082730065, 3642.1497037589197, 0.0, 0.0, 10444.120817675688, -22463.123197927856, 14341.683905325403, 4338.339488308369, -13188.110373987005, -32469.060417301705, 0.058, -0.002, 1.024, 192.0, 0.0, 0.0, 0.0, 0.0, 0.0, 0.0, 0.0, 0.0, 0.0, 1.747690182108267E9, 0.0, 2025-05-19 23:29:42.108
52.0, 22861.18541493242, 19348.720532503194, 48715.135301963724, 33548.35910181512, 45922.48599797321, 4029.5948421472126, 8304.701245391518, 3631.219700720275, 0.0, 0.0, 10431.581489036262, -22469.269927653066, 14354.580861876115, 4349.627119258299, -13186.858676297508, -32456.23051598436, 0.058, -0.002, 1.024, 192.0, 0.0, 0.0, 0.0, 0.0, 0.0, 0.0, 0.0, 0.0, 0.0, 1.747690182116287E9, 0.0, 2025-05-19 23:29:42.116
54.0, 22856.200975918888, 19337.902288186826, 48707.49100536001, 33526.34263352664, 45907.21975651023, 4004.8291092907325, 8312.859632117705, 3636.114732755987, 0.0, 0.0, 10427.401712823119, -22474.656698066796, 14331.31269589814, 4319.765188666009, -13216.966476078805, -32482.76203665281, 0.058, -0.002, 1.026, 192.0, 0.5, 104.0, 127.5, 120.0, 16.0, 8.0, 0.0, 0.0, 0.0, 1.747690182123338E9, 0.0, 2025-05-19 23:29:42.123
56.0, 22865.923984756948, 19347.625297024882, 48720.231499699534, 33547.64384599255, 45927.17986430882, 4009.8582517931764, 8310.40094022762, 3634.5501106441156, 0.0, 0.0, 10427.334657589754, -22486.50312262811, 14334.710161055347, 4332.2821655609805, -13197.811031080608, -32477.151748794528, 0.058, -0.002, 1.026, 192.0, 0.0, 0.0, 0.0, 0.0, 0.0, 0.0, 0.0, 0.0, 0.0, 1.747690182131358E9, 0.0, 2025-05-19 23:29:42.131
58.0, 22854.725760784837, 19338.014046909102, 48714.576508352344, 33534.32220629718, 45910.170186778334, 4024.968031044964, 8300.409710456099, 3628.828064063557, 0.0, 0.0, 10434.800140237825, -22473.650869566307, 14346.802454805667, 4333.958546395129, -13201.677882871376, -32470.267411502293, 0.058, -0.002, 1.026, 192.0, 0.0, 0.0, 0.0, 0.0, 0.0, 0.0, 0.0, 0.0, 0.0, 1.747690182140379E9, 0.0, 2025-05-19 23:29:42.140
60.0, 22861.073656210145, 19348.608773780918, 48717.526938620445, 33547.062700636714, 45914.34996299147, 4017.2119757189726, 8331.657449204618, 3646.508293927705, 0.0, 0.0, 10428.139320390144, -22473.807331777494, 14331.916192998433, 4325.487235246567, -13207.75755736322, -32478.47050171739, 0.058, -0.002, 1.026, 192.0, 0.0, 0.0, 0.0, 0.0, 0.0, 0.0, 0.0, 0.0, 0.0, 1.747690182148426E9, 0.0, 2025-05-19 23:29:42.148
62.0, 22854.23402240682, 19347.58059353597, 48709.972048994554, 33543.218200590396, 45906.14687277638, 4058.6968134280223, 8301.080262789757, 3634.5501106441156, 0.0, 0.0, 10431.1121024027, -22469.4040381198, 14357.21836772184, 4344.687383733676, -13194.033586267662, -32459.963257308398, 0.058, -0.002, 1.026, 192.0, 0.0, 0.0, 0.0, 0.0, 0.0, 0.0, 0.0, 0.0, 0.0, 1.747690182155442E9, 0.0, 2025-05-19 23:29:42.155
64.0, 22871.578976104138, 19367.227776912187, 48725.841787557816, 33550.12488962709, 45908.38204722191, 4014.1497867285952, 8328.751722425428, 3653.1914655198416, 0.0, 0.0, 10431.782654736358, -22465.760703773583, 14341.326277414117, 4323.676743945688, -13213.054920799128, -32477.24115577235, 0.058, -0.006, 1.03, 192.0, 0.5, 104.0, 127.5, 104.0, 16.0, 24.0, 0.0, 0.0, 0.0, 1.747690182165459E9, 0.0, 2025-05-19 23:29:42.165
66.0, 22874.9987930058, 19374.49209386016, 48732.99434578352, 33573.25894513833, 45920.85432062797, 4044.9504905880085, 8322.269716533388, 3655.62780566547, 0.0, 0.0, 10441.371553107687, -22453.690761767717, 14361.062867768154, 4354.164523382727, -13180.80135355012, -32450.75433859281, 0.058, -0.006, 1.03, 192.0, 0.0, 0.0, 0.0, 0.0, 0.0, 0.0, 0.0, 0.0, 0.0, 1.747690182172464E9, 0.0, 2025-05-19 23:29:42.172
68.0, 22879.53619713023, 19382.78459105308, 48738.47052317507, 33564.608820034126, 45914.84170136949, 4045.732801643944, 8321.956792111016, 3655.404288220917, 0.0, 0.0, 10448.948794478036, -22444.437139563222, 14371.232911495319, 4356.645567017265, -13181.60601635051, -32445.70284434591, 0.058, -0.006, 1.03, 192.0, 0.0, 0.0, 0.0, 0.0, 0.0, 0.0, 0.0, 0.0, 0.0, 1.747690182179515E9, 0.0, 2025-05-19 23:29:42.179
70.0, 22868.829711536135, 19378.940091006767, 48729.060438759385, 33570.08499742568, 45886.052654511055, 4040.9942318194194, 8366.615577532719, 3678.5606954766154, 0.0, 0.0, 10442.44443684154, -22445.644133763806, 14354.513806642748, 4349.71652623612, -13186.188123963848, -32453.593010138633, 0.058, -0.006, 1.03, 192.0, 0.0, 0.0, 0.0, 0.0, 0.0, 0.0, 0.0, 0.0, 0.0, 1.747690182187534E9, 0.0, 2025-05-19 23:29:42.187
72.0, 22870.28257492573, 19385.042117243065, 48735.78831384043, 33580.70207604195, 45911.623050167924, 4065.0894123422404, 8305.394149469632, 3662.601549935526, 0.0, 0.0, 10443.137340919655, -22437.82102320445, 14378.988966821309, 4374.862238748341, -13169.536074344645, -32427.821448781666, 0.058, -0.006, 1.03, 192.0, 0.0, 0.0, 0.0, 0.0, 0.0, 0.0, 0.0, 0.0, 0.0, 1.747690182195534E9, 0.0, 2025-05-19 23:29:42.195
74.0, 22879.983232019335, 19394.921588292313, 48737.799970841406, 33569.90618347003, 45902.79411110808, 4075.3712147916813, 8343.749742954938, 3673.3750907629837, 0.0, 0.0, 10439.203433895522, -22437.262229593067, 14358.201844477875, 4352.130514637293, -13185.070536741083, -32446.462803657392, 0.058, 0.0, 1.028, 192.0, 0.5, 104.0, 0.0, 0.0, 16.0, 16.0, 0.0, 0.0, 0.0, 1.747690182204603E9, 0.0, 2025-05-19 23:29:42.204
76.0, 22867.421551635452, 19386.159704465834, 48721.77377006695, 33573.773035260805, 45888.46664291223, 4064.1506390751174, 8343.83914993276, 3671.63165469547, 0.0, 0.0, 10440.008096695912, -22438.849203449394, 14367.366059704551, 4367.284997377992, -13171.927711001363, -32433.319977917672, 0.058, 0.0, 1.028, 192.0, 0.0, 0.0, 0.0, 0.0, 0.0, 0.0, 0.0, 0.0, 0.0, 1.747690182211635E9, 0.0, 2025-05-19 23:29:42.211
78.0, 22881.14552273101, 19400.9789110397, 48734.871892317766, 33563.33477060017, 45899.2848872286, 4055.254644781905, 8310.065664060792, 3660.3216720010846, 0.0, 0.0, 10436.25300362742, -22442.11255813987, 14366.382582948518, 4349.850636702852, -13193.787717078652, -32449.435585669948, 0.058, 0.0, 1.028, 192.0, 0.0, 0.0, 0.0, 0.0, 0.0, 0.0, 0.0, 0.0, 0.0, 1.747690182219681E9, 0.0, 2025-05-19 23:29:42.219
80.0, 22879.133865730033, 19400.442469172773, 48736.21299698508, 33573.54951781625, 45912.29360250159, 4044.5928626767236, 8349.002402901937, 3670.961102361811, 0.0, 0.0, 10444.344335120242, -22433.954171413683, 14359.945280545388, 4351.079982647894, -13177.5603506041, -32451.827222326665, 0.058, 0.0, 1.028, 192.0, 0.0, 0.0, 0.0, 0.0, 0.0, 0.0, 0.0, 0.0, 0.0, 1.747690182228669E9, 0.0, 2025-05-19 23:29:42.228
82.0, 22867.689772568916, 19389.713631834227, 48723.807778812385, 33565.3240758567, 45899.77662560662, 4060.8649326401874, 8315.45243447452, 3651.5597881746044, 0.0, 0.0, 10434.82249198228, -22439.87738369434, 14373.199865007386, 4360.557122296944, -13178.56617910459, -32440.025501254262, 0.058, 0.0, 1.028, 192.0, 0.0, 0.0, 0.0, 0.0, 0.0, 0.0, 0.0, 0.0, 0.0, 1.747690182235699E9, 0.0, 2025-05-19 23:29:42.235
84.0, 22889.460371668385, 19406.924475064814, 48738.984613297536, 33566.79929099075, 45902.637648896896, 4040.2789759968496, 8339.815835930805, 3667.429526737872, 0.0, 0.0, 10437.169425150089, -22439.87738369434, 14354.670268853935, 4336.23842432957, -13197.006368280217, -32462.131376520563, 0.058, 0.002, 1.034, 192.0, 0.5, 104.0, 0.0, 8.0, 16.0, 40.0, 0.0, 0.0, 0.0, 1.747690182243777E9, 0.0, 2025-05-19 23:29:42.243
86.0, 22883.850083810103, 19402.722347107214, 48735.765962095975, 33581.84201500917, 45903.79993960857, 4069.80563042231, 8327.276507291377, 3658.622939422481, 0.0, 0.0, 10450.848692756736, -22430.40024404529, 14377.625510409536, 4363.239331631581, -13170.22897842276, -32439.824335554164, 0.058, 0.002, 1.034, 192.0, 0.0, 0.0, 0.0, 0.0, 0.0, 0.0, 0.0, 0.0, 0.0, 1.747690182251793E9, 0.0, 2025-05-19 23:29:42.251
88.0, 22891.2038077359, 19405.94099830878, 48740.28101447595, 33568.2745061248, 45898.010837794645, 4065.581150720257, 8306.22116401448, 3646.2847764831517, 0.0, 0.0, 10441.170387407588, -22438.804499960483, 14370.674117883937, 4339.904110420241, -13203.443670683346, -32457.370454951582, 0.058, 0.002, 1.034, 192.0, 0.0, 0.0, 0.0, 0.0, 0.0, 0.0, 0.0, 0.0, 0.0, 1.747690182260817E9, 0.0, 2025-05-19 23:29:42.260
90.0, 22893.394278692518, 19411.32776872251, 48753.84852336032, 33587.474654611906, 45915.02051532514, 4064.2176943084833, 8340.776960942383, 3664.9931865922435, 0.0, 0.0, 10465.198512697043, -22419.157316584267, 14380.821809866646, 4362.76994499802, -13164.976318475763, -32442.640655355535, 0.058, 0.002, 1.034, 192.0, 0.0, 0.0, 0.0, 0.0, 0.0, 0.0, 0.0, 0.0, 0.0, 1.747690182267832E9, 0.0, 2025-05-19 23:29:42.267
92.0, 22895.025956037756, 19410.07607103301, 48739.38694469773, 33584.12189294361, 45902.70470413026, 4116.967811223008, 8319.431044987565, 3656.3877649769506, 0.0, 0.0, 10451.653355557128, -22424.56643874245, 14392.377661750039, 4368.737860767586, -13171.927711001363, -32434.057585484697, 0.058, 0.002, 1.034, 192.0, 0.0, 0.0, 0.0, 0.0, 0.0, 0.0, 0.0, 0.0, 0.0, 1.747690182275866E9, 0.0, 2025-05-19 23:29:42.275
94.0, 22899.786877606737, 19416.04398680258, 48744.863122089286, 33578.39984636305, 45900.581288407004, 4044.9728423324636, 8340.17346384209, 3663.093288313543, 0.0, 0.0, 10454.424971869585, -22425.05817712047, 14376.999661564787, 4345.983784912084, -13193.363033934002, -32454.33061770566, 0.058, -0.001, 1.032, 192.0, 0.5, 104.0, 127.5, 112.0, 16.0, 24.0, 0.0, 0.0, 0.0, 1.747690182283905E9, 0.0, 2025-05-19 23:29:42.283
96.0, 22888.633357123537, 19402.49882966266, 48733.26256671698, 33583.004305720846, 45886.209116722246, 4053.5335604588463, 8344.50970226642, 3658.511180700205, 0.0, 0.0, 10454.112047447212, -22426.265171321058, 14384.398088979495, 4362.725241509109, -13181.091926228039, -32436.873905286066, 0.058, -0.001, 1.032, 192.0, 0.0, 0.0, 0.0, 0.0, 0.0, 0.0, 0.0, 0.0, 0.0, 1.747690182291919E9, 0.0, 2025-05-19 23:29:42.291
98.0, 22904.324281731166, 19417.45214670326, 48756.664843161685, 33584.83714876618, 45915.914585103346, 4049.644356923623, 8296.45345168751, 3656.1642475323974, 0.0, 0.0, 10452.435666613062, -22431.674293479242, 14383.794591879201, 4361.562950797433, -13179.303786671613, -32441.500716388313, 0.058, -0.001, 1.032, 192.0, 0.0, 0.0, 0.0, 0.0, 0.0, 0.0, 0.0, 0.0, 0.0, 1.747690182299942E9, 0.0, 2025-05-19 23:29:42.299
100.0, 22894.86949382657, 19413.048853045566, 48750.16048552519, 33587.474654611906, 45904.582250664505, 4053.0194703363745, 8338.720600452496, 3653.5490934311265, 0.0, 0.0, 10462.918634762602, -22417.033900861014, 14382.207618022874, 4365.183933399193, -13167.680879554855, -32435.84572504112, 0.058, -0.001, 1.032, 192.0, 0.0, 0.0, 0.0, 0.0, 0.0, 0.0, 0.0, 0.0, 0.0, 1.747690182307957E9, 0.0, 2025-05-19 23:29:42.307
102.0, 22895.54004616023, 19414.16644026833, 48753.91557859368, 33594.78367504879, 45907.733846632706, 4101.634514526667, 8318.916954865093, 3668.8600383830117, 0.0, 0.0, 10464.93029176358, -22415.871610149337, 14403.08414734413, 4383.9370469971955, -13156.929690471852, -32416.466762598367, 0.058, -0.001, 1.032, 192.0, 0.0, 0.0, 0.0, 0.0, 0.0, 0.0, 0.0, 0.0, 0.0, 1.747690182317009E9, 0.0, 2025-05-19 23:29:42.317
104.0, 22891.561435647185, 19407.729137865204, 48743.07498253286, 33575.13649167258, 45907.75619837716, 4050.6278336796563, 8329.22110905899, 3665.7754976481797, 0.0, 0.0, 10453.821474769293, -22422.10774685237, 14376.574978420136, 4356.2879391059805, -13180.957815761307, -32440.718405332376, 0.056, -0.0045000000000000005, 1.033, 192.0, 0.5, 88.0, 127.5, 96.0, 16.0, 40.0, 0.0, 0.0, 0.0, 1.747690182323057E9, 0.0, 2025-05-19 23:29:42.323
106.0, 22878.68683084093, 19400.196599983767, 48727.54052013642, 33578.06457019622, 45884.577439377004, 4060.5296564733576, 8342.74391445445, 3666.602512193026, 0.0, 0.0, 10443.740838019949, -22429.796746944994, 14376.88790284251, 4362.859351975841, -13176.532170359156, -32435.376338407557, 0.056, -0.0045000000000000005, 1.033, 192.0, 0.0, 0.0, 0.0, 0.0, 0.0, 0.0, 0.0, 0.0, 0.0, 1.747690182332072E9, 0.0, 2025-05-19 23:29:42.332
108.0, 22885.05707801069, 19406.99153029818, 48735.49774116251, 33565.74875900135, 45907.309163488055, 4073.5383717463465, 8302.354312223712, 3653.5043899422158, 0.0, 0.0, 10444.389038609152, -22435.272924336547, 14375.725612130835, 4351.1246861368045, -13189.116202487494, -32445.18875422344, 0.056, -0.0045000000000000005, 1.033, 192.0, 0.0, 0.0, 0.0, 0.0, 0.0, 0.0, 0.0, 0.0, 0.0, 1.747690182340081E9, 0.0, 2025-05-19 23:29:42.340
110.0, 22881.86077855358, 19403.862286074436, 48721.080865988835, 33563.71475025592, 45886.678503355804, 4040.4130864635813, 8340.374629542188, 3658.8464568670342, 0.0, 0.0, 10438.555233306317, -22437.753967971083, 14360.571129390137, 4340.485255776079, -13190.27849319917, -32455.492908417335, 0.056, -0.0045000000000000005, 1.033, 192.0, 0.0, 0.0, 0.0, 0.0, 0.0, 0.0, 0.0, 0.0, 0.0, 1.747690182348128E9, 0.0, 2025-05-19 23:29:42.348
112.0, 22881.592557620115, 19403.527009907604, 48739.14107550873, 33579.293916141265, 45904.783416364604, 4103.914392461109, 8323.119082822692, 3663.428564480372, 0.0, 0.0, 10439.605765295717, -22438.983313916127, 14379.950091832889, 4355.483276305589, -13183.03652799565, -32441.076033243662, 0.056, -0.0045000000000000005, 1.033, 192.0, 0.0, 0.0, 0.0, 0.0, 0.0, 0.0, 0.0, 0.0, 0.0, 1.747690182355152E9, 0.0, 2025-05-19 23:29:42.355
114.0, 22892.142581003023, 19415.46284144674, 48740.19160749813, 33569.54855555875, 45892.08762551399, 4043.9446620875196, 8341.201644087034, 3668.144782560442, 0.0, 0.0, 10449.596995067239, -22429.86380217836, 14371.232911495319, 4345.626157000799, -13186.791621064142, -32450.687283359446, 0.057999999999999996, -0.00725, 1.0335, 192.0, 0.5, 112.0, 127.5, 88.0, 16.0, 40.0, 0.0, 0.0, 0.0, 1.747690182364188E9, 0.0, 2025-05-19 23:29:42.364
116.0, 22893.05900252569, 19418.234457759198, 48740.43747668713, 33588.63694532358, 45895.50744241565, 4066.3634617761927, 8326.851824146726, 3659.829933623068, 0.0, 0.0, 10455.564910836805, -22421.459546263166, 14388.443754725904, 4361.00415718605, -13171.279510412158, -32435.93513201894, 0.057999999999999996, -0.00725, 1.0335, 192.0, 0.0, 0.0, 0.0, 0.0, 0.0, 0.0, 0.0, 0.0, 0.0, 1.747690182372212E9, 0.0, 2025-05-19 23:29:42.372
118.0, 22885.99585127781, 19408.287931476585, 48734.67072661767, 33562.64186652206, 45891.148852246864, 4038.7814091183436, 8309.752739638418, 3658.15355278892, 0.0, 0.0, 10449.753457278426, -22426.801613187985, 14385.873304113544, 4347.883683190785, -13189.585589121056, -32448.295646702725, 0.057999999999999996, -0.00725, 1.0335, 192.0, 0.0, 0.0, 0.0, 0.0, 0.0, 0.0, 0.0, 0.0, 0.0, 1.747690182379204E9, 0.0, 2025-05-19 23:29:42.379
120.0, 22893.327223459153, 19416.84864960297, 48745.17604651166, 33584.21129992143, 45903.17409076382, 4107.043636684852, 8333.93732713906, 3664.210875536308, 0.0, 0.0, 10447.741800277448, -22427.67333122174, 14373.222216751841, 4346.0731918899055, -13184.399984407424, -32451.871925815576, 0.057999999999999996, -0.00725, 1.0335, 192.0, 0.0, 0.0, 0.0, 0.0, 0.0, 0.0, 0.0, 0.0, 0.0, 1.747690182387289E9, 0.0, 2025-05-19 23:29:42.387
122.0, 22891.606139136093, 19417.161574025344, 48742.78440985494, 33588.81575927923, 45894.25574472616, 4074.3430345467373, 8303.40484421311, 3653.2361690087523, 0.0, 0.0, 10452.994460224445, -22420.811345673963, 14396.110403074075, 4366.05565143295, -13171.70419355681, -32429.69899531591, 0.057999999999999996, -0.00725, 1.0335, 192.0, 0.0, 0.0, 0.0, 0.0, 0.0, 0.0, 0.0, 0.0, 0.0, 1.747690182396328E9, 0.0, 2025-05-19 23:29:42.396
124.0, 22895.607101393594, 19420.961370582747, 48749.91461633619, 33579.89741324156, 45897.13911976089, 4041.7541911308995, 8349.047106390846, 3663.428564480372, 0.0, 0.0, 10464.460905130018, -22411.44596474719, 14384.733365146323, 4349.381250069291, -13187.149248975427, -32444.47349840087, 0.057999999999999996, -0.007625, 1.03375, 192.0, 0.5, 104.0, 127.5, 96.0, 16.0, 40.0, 0.0, 0.0, 0.0, 1.747690182403349E9, 0.0, 2025-05-19 23:29:42.403
126.0, 22880.184397719433, 19407.080937276, 48728.54634863691, 33581.953773731446, 45876.64257009537, 4060.708470429, 8335.546652739842, 3657.080669055065, 0.0, 0.0, 10447.853558999725, -22424.544086997998, 14382.498190700793, 4360.914750208229, -13174.408754635902, -32438.147954720018, 0.057999999999999996, -0.007625, 1.03375, 192.0, 0.0, 0.0, 0.0, 0.0, 0.0, 0.0, 0.0, 0.0, 0.0, 1.74769018241137E9, 0.0, 2025-05-19 23:29:42.411
128.0, 22897.663461883483, 19417.47449844772, 48744.55019766691, 33574.398884105554, 45905.81159660955, 4042.424743464559, 8301.706111634507, 3652.565616675093, 0.0, 0.0, 10440.58924205175, -22427.516869010553, 14379.637167410514, 4347.593110512867, -13194.882952556964, -32447.312169946694, 0.057999999999999996, -0.007625, 1.03375, 192.0, 0.0, 0.0, 0.0, 0.0, 0.0, 0.0, 0.0, 0.0, 0.0, 1.747690182420402E9, 0.0, 2025-05-19 23:29:42.420
130.0, 22888.231025723344, 19409.740794866182, 48744.75136336701, 33581.953773731446, 45893.808709837045, 4055.9475488600197, 8334.384362028166, 3663.562674947104, 0.0, 0.0, 10457.64362307115, -22418.4420607617, 14379.637167410514, 4356.913787950729, -13167.055030710106, -32444.585257123144, 0.057999999999999996, -0.007625, 1.03375, 192.0, 0.0, 0.0, 0.0, 0.0, 0.0, 0.0, 0.0, 0.0, 0.0, 1.747690182428406E9, 0.0, 2025-05-19 23:29:42.428
132.0, 22892.589615892128, 19410.791326855582, 48740.77275285396, 33585.373590633106, 45896.692084871785, 4078.411052037603, 8309.618629171686, 3650.4869044407496, 0.0, 0.0, 10448.25589039992, -22427.226296332636, 14392.042385583209, 4365.429802588201, -13170.676013311866, -32433.69995757341, 0.057999999999999996, -0.007625, 1.03375, 192.0, 0.0, 0.0, 0.0, 0.0, 0.0, 0.0, 0.0, 0.0, 0.0, 1.747690182435475E9, 0.0, 2025-05-19 23:29:42.435
134.0, 22901.597368907616, 19421.900143849867, 48753.26737800448, 33584.926555744, 45901.296544229575, 4069.7162234444886, 8331.500986993431, 3665.686090670358, 0.0, 0.0, 10456.63779457066, -22415.24576130459, 14385.247455268796, 4353.404564071246, -13178.163847704393, -32443.735890833843, 0.059, -0.0068125, 1.033875, 192.0, 0.5, 112.0, 127.5, 104.0, 16.0, 40.0, 0.0, 0.0, 0.0, 1.747690182443461E9, 0.0, 2025-05-19 23:29:42.443
136.0, 22892.567264147674, 19416.915704836334, 48743.90199707771, 33595.27541342681, 45897.56380290554, 4064.1506390751174, 8343.123894110191, 3663.5179714581936, 0.0, 0.0, 10457.040125970856, -22416.16218282726, 14394.545780962204, 4372.917636980729, -13159.231920150749, -32429.453126126904, 0.059, -0.0068125, 1.033875, 192.0, 0.0, 0.0, 0.0, 0.0, 0.0, 0.0, 0.0, 0.0, 0.0, 1.747690182452497E9, 0.0, 2025-05-19 23:29:42.452
138.0, 22892.299043214207, 19411.30541697805, 48739.23048248655, 33573.81773874971, 45883.59396262097, 4060.32849077326, 8300.744986622929, 3646.15066601642, 0.0, 0.0, 10448.077076444279, -22423.426499775233, 14388.622568681547, 4355.572683283411, -13188.311539687104, -32440.114908232084, 0.059, -0.0068125, 1.033875, 192.0, 0.0, 0.0, 0.0, 0.0, 0.0, 0.0, 0.0, 0.0, 0.0, 1.747690182459468E9, 0.0, 2025-05-19 23:29:42.459
140.0, 22893.148409503512, 19413.160611767842, 48736.391810940724, 33584.41246562153, 45879.7271108302, 4031.874720081654, 8346.655469734129, 3671.9669308622997, 0.0, 0.0, 10451.45218985703, -22420.230200318125, 14377.066716798154, 4353.248101860059, -13180.08609772755, -32445.926361790465, 0.059, -0.0068125, 1.033875, 192.0, 0.0, 0.0, 0.0, 0.0, 0.0, 0.0, 0.0, 0.0, 0.0, 1.747690182467564E9, 0.0, 2025-05-19 23:29:42.467
142.0, 22891.96376704738, 19414.0323298016, 48740.01279354248, 33588.77105579031, 45886.99142777818, 4069.604464722212, 8319.609858943208, 3653.660852153403, 0.0, 0.0, 10445.663088043106, -22426.846316676896, 14391.595350694102, 4363.664014776232, -13178.99086224924, -32434.996358751818, 0.059, -0.0068125, 1.033875, 192.0, 0.0, 0.0, 0.0, 0.0, 0.0, 0.0, 0.0, 0.0, 0.0, 1.747690182475621E9, 0.0, 2025-05-19 23:29:42.475
144.0, 22904.324281731166, 19426.45989971875, 48758.56474144039, 33589.88864301308, 45904.22462275322, 4049.867874368176, 8335.971335884493, 3668.278893027174, 0.0, 0.0, 10465.153809208132, -22407.176781556223, 14390.835391382623, 4357.67374726221, -13177.470943626278, -32439.243190198325, 0.0615, -0.00740625, 1.0319375000000002, 192.0, 1.0, 0.0, 127.5, 96.0, 16.0, 24.0, 0.0, 0.0, 0.0, 1.747690182484631E9, 0.0, 2025-05-19 23:29:42.484
146.0, 22899.093973528623, 19418.860306603947, 48742.31502322138, 33595.70009657146, 45887.03613126709, 4062.384851263148, 8341.089885364758, 3668.4130034939058, 0.0, 0.0, 10467.21016969802, -22405.567455955443, 14403.240609555318, 4379.690215550687, -13153.711039270287, -32420.981814978342, 0.0615, -0.00740625, 1.0319375000000002, 192.0, 0.0, 0.0, 0.0, 0.0, 0.0, 0.0, 0.0, 0.0, 0.0, 1.74769018249163E9, 0.0, 2025-05-19 23:29:42.491
148.0, 22886.554644889195, 19406.455088431252, 48727.18289222514, 33558.43973856446, 45878.855392796446, 4073.80659267981, 8320.07924557677, 3662.400384235428, 0.0, 0.0, 10437.59410829474, -22435.787014459016, 14375.435039452916, 4344.799142455953, -13198.19101073635, -32451.156669993004, 0.0615, -0.00740625, 1.0319375000000002, 192.0, 0.0, 0.0, 0.0, 0.0, 0.0, 0.0, 0.0, 0.0, 0.0, 1.747690182499658E9, 0.0, 2025-05-19 23:29:42.499
150.0, 22897.462296183385, 19414.54641992407, 48743.11968602177, 33587.83228252319, 45914.26055601365, 4050.1807987905504, 8338.385324285666, 3673.9338843743667, 0.0, 0.0, 10450.40165786763, -22427.762738199563, 14372.484609184816, 4354.835075716385, -13170.94423424533, -32445.14405073453, 0.0615, -0.00740625, 1.0319375000000002, 192.0, 0.0, 0.0, 0.0, 0.0, 0.0, 0.0, 0.0, 0.0, 0.0, 1.747690182507703E9, 0.0, 2025-05-19 23:29:42.507
152.0, 22886.711107100382, 19405.382204697395, 48728.61340387027, 33574.331828872186, 45878.60952360744, 4044.257586509894, 8308.925725093572, 3652.565616675093, 0.0, 0.0, 10442.131512419166, -22427.941552155204, 14386.722670402845, 4364.692195021176, -13173.090001713039, -32431.263617427783, 0.0615, -0.00740625, 1.0319375000000002, 192.0, 0.0, 0.0, 0.0, 0.0, 0.0, 0.0, 0.0, 0.0, 0.0, 1.747690182515738E9, 0.0, 2025-05-19 23:29:42.515
154.0, 22893.506037414794, 19411.193658255776, 48730.98268878254, 33564.675875267494, 45888.421939423315, 4012.4287024055366, 8336.775998684883, 3667.0048435932213, 0.0, 0.0, 10437.795273994836, -22436.502270281588, 14361.331088701618, 4335.3890580402685, -13195.575856635078, -32460.075016030674, 0.06175, -0.005703125, 1.03096875, 192.0, 0.5, 120.0, 127.5, 112.0, 16.0, 24.0, 0.0, 0.0, 0.0, 1.747690182523739E9, 0.0, 2025-05-19 23:29:42.523
156.0, 22898.1552002615, 19415.79811761357, 48734.06722951737, 33584.7253900439, 45901.721227374226, 4093.2079068670164, 8330.293992792844, 3662.6462534244365, 0.0, 0.0, 10446.624213054683, -22429.215601589156, 14381.559417433671, 4362.166447897726, -13170.027812722661, -32438.66204484249, 0.06175, -0.005703125, 1.03096875, 192.0, 0.0, 0.0, 0.0, 0.0, 0.0, 0.0, 0.0, 0.0, 0.0, 1.74769018253174E9, 0.0, 2025-05-19 23:29:42.531
158.0, 22889.415668179474, 19403.415251185328, 48707.312191404366, 33545.90040992504, 45863.03035772209, 4050.1807987905504, 8330.02577185938, 3643.0661252815876, 0.0, 0.0, 10431.961468692001, -22445.174747130248, 14369.26595798325, 4333.779732439486, -13206.438804440357, -32460.8126235977, 0.06175, -0.005703125, 1.03096875, 192.0, 0.0, 0.0, 0.0, 0.0, 0.0, 0.0, 0.0, 0.0, 0.0, 1.747690182540795E9, 0.0, 2025-05-19 23:29:42.540
160.0, 22892.00847053629, 19409.40551869935, 48736.14594175172, 33576.03056145079, 45903.06233204155, 4044.682269654545, 8335.904280651126, 3656.2313027657633, 0.0, 0.0, 10431.201509380522, -22441.598468017397, 14358.782989833713, 4333.9808981395845, -13199.37565319248, -32462.310190476204, 0.06175, -0.005703125, 1.03096875, 192.0, 0.0, 0.0, 0.0, 0.0, 0.0, 0.0, 0.0, 0.0, 0.0, 1.747690182546819E9, 0.0, 2025-05-19 23:29:42.546
162.0, 22902.46908694137, 19420.827260116013, 48740.795104598415, 33577.751645773846, 45906.90683208786, 4080.0874328717514, 8304.321265735778, 3643.58021540406, 0.0, 0.0, 10451.832169512769, -22430.33318881192, 14392.735289661323, 4365.049822932461, -13165.51276034269, -32437.387995408535, 0.06175, -0.005703125, 1.03096875, 192.0, 0.0, 0.0, 0.0, 0.0, 0.0, 0.0, 0.0, 0.0, 0.0, 1.747690182555816E9, 0.0, 2025-05-19 23:29:42.555
164.0, 22903.944302075422, 19418.614437414937, 48748.17118026867, 33574.175366661, 45901.81063435205, 4059.5908832062346, 8332.88679514966, 3660.6122446790037, 0.0, 0.0, 10452.435666613062, -22427.986255644115, 14377.491399942804, 4343.033354643983, -13188.199780964826, -32456.498736917823, 0.059875, -0.0058515625, 1.0324843750000001, 192.0, 0.5, 104.0, 127.5, 104.0, 16.0, 40.0, 0.0, 0.0, 0.0, 1.747690182563879E9, 0.0, 2025-05-19 23:29:42.563
166.0, 22890.39914493551, 19408.51144892114, 48732.56966263887, 33581.596145820164, 45879.905924785846, 4044.190531276528, 8335.747818439939, 3650.1292765294647, 0.0, 0.0, 10448.814684011304, -22427.181592843725, 14386.476801213837, 4363.48520082059, -13168.485542355245, -32438.483230886846, 0.059875, -0.0058515625, 1.0324843750000001, 192.0, 0.0, 0.0, 0.0, 0.0, 0.0, 0.0, 0.0, 0.0, 0.0, 1.747690182572923E9, 0.0, 2025-05-19 23:29:42.572
168.0, 22894.310700215185, 19412.579466412004, 48735.900072562705, 33565.94992470145, 45883.2810381986, 4038.669650396067, 8314.357198996211, 3648.855227095512, 0.0, 0.0, 10441.550367063328, -22436.3458080704, 14379.212484265863, 4345.9614331676285, -13194.346510690035, -32451.491946159837, 0.059875, -0.0058515625, 1.0324843750000001, 192.0, 0.0, 0.0, 0.0, 0.0, 0.0, 0.0, 0.0, 0.0, 0.0, 1.747690182579966E9, 0.0, 2025-05-19 23:29:42.579
170.0, 22896.00943279379, 19415.708710635747, 48728.702810848095, 33575.11413992812, 45867.4783548687, 4042.3576882311927, 8347.348373812243, 3658.0641458110986, 0.0, 0.0, 10439.15873040661, -22434.580020258432, 14366.963728304354, 4338.004212141539, -13198.548638647633, -32459.94090556394, 0.059875, -0.0058515625, 1.0324843750000001, 192.0, 0.0, 0.0, 0.0, 0.0, 0.0, 0.0, 0.0, 0.0, 0.0, 1.747690182588016E9, 0.0, 2025-05-19 23:29:42.588
172.0, 22901.396203207518, 19418.972065326223, 48739.31988946437, 33582.423160365004, 45887.05848301155, 4084.4683747849913, 8297.369873210177, 3643.468456681783, 0.0, 0.0, 10451.407486368118, -22424.901714909283, 14397.026824596744, 4368.044956689472, -13170.363088889491, -32430.973044749862, 0.059875, -0.0058515625, 1.0324843750000001, 192.0, 0.0, 0.0, 0.0, 0.0, 0.0, 0.0, 0.0, 0.0, 0.0, 1.747690182596096E9, 0.0, 2025-05-19 23:29:42.596
174.0, 22904.503095686807, 19421.877792105413, 48748.97584306906, 33577.751645773846, 45896.17799474931, 4036.1215515281624, 8321.889736877649, 3658.1982562778303, 0.0, 0.0, 10453.0168119689, -22425.304046309477, 14379.167780776952, 4348.800104713453, -13186.27753094167, -32451.46959441538, 0.058937500000000004, -0.00592578125, 1.0322421875, 192.0, 0.5, 104.0, 127.5, 104.0, 16.0, 32.0, 0.0, 0.0, 0.0, 1.747690182603091E9, 0.0, 2025-05-19 23:29:42.603
176.0, 22904.16781951998, 19424.26942876213, 48747.6570901462, 33600.751590818356, 45886.16441323333, 4090.5927527657454, 8320.16865255459, 3653.951424831322, 0.0, 0.0, 10460.482294616973, -22414.642264204296, 14398.412632752972, 4372.515305580533, -13162.6070335635, -32429.56488484918, 0.058937500000000004, -0.00592578125, 1.0322421875, 192.0, 0.0, 0.0, 0.0, 0.0, 0.0, 0.0, 0.0, 0.0, 0.0, 1.747690182612091E9, 0.0, 2025-05-19 23:29:42.612
178.0, 22910.694528900927, 19429.052702075565, 48748.215883757584, 33582.847843509655, 45894.70277961526, 4052.483028469447, 8319.654562432119, 3658.555884189115, 0.0, 0.0, 10456.906015504124, -22421.77247068554, 14395.70807167388, 4359.305424607447, -13182.947121017829, -32439.019672753773, 0.058937500000000004, -0.00592578125, 1.0322421875, 192.0, 0.0, 0.0, 0.0, 0.0, 0.0, 0.0, 0.0, 0.0, 0.0, 1.747690182620254E9, 0.0, 2025-05-19 23:29:42.620
180.0, 22897.01526129428, 19417.385091469896, 48742.78440985494, 33584.63598306608, 45880.01768350812, 4051.8795313691535, 8343.660335977118, 3660.925169101378, 0.0, 0.0, 10461.443419628551, -22417.302121794477, 14385.739193646812, 4359.730107752098, -13172.106524957006, -32439.690225087434, 0.058937500000000004, -0.00592578125, 1.0322421875, 192.0, 0.0, 0.0, 0.0, 0.0, 0.0, 0.0, 0.0, 0.0, 0.0, 1.74769018262819E9, 0.0, 2025-05-19 23:29:42.628
182.0, 22892.2543397253, 19412.75828036765, 48734.38015393975, 33578.22103240741, 45876.88843928438, 4067.61515946569, 8317.30762926431, 3651.738602130247, 0.0, 0.0, 10447.25006189943, -22431.76370045706, 14391.483591971826, 4363.082869420394, -13176.532170359156, -32437.343291919628, 0.058937500000000004, -0.00592578125, 1.0322421875, 192.0, 0.0, 0.0, 0.0, 0.0, 0.0, 0.0, 0.0, 0.0, 0.0, 1.747690182635301E9, 0.0, 2025-05-19 23:29:42.635
184.0, 22905.240703253832, 19422.883620605902, 48737.3529359523, 33568.11804391361, 45875.21205845023, 4012.1381297276175, 8337.737123696461, 3657.0359655661546, 0.0, 0.0, 10453.150922435632, -22428.67915972223, 14378.497228443293, 4341.312270320925, -13195.486449657255, -32457.437510184947, 0.05946875, -0.001962890625, 1.03212109375, 192.0, 0.5, 112.0, 0.0, 8.0, 16.0, 32.0, 0.0, 0.0, 0.0, 1.747690182644237E9, 0.0, 2025-05-19 23:29:42.644
186.0, 22904.0560607977, 19422.280123505607, 48747.992366313025, 33590.80506453574, 45887.103186500455, 4086.0106451524075, 8326.3153822798, 3646.7541631167132, 0.0, 0.0, 10457.576567837783, -22428.29918006649, 14390.835391382623, 4361.026508930506, -13170.698365056322, -32443.870001300576, 0.05946875, -0.001962890625, 1.03212109375, 192.0, 0.0, 0.0, 0.0, 0.0, 0.0, 0.0, 0.0, 0.0, 0.0, 1.747690182652281E9, 0.0, 2025-05-19 23:29:42.652
188.0, 22897.52935141675, 19412.400652456363, 48738.85050283081, 33570.95671545943, 45879.66005559684, 4048.5267697008576, 8299.046254044326, 3640.0933432690317, 0.0, 0.0, 10453.262681157908, -22428.075662621937, 14389.002548337288, 4353.628081515799, -13188.110373987005, -32445.658140857002, 0.05946875, -0.001962890625, 1.03212109375, 192.0, 0.0, 0.0, 0.0, 0.0, 0.0, 0.0, 0.0, 0.0, 0.0, 1.747690182659284E9, 0.0, 2025-05-19 23:29:42.659
190.0, 22900.904464829502, 19420.044949060077, 48749.08760179134, 33587.340544145176, 45895.75331160466, 4053.4218017365697, 8328.461149747509, 3660.835762123557, 0.0, 0.0, 10455.855483514724, -22421.81717417445, 14380.37477497754, 4356.95849143964, -13172.46415286829, -32445.23345771235, 0.05946875, -0.001962890625, 1.03212109375, 192.0, 0.0, 0.0, 0.0, 0.0, 0.0, 0.0, 0.0, 0.0, 0.0, 1.747690182667313E9, 0.0, 2025-05-19 23:29:42.667
192.0, 22896.925854316458, 19413.674701890315, 48737.48704641903, 33579.83035800819, 45880.37531141941, 4047.2750720113604, 8297.012245298893, 3645.189541004842, 0.0, 0.0, 10452.033335212867, -22429.95320915618, 14396.333920518628, 4363.5075525650445, -13174.475809869267, -32436.493925630326, 0.05946875, -0.001962890625, 1.03212109375, 192.0, 0.0, 0.0, 0.0, 0.0, 0.0, 0.0, 0.0, 0.0, 0.0, 1.747690182677372E9, 0.0, 2025-05-19 23:29:42.677
194.0, 22908.615816666585, 19422.123661294423, 48746.74066862353, 33579.09275044117, 45888.1313667454, 4037.7979323623103, 8326.941231124549, 3663.339157502551, 0.0, 0.0, 10460.504646361429, -22423.560610241966, 14382.341728489606, 4343.949776166651, -13190.054975754616, -32451.111966504097, 0.057734375000000004, -0.0019814453125, 1.032060546875, 192.0, 0.5, 96.0, 127.5, 120.0, 16.0, 32.0, 0.0, 0.0, 0.0, 1.747690182684409E9, 0.0, 2025-05-19 23:29:42.684
196.0, 22906.045366054223, 19420.715501393737, 48735.140113251226, 33586.40177087805, 45885.96324753323, 4080.020377638385, 8323.923745623082, 3664.0991168140313, 0.0, 0.0, 10457.285995159864, -22422.86770616385, 14393.741118161812, 4363.596959542866, -13168.507894099701, -32432.403556395002, 0.057734375000000004, -0.0019814453125, 1.032060546875, 192.0, 0.0, 0.0, 0.0, 0.0, 0.0, 0.0, 0.0, 0.0, 0.0, 1.747690182691457E9, 0.0, 2025-05-19 23:29:42.691
198.0, 22890.488551913328, 19401.26948371762, 48724.27716544595, 33561.613686277116, 45863.56679958902, 4068.285711799349, 8326.069513090792, 3663.987358091755, 0.0, 0.0, 10442.220919396988, -22434.423558047245, 14381.984100578322, 4340.5746627539, -13199.889743314952, -32450.150841492516, 0.057734375000000004, -0.0019814453125, 1.032060546875, 192.0, 0.0, 0.0, 0.0, 0.0, 0.0, 0.0, 0.0, 0.0, 0.0, 1.747690182699437E9, 0.0, 2025-05-19 23:29:42.699
200.0, 22886.934624544934, 19395.905065048348, 48726.333525935835, 33569.861479981126, 45877.64839859586, 4030.868891581165, 8343.258004576923, 3670.402308750428, 0.0, 0.0, 10438.063494928301, -22441.665523250762, 14365.957899803865, 4337.087790618872, -13194.70413860132, -32456.364626451093, 0.057734375000000004, -0.0019814453125, 1.032060546875, 192.0, 0.0, 0.0, 0.0, 0.0, 0.0, 0.0, 0.0, 0.0, 0.0, 1.747690182707469E9, 0.0, 2025-05-19 23:29:42.707
202.0, 22894.24364498182, 19404.421079685817, 48734.871892317766, 33582.53491908728, 45887.6843318563, 4077.4275752815697, 8303.449547702021, 3653.996128320233, 0.0, 0.0, 10441.840939741247, -22436.59167725941, 14389.002548337288, 4359.663052518732, -13177.202722692815, -32433.811716295688, 0.057734375000000004, -0.0019814453125, 1.032060546875, 192.0, 0.0, 0.0, 0.0, 0.0, 0.0, 0.0, 0.0, 0.0, 0.0, 1.747690182715512E9, 0.0, 2025-05-19 23:29:42.715
204.0, 22907.364118977086, 19417.07216704752, 48746.22657850106, 33584.16659643252, 45898.54727966157, 4066.028185609363, 8321.420350244087, 3666.378994748473, 0.0, 0.0, 10452.949756735536, -22422.554781741477, 14383.36990873455, 4351.616424514821, -13181.85188553952, -32440.830164054652, 0.0558671875, -0.00399072265625, 1.0280302734375, 192.0, 0.5, 88.0, 127.5, 104.0, 16.0, 0.0, 0.0, 0.0, 0.0, 1.747690182723562E9, 0.0, 2025-05-19 23:29:42.723
206.0, 22897.35053746111, 19406.41038494234, 48744.013755799984, 33596.99649774987, 45881.090567241976, 4055.6346244376455, 8328.483501491964, 3658.9135121004, 0.0, 0.0, 10453.977936980478, -22422.35361604138, 14394.076394328642, 4369.542523567978, -13165.490408598234, -32426.27917841425, 0.0558671875, -0.00399072265625, 1.0280302734375, 192.0, 0.0, 0.0, 0.0, 0.0, 0.0, 0.0, 0.0, 0.0, 0.0, 1.747690182732596E9, 0.0, 2025-05-19 23:29:42.732
208.0, 22895.33888046013, 19406.455088431252, 48740.45982843159, 33577.66223879602, 45874.92148577231, 4034.735743371933, 8317.732312408962, 3655.314881243096, 0.0, 0.0, 10449.999326467434, -22423.58296198642, 14394.143449562009, 4361.250026375059, -13176.867446525985, -32433.588198851136, 0.0558671875, -0.00399072265625, 1.0280302734375, 192.0, 0.0, 0.0, 0.0, 0.0, 0.0, 0.0, 0.0, 0.0, 0.0, 1.747690182738606E9, 0.0, 2025-05-19 23:29:42.738
210.0, 22901.351499718607, 19413.585294912493, 48748.618215157774, 33595.83420703819, 45891.97586679171, 4054.1370575591395, 8347.482484278975, 3663.0709365690873, 0.0, 0.0, 10450.893396245647, -22424.63349397582, 14381.067679055654, 4353.1810466266925, -13180.644891338932, -32441.94775127742, 0.0558671875, -0.00399072265625, 1.0280302734375, 192.0, 0.0, 0.0, 0.0, 0.0, 0.0, 0.0, 0.0, 0.0, 0.0, 1.747690182747639E9, 0.0, 2025-05-19 23:29:42.747
212.0, 22908.660520155492, 19420.424928715816, 48752.350956481816, 33594.49310237087, 45895.23922148219, 4089.005778909419, 8292.094861518724, 3644.183712504353, 0.0, 0.0, 10462.02456498439, -22416.20688631617, 14410.527278247748, 4378.036186460994, -13157.332021872047, -32419.28308239974, 0.0558671875, -0.00399072265625, 1.0280302734375, 192.0, 0.0, 0.0, 0.0, 0.0, 0.0, 0.0, 0.0, 0.0, 0.0, 1.747690182755673E9, 0.0, 2025-05-19 23:29:42.755
214.0, 22900.904464829502, 19416.64748390287, 48739.476351675556, 33578.22103240741, 45880.42001490832, 4031.0253537923522, 8333.065609105302, 3654.957253331811, 0.0, 0.0, 10455.922538748091, -22419.336130539912, 14386.521504702749, 4349.090677391372, -13183.237693695748, -32445.479326901357, 0.0558671875, -0.00399072265625, 1.0280302734375, 192.0, 0.0, 0.0, 0.0, 0.0, 0.0, 0.0, 0.0, 0.0, 0.0, 1.747690182763702E9, 0.0, 2025-05-19 23:29:42.763
216.0, 22893.953072303902, 19404.845762830468, 48732.54731089441, 33585.61945982212, 45881.93993353128, 4070.230313566961, 8322.403827000122, 3650.1963317628306, 0.0, 0.0, 10442.667954286093, -22429.416767289254, 14384.08516455712, 4359.350128096357, -13177.582702348554, -32435.152820963005, 0.054, -0.01, 1.022, 192.0, 0.5, 88.0, 127.5, 88.0, 15.5, 120.0, 0.0, 0.0, 0.0, 1.747690182771728E9, 0.0, 2025-05-19 23:29:42.771
218.0, 22900.926816573956, 19409.427870443807, 48737.442342930124, 33569.9732387034, 45893.89811681487, 4057.5345227163466, 8303.896582591127, 3649.81635210709, 0.0, 0.0, 10441.2150908965, -22436.859898192874, 14379.167780776952, 4348.710697735632, -13184.981129763262, -32444.33938793414, 0.054, -0.01, 1.022, 192.0, 0.0, 0.0, 0.0, 0.0, 0.0, 0.0, 0.0, 0.0, 0.0, 1.747690182779727E9, 0.0, 2025-05-19 23:29:42.779
220.0, 22891.67319436946, 19405.024576786112, 48726.26647070247, 33569.92853521449, 45887.259648711646, 4069.7162234444886, 8338.675896963585, 3656.4771719547716, 0.0, 0.0, 10447.205358410522, -22432.858935935372, 14371.74700161779, 4347.123723879305, -13180.399022149924, -32447.446280413424, 0.054, -0.01, 1.022, 192.0, 0.0, 0.0, 0.0, 0.0, 0.0, 0.0, 0.0, 0.0, 0.0, 1.747690182787789E9, 0.0, 2025-05-19 23:29:42.787
222.0, 22894.824790337658, 19407.17034425382, 48729.37336318176, 33572.61074454913, 45880.665884097325, 4045.866912110676, 8300.208544756002, 3633.6113373769927, 0.0, 0.0, 10430.441550069041, -22444.280677352035, 14381.022975566742, 4349.738877980576, -13187.4621733978, -32445.23345771235, 0.054, -0.01, 1.022, 192.0, 0.0, 0.0, 0.0, 0.0, 0.0, 0.0, 0.0, 0.0, 0.0, 1.747690182794796E9, 0.0, 2025-05-19 23:29:42.794
224.0, 22898.266958983775, 19411.26071348914, 48735.900072562705, 33569.74972125885, 45882.4316719093, 4034.378115460648, 8314.670123418586, 3644.898968326923, 0.0, 0.0, 10443.15969266411, -22436.323456325943, 14369.601234150081, 4336.886624918774, -13191.284321699659, -32459.5609259082, 0.054, -0.01, 1.022, 192.0, 0.0, 0.0, 0.0, 0.0, 0.0, 0.0, 0.0, 0.0, 0.0, 1.747690182803814E9, 0.0, 2025-05-19 23:29:42.803
226.0, 22904.48074394235, 19414.099385034966, 48743.76788661098, 33593.66608782603, 45892.73582610319, 4073.3148543017933, 8321.688571177552, 3654.689032398347, 0.0, 0.0, 10447.25006189943, -22429.72969171163, 14387.236760525318, 4366.5026863220555, -13165.401001620414, -32432.336501161637, 0.058, -0.006, 1.024, 192.0, 0.5, 104.0, 127.5, 104.0, 16.0, 0.0, 0.0, 0.0, 0.0, 1.747690182811784E9, 0.0, 2025-05-19 23:29:42.811
228.0, 22893.86366532608, 19402.543533151573, 48733.5531393949, 33568.69918926945, 45881.24702945317, 4060.9766913624635, 8300.566172667286, 3653.303224242118, 0.0, 0.0, 10446.177178165577, -22439.050369149492, 14383.45931571237, 4355.5279797945, -13181.673071583877, -32440.874867543564, 0.058, -0.006, 1.024, 192.0, 0.0, 0.0, 0.0, 0.0, 0.0, 0.0, 0.0, 0.0, 0.0, 1.747690182819899E9, 0.0, 2025-05-19 23:29:42.819
230.0, 22879.580900619138, 19393.200503969252, 48716.99049675352, 33568.83329973618, 45853.21794190621, 4032.2770514818494, 8347.929519168081, 3656.3207097435848, 0.0, 0.0, 10438.376419350674, -22437.77631971554, 14366.650803881981, 4348.218959357615, -13188.311539687104, -32445.926361790465, 0.058, -0.006, 1.024, 192.0, 0.0, 0.0, 0.0, 0.0, 0.0, 0.0, 0.0, 0.0, 0.0, 1.747690182826895E9, 0.0, 2025-05-19 23:29:42.826
232.0, 22893.997775792814, 19405.1810389973, 48738.425819686156, 33583.09371269867, 45890.99239003568, 4091.8220987107875, 8301.460242445499, 3658.3994219779283, 0.0, 0.0, 10426.77586397837, -22445.15239538579, 14376.418516208949, 4354.343337338369, -13188.177429220372, -32437.99149250883, 0.058, -0.006, 1.024, 192.0, 0.0, 0.0, 0.0, 0.0, 0.0, 0.0, 0.0, 0.0, 0.0, 1.747690182835948E9, 0.0, 2025-05-19 23:29:42.835
234.0, 22895.070659526667, 19401.872980817912, 48737.21882548557, 33570.10734917013, 45897.69791337227, 4024.7892170893215, 8330.450455004031, 3661.171038290386, 0.0, 0.0, 10446.02071595439, -22430.512002767566, 14373.378678963029, 4349.314194835924, -13178.610882593499, -32444.249980956316, 0.058, -0.006, 1.024, 192.0, 0.0, 0.0, 0.0, 0.0, 0.0, 0.0, 0.0, 0.0, 0.0, 1.747690182843965E9, 0.0, 2025-05-19 23:29:42.843
236.0, 22887.96280478988, 19398.475515660706, 48730.178025982146, 33579.562137074725, 45884.62214286592, 4039.7425341299218, 8329.64579220364, 3662.489791213249, 0.0, 0.0, 10439.896337973636, -22437.418691804254, 14376.619681909047, 4356.667918761721, -13172.486504612745, -32440.27137044327, 0.058, -0.002, 1.022, 192.0, 0.5, 104.0, 127.5, 120.0, 15.5, 120.0, 0.0, 0.0, 0.0, 1.747690182851996E9, 0.0, 2025-05-19 23:29:42.851
238.0, 22889.460371668385, 19400.375413939408, 48725.52886313544, 33563.4688810669, 45869.86999152541, 4058.4956477279247, 8318.447568231531, 3658.15355278892, 0.0, 0.0, 10428.005209923413, -22443.54306978501, 14371.076449284132, 4342.385154054779, -13192.893647300441, -32449.70380660341, 0.058, -0.002, 1.022, 192.0, 0.0, 0.0, 0.0, 0.0, 0.0, 0.0, 0.0, 0.0, 0.0, 1.747690182859074E9, 0.0, 2025-05-19 23:29:42.859
240.0, 22889.86270306858, 19398.967254038722, 48736.61532838528, 33578.31043938523, 45884.51038414364, 4051.4548482245027, 8340.59814698674, 3663.2273987802746, 0.0, 0.0, 10439.806930995814, -22434.758834214073, 14366.69550737089, 4351.996404170562, -13173.760554046698, -32442.014806510786, 0.058, -0.002, 1.022, 192.0, 0.0, 0.0, 0.0, 0.0, 0.0, 0.0, 0.0, 0.0, 0.0, 1.747690182868087E9, 0.0, 2025-05-19 23:29:42.868
242.0, 22887.67223211196, 19394.563960381027, 48719.22567119905, 33568.319209613706, 45864.997311234154, 4055.813438393288, 8309.573925682775, 3649.458724195805, 0.0, 0.0, 10429.703942502016, -22443.073683151448, 14377.357289476073, 4355.371517583313, -13182.298920428626, -32435.84572504112, 0.058, -0.002, 1.022, 192.0, 0.0, 0.0, 0.0, 0.0, 0.0, 0.0, 0.0, 0.0, 0.0, 1.747690182875087E9, 0.0, 2025-05-19 23:29:42.875
244.0, 22895.003604293302, 19404.242265730176, 48733.59784288381, 33569.503852069836, 45887.01377952263, 4051.4324964800476, 8322.135606066657, 3657.0583173106097, 0.0, 0.0, 10428.005209923413, -22441.129081383835, 14360.168797989942, 4335.85844467383, -13195.955836290817, -32455.403501439516, 0.058, -0.002, 1.022, 192.0, 0.0, 0.0, 0.0, 0.0, 0.0, 0.0, 0.0, 0.0, 0.0, 1.747690182883107E9, 0.0, 2025-05-19 23:29:42.883
246.0, 22885.61587162207, 19395.25686445914, 48720.34325842181, 33573.57186956071, 45880.107090485944, 4063.971825119475, 8312.569059439786, 3644.697802626825, 0.0, 0.0, 10430.977991935968, -22439.58681101642, 14372.708126629368, 4356.265587361525, -13172.911187757396, -32439.019672753773, 0.062, -0.006, 1.026, 192.0, 0.5, 120.0, 127.5, 104.0, 16.0, 8.0, 0.0, 0.0, 0.0, 1.74769018289114E9, 0.0, 2025-05-19 23:29:42.891
248.0, 22889.505075157296, 19397.402631926852, 48726.42293291366, 33558.529145542285, 45881.73876783118, 4026.5997083902016, 8304.611838413697, 3638.5510729016155, 0.0, 0.0, 10421.947887176024, -22450.338000099422, 14365.533216659214, 4333.2209388281035, -13198.123955502982, -32459.71738811939, 0.062, -0.006, 1.026, 192.0, 0.0, 0.0, 0.0, 0.0, 0.0, 0.0, 0.0, 0.0, 0.0, 1.74769018290016E9, 0.0, 2025-05-19 23:29:42.900
250.0, 22897.283482227744, 19409.673739632814, 48737.7552673525, 33582.46786385392, 45883.86218355443, 4068.9562641330085, 8348.957699413026, 3668.7706314051907, 0.0, 0.0, 10437.504701316919, -22432.456604535175, 14368.058963782665, 4346.900206434751, -13174.118181957983, -32448.697978102922, 0.062, -0.006, 1.026, 192.0, 0.0, 0.0, 0.0, 0.0, 0.0, 0.0, 0.0, 0.0, 0.0, 1.747690182907197E9, 0.0, 2025-05-19 23:29:42.907
252.0, 22889.77329609076, 19406.455088431252, 48719.09156073232, 33570.39792184805, 45853.46381109522, 4051.343089502226, 8318.760492653906, 3648.855227095512, 0.0, 0.0, 10434.330753604265, -22436.077587136937, 14385.538027946715, 4354.142171638271, -13184.556446618612, -32436.71744307488, 0.062, -0.006, 1.026, 192.0, 0.0, 0.0, 0.0, 0.0, 0.0, 0.0, 0.0, 0.0, 0.0, 1.747690182915221E9, 0.0, 2025-05-19 23:29:42.915
254.0, 22902.513790430283, 19420.246114760175, 48740.035145286936, 33575.96350621742, 45892.89228831438, 4042.2682812533717, 8317.128815308668, 3657.505352199716, 0.0, 0.0, 10439.941041462545, -22430.556706256477, 14369.936510316911, 4335.366706295813, -13197.498106658233, -32456.811661340198, 0.062, -0.006, 1.026, 192.0, 0.0, 0.0, 0.0, 0.0, 0.0, 0.0, 0.0, 0.0, 0.0, 1.74769018292424E9, 0.0, 2025-05-19 23:29:42.924
0.0, 22903.609025908594, 19417.07216704752, 48746.31598547888, 33593.86725352612, 45908.94084083329, 4094.6831220010667, 8308.031655315359, 3651.045698052132, 0.0, 0.0, 10447.49593108844, -22422.510078252566, 14391.46124022737, 4367.732032267098, -13157.354373616503, -32430.74952730531, 0.06, 0.0, 1.028, 192.0, 0.5, 112.0, 0.0, 0.0, 16.0, 16.0, 0.0, 0.0, 0.0, 1.747690182931256E9, 0.0, 2025-05-19 23:29:42.931
2.0, 22887.49341815632, 19401.582408139995, 48724.098351490306, 33563.58063978919, 45857.86710475291, 4073.42661302407, 8320.07924557677, 3643.222587492775, 0.0, 0.0, 10438.197605395033, -22434.267095836058, 14381.201789522385, 4349.671822747209, -13185.22699895227, -32443.04298675573, 0.06, 0.0, 1.028, 192.0, 0.0, 0.0, 0.0, 0.0, 0.0, 0.0, 0.0, 0.0, 0.0, 1.747690182939295E9, 0.0, 2025-05-19 23:29:42.939
4.0, 22885.14648498851, 19401.135373250887, 48730.13332249324, 33574.667105039014, 45876.73197707319, 4013.836862306221, 8323.901393878627, 3650.3304422295623, 0.0, 0.0, 10434.956602449012, -22437.06106389297, 14364.862664325556, 4342.988651155073, -13183.952949518318, -32453.347140949627, 0.06, 0.0, 1.028, 192.0, 0.0, 0.0, 0.0, 0.0, 0.0, 0.0, 0.0, 0.0, 0.0, 1.747690182947277E9, 0.0, 2025-05-19 23:29:42.947
6.0, 22881.011412264277, 19394.854533058948, 48722.86900554526, 33571.940192215465, 45870.92052351481, 4049.063211567785, 8311.943210595038, 3648.698764884325, 0.0, 0.0, 10423.221936609976, -22447.34286634241, 14371.590539406603, 4350.252968103047, -13184.80231580762, -32444.026463511764, 0.06, 0.0, 1.028, 192.0, 0.0, 0.0, 0.0, 0.0, 0.0, 0.0, 0.0, 0.0, 0.0, 1.747690182956342E9, 0.0, 2025-05-19 23:29:42.956
8.0, 22881.123170986557, 19395.21216097023, 48731.18385448264, 33562.798328733246, 45874.876782283405, 4025.9515078009977, 8334.339658539255, 3660.0087475787104, 0.0, 0.0, 10435.381285593663, -22439.095072638404, 14362.314565457651, 4343.368630810814, -13184.936426274351, -32452.18485023795, 0.06, 0.0, 1.028, 192.0, 0.0, 0.0, 0.0, 0.0, 0.0, 0.0, 0.0, 0.0, 0.0, 1.747690182963347E9, 0.0, 2025-05-19 23:29:42.963
10.0, 22869.790836547716, 19384.483323631684, 48712.85542402929, 33565.34642760115, 45859.38702337587, 4050.8513511242095, 8330.092827092747, 3654.733735887258, 0.0, 0.0, 10418.438663296542, -22457.28939262502, 14359.073562511632, 4351.594072770366, -13175.727507558764, -32449.770861836776, 0.058, -0.002, 1.028, 192.0, 0.5, 104.0, 127.5, 120.0, 16.0, 16.0, 0.0, 0.0, 0.0, 1.747690182971388E9, 0.0, 2025-05-19 23:29:42.971
12.0, 22886.733458844836, 19396.821486571014, 48725.39475266871, 33559.73613974287, 45857.35301463044, 4065.357633275704, 8313.820757129282, 3649.6375381514476, 0.0, 0.0, 10418.930401674557, -22455.791825746517, 14359.721763100835, 4340.976994154095, -13195.732318846265, -32452.76599559379, 0.058, -0.002, 1.028, 192.0, 0.0, 0.0, 0.0, 0.0, 0.0, 0.0, 0.0, 0.0, 0.0, 1.747690182979391E9, 0.0, 2025-05-19 23:29:42.979
14.0, 22887.359307689585, 19400.777745339605, 48736.23534872953, 33583.60780282114, 45877.89426778487, 4036.32271722826, 8342.27452782089, 3664.72496565878, 0.0, 0.0, 10434.35310534872, -22440.145604627804, 14362.89571081349, 4352.644604759766, -13171.525379601168, -32445.591085623633, 0.058, -0.002, 1.028, 192.0, 0.0, 0.0, 0.0, 0.0, 0.0, 0.0, 0.0, 0.0, 0.0, 1.747690182987472E9, 0.0, 2025-05-19 23:29:42.987
16.0, 22885.660575110982, 19398.40846042734, 48728.076962003346, 33581.05970395324, 45867.83598277998, 4041.6200806641677, 8316.79353914184, 3647.2682532391855, 0.0, 0.0, 10428.698114001527, -22437.284581337524, 14384.129868046031, 4371.15184916876, -13162.025888207661, -32425.385108636037, 0.058, -0.002, 1.028, 192.0, 0.0, 0.0, 0.0, 0.0, 0.0, 0.0, 0.0, 0.0, 0.0, 1.747690182995474E9, 0.0, 2025-05-19 23:29:42.995
18.0, 22875.423476150452, 19391.769992324113, 48728.769866081464, 33566.24049737937, 45870.65230258135, 4008.293629681305, 8329.869309648193, 3656.72304114378, 0.0, 0.0, 10425.144186633133, -22440.145604627804, 14360.481722412316, 4339.054744130939, -13190.837286810553, -32456.118757262084, 0.058, -0.002, 1.028, 192.0, 0.0, 0.0, 0.0, 0.0, 0.0, 0.0, 0.0, 0.0, 0.0, 1.747690183003516E9, 0.0, 2025-05-19 23:29:43.003
20.0, 22880.027935508246, 19390.875922545903, 48725.10417999079, 33584.45716911044, 45869.60177059195, 4051.7230691579666, 8346.186083100567, 3662.5568464466155, 0.0, 0.0, 10423.691323243538, -22442.179613373235, 14371.344670217595, 4357.651395517754, -13170.027812722661, -32441.366605921583, 0.062, -0.004, 1.03, 192.0, 0.5, 120.0, 127.5, 112.0, 16.0, 24.0, 0.0, 0.0, 0.0, 1.747690183011536E9, 0.0, 2025-05-19 23:29:43.011
22.0, 22879.558548874684, 19391.099439990456, 48724.03129625694, 33563.78180548928, 45863.56679958902, 4050.4937232129246, 8306.847012859227, 3646.53064567216, 0.0, 0.0, 10421.903183687113, -22441.978447673137, 14367.880149827022, 4342.854540688341, -13195.240580468248, -32448.340350191636, 0.062, -0.004, 1.03, 192.0, 0.0, 0.0, 0.0, 0.0, 0.0, 0.0, 0.0, 0.0, 0.0, 1.747690183019567E9, 0.0, 2025-05-19 23:29:43.019
24.0, 22876.474008139852, 19388.26076844463, 48722.131397978235, 33568.83329973618, 45863.052709466545, 4027.1137985126734, 8337.334792296266, 3661.171038290386, 0.0, 0.0, 10429.97216343548, -22440.972619172648, 14358.69358285589, 4344.665031989221, -13180.309615172102, -32450.03908277024, 0.062, -0.004, 1.03, 192.0, 0.0, 0.0, 0.0, 0.0, 0.0, 0.0, 0.0, 0.0, 0.0, 1.747690183028602E9, 0.0, 2025-05-19 23:29:43.028
26.0, 22876.496359884306, 19389.333652178484, 48720.9020520332, 33568.4756718249, 45869.53471535858, 4062.653072196612, 8307.986951826448, 3654.085535298054, 0.0, 0.0, 10416.650523740116, -22454.4507210792, 14366.60610039307, 4350.0070989140395, -13184.80231580762, -32445.434623412446, 0.062, -0.004, 1.03, 192.0, 0.0, 0.0, 0.0, 0.0, 0.0, 0.0, 0.0, 0.0, 0.0, 1.747690183035623E9, 0.0, 2025-05-19 23:29:43.035
28.0, 22882.352516931598, 19395.525085392605, 48728.12166549226, 33564.49706131185, 45870.2276194367, 4080.8250404387763, 8341.626327231685, 3669.1729628053863, 0.0, 0.0, 10429.793349479836, -22444.325380840946, 14360.235853223307, 4340.999345898551, -13188.736222831754, -32450.910800804, 0.062, -0.004, 1.03, 192.0, 0.0, 0.0, 0.0, 0.0, 0.0, 0.0, 0.0, 0.0, 0.0, 1.747690183043687E9, 0.0, 2025-05-19 23:29:43.043
30.0, 22874.261185438776, 19387.143181221865, 48712.36368565127, 33576.298782384256, 45846.31125286952, 4042.9835370759415, 8342.296879565345, 3656.00778532121, 0.0, 0.0, 10420.562079019795, -22450.695628010708, 14365.600271892581, 4353.2928053489695, -13181.985996006251, -32441.120736732573, 0.064, -0.008, 1.038, 192.0, 1.0, 0.0, 127.5, 96.0, 16.0, 56.0, 0.0, 0.0, 0.0, 1.747690183051755E9, 0.0, 2025-05-19 23:29:43.051
32.0, 22890.935586802436, 19396.106230748443, 48731.76499983847, 33574.71180852793, 45877.04490149557, 4030.1759875030507, 8297.749852865918, 3662.601549935526, 0.0, 0.0, 10422.797253465325, -22444.3477325854, 14368.55070216068, 4346.721392479109, -13196.626388624478, -32442.014806510786, 0.064, -0.008, 1.038, 192.0, 0.0, 0.0, 0.0, 0.0, 0.0, 0.0, 0.0, 0.0, 0.0, 1.747690183058717E9, 0.0, 2025-05-19 23:29:43.058
34.0, 22891.58378739164, 19397.60379762695, 48733.821360328366, 33585.440645866474, 45878.76598581862, 4034.9816125609414, 8340.776960942383, 3669.955273861322, 0.0, 0.0, 10440.58924205175, -22430.57905800093, 14371.054097539676, 4358.031375173495, -13170.22897842276, -32437.052719241707, 0.064, -0.008, 1.038, 192.0, 0.0, 0.0, 0.0, 0.0, 0.0, 0.0, 0.0, 0.0, 0.0, 1.747690183067766E9, 0.0, 2025-05-19 23:29:43.067
36.0, 22894.66832812647, 19406.209219242242, 48737.01765978547, 33586.89350925607, 45881.35878817544, 4056.5286942158577, 8317.732312408962, 3663.406212735917, 0.0, 0.0, 10435.269526871387, -22430.33318881192, 14390.097783815598, 4369.251950890059, -13168.552597588612, -32423.7534312908, 0.064, -0.008, 1.038, 192.0, 0.0, 0.0, 0.0, 0.0, 0.0, 0.0, 0.0, 0.0, 0.0, 1.747690183075787E9, 0.0, 2025-05-19 23:29:43.075
38.0, 22890.220330979864, 19403.728175607703, 48732.614366127775, 33570.3755701036, 45871.41226189283, 4036.5685864172683, 8333.780864927872, 3662.9368261023556, 0.0, 0.0, 10439.672820529082, -22431.115499867858, 14373.535141174216, 4347.123723879305, -13184.981129763262, -32446.686321101944, 0.064, -0.008, 1.038, 192.0, 0.0, 0.0, 0.0, 0.0, 0.0, 0.0, 0.0, 0.0, 0.0, 1.747690183082838E9, 0.0, 2025-05-19 23:29:43.082
40.0, 22882.240758209322, 19398.386108682884, 48720.07503748835, 33583.630154565595, 45847.942930214755, 4057.154543060606, 8340.151112097636, 3656.1642475323974, 0.0, 0.0, 10428.96633493499, -22441.1961366172, 14375.546798175194, 4355.259758861036, -13179.661414582899, -32439.489059387335, 0.064, -0.006, 1.038, 192.0, 1.0, 0.0, 127.5, 104.0, 16.0, 56.0, 0.0, 0.0, 0.0, 1.747690183090847E9, 0.0, 2025-05-19 23:29:43.090
42.0, 22897.77522060576, 19406.74566110917, 48740.16925575367, 33573.616573049614, 45898.70374187276, 4049.7561156458996, 8297.347521465721, 3651.8503608525234, 0.0, 0.0, 10436.632983283162, -22434.311799324965, 14383.079336056631, 4351.392907070268, -13186.679862341865, -32438.885562287043, 0.064, -0.006, 1.038, 192.0, 0.0, 0.0, 0.0, 0.0, 0.0, 0.0, 0.0, 0.0, 0.0, 1.747690183099862E9, 0.0, 2025-05-19 23:29:43.099
44.0, 22889.236854223833, 19400.80009708406, 48734.424857428654, 33579.07039869671, 45878.8777445409, 4050.672537168567, 8331.232766059968, 3651.023346307677, 0.0, 0.0, 10441.237442640953, -22437.038712148515, 14373.535141174216, 4354.790372227475, -13167.4573621103, -32446.082824001653, 0.064, -0.006, 1.038, 192.0, 0.0, 0.0, 0.0, 0.0, 0.0, 0.0, 0.0, 0.0, 0.0, 1.747690183107899E9, 0.0, 2025-05-19 23:29:43.107
46.0, 22889.438019923928, 19403.68347211879, 48728.09931374781, 33577.34931437365, 45867.657168824335, 4060.32849077326, 8308.45633846001, 3644.921320071378, 0.0, 0.0, 10434.084884415255, -22441.82198546195, 14386.722670402845, 4361.495895564067, -13176.196894192326, -32436.024538996764, 0.064, -0.006, 1.038, 192.0, 0.0, 0.0, 0.0, 0.0, 0.0, 0.0, 0.0, 0.0, 0.0, 1.747690183115929E9, 0.0, 2025-05-19 23:29:43.115
