%OpenBCI Raw EXG Data
%Number of channels = 16
%Sample Rate = 125 Hz
%Board = OpenBCI_GUI$BoardCytonSerialDaisy
Sample Index, EXG Channel 0, EXG Channel 1, EXG Channel 2, EXG Channel 3, EXG Channel 4, EXG Channel 5, EXG Channel 6, EXG Channel 7, EXG Channel 8, EXG Channel 9, EXG Channel 10, EXG Channel 11, EXG Channel 12, EXG Channel 13, EXG Channel 14, EXG Channel 15, Accel Channel 0, Accel Channel 1, Accel Channel 2, Not Used, Digital Channel 0 (D11), Digital Channel 1 (D12), Digital Channel 2 (D13), Digital Channel 3 (D17), Not Used, Digital Channel 4 (D18), Analog Channel 0, Analog Channel 1, Analog Channel 2, Timestamp, Marker Channel, Timestamp (Formatted)
242.0, 20756.25458434279, 18140.49698597157, 47905.77863523706, 34332.927683940856, 44147.71278473292, 2597.22800221777, 8284.11528874818, 8573.369213744309, 0.0, 0.0, 5085.0889188157225, -28687.16760720821, 19969.71904870499, 6036.021534922306, -4522.60726959792, -30190.7247532278, 0.0, 0.0, 0.0, 192.0, 0.0, 0.0, 0.0, 0.0, 0.0, 0.0, 0.0, 0.0, 0.0, 1.747692254732516E9, 0.0, 2025-05-20 00:04:14.732
244.0, 20773.286613617733, 18156.478483257113, 47910.204280639206, 34346.11521316948, 44160.52033430581, 2611.3990082024347, 8299.381530211154, 8563.333280483876, 0.0, 0.0, 5083.345482748209, -28701.137447492772, 19954.653972942113, 6021.694066726454, -4529.402199912333, -30210.304881370652, 0.0, 0.0, 0.0, 192.0, 0.0, 0.0, 0.0, 0.0, 0.0, 0.0, 0.0, 0.0, 0.0, 1.747692254733557E9, 0.0, 2025-05-20 00:04:14.733
0.0, 10669.292291318452, 9228.767064662823, 24063.083417783193, 17357.381267235432, 22439.989142416616, 1353.8004581690382, 4301.682627401666, 4274.458202655102, 0.0, 0.0, 2539.046411400606, -14352.435094408405, 9982.557294673597, 3018.4242747335766, -2259.4707917536252, -15094.691824280242, 0.06, -0.008, 1.036, 192.0, 0.5, 112.0, 127.5, 96.0, 16.0, 48.0, 0.0, 0.0, 0.0, 1.747692254856731E9, 0.0, 2025-05-20 00:04:14.856
2.0, 21322.26780918453, 18442.491405307224, 48115.61681218348, 34686.91226087955, 44862.49922066918, 2679.616532280032, 8570.239969520566, 8545.407181430719, 0.0, 0.0, 5084.775994393349, -28588.574062415846, 20531.217221166757, 6417.074074396382, -3927.425018242004, -29896.44168572923, 0.06, -0.008, 1.036, 192.0, 0.0, 0.0, 0.0, 0.0, 0.0, 0.0, 0.0, 0.0, 0.0, 1.747692254863776E9, 0.0, 2025-05-20 00:04:14.863
4.0, 21341.333847204907, 18458.78582701514, 48128.06673384509, 34711.96856641395, 44882.146404045394, 2687.4843463283, 8614.51877528653, 8557.41006820322, 0.0, 0.0, 5084.57482869325, -28583.835492591323, 20522.745910018195, 6414.9059551842165, -3922.4629309729257, -29903.124857321367, 0.06, -0.008, 1.036, 192.0, 0.0, 0.0, 0.0, 0.0, 0.0, 0.0, 0.0, 0.0, 0.0, 1.747692254870802E9, 0.0, 2025-05-20 00:04:14.870
6.0, 21322.111346973343, 18442.670219262865, 48117.87433837347, 34704.99482214389, 44870.50114518418, 2697.386169122001, 8573.816248633415, 8550.816303588905, 0.0, 0.0, 5093.113195075178, -28576.526472154437, 20544.02477073965, 6439.17994966268, -3909.7894918667666, -29873.95583080719, 0.06, -0.008, 1.036, 192.0, 0.0, 0.0, 0.0, 0.0, 0.0, 0.0, 0.0, 0.0, 0.0, 1.747692254879803E9, 0.0, 2025-05-20 00:04:14.879
8.0, 21324.994722008076, 18442.6031640295, 48124.57986171006, 34700.144493597094, 44872.60220916298, 2679.2142008798364, 8585.573266216907, 8562.483914194574, 0.0, 0.0, 5076.19292452251, -28593.759667129478, 20516.35331110398, 6414.838899950851, -3931.582442710691, -29899.459171230697, 0.06, -0.004, 1.032, 192.0, 0.5, 112.0, 127.5, 112.0, 16.0, 32.0, 0.0, 0.0, 0.0, 1.747692254886914E9, 0.0, 2025-05-20 00:04:14.886
10.0, 21333.55544013446, 18449.867480977475, 48127.19501581133, 34720.46222930696, 44883.062825568064, 2698.7943290226854, 8582.511077226529, 8547.754114598527, 0.0, 0.0, 5095.258962542887, -28575.23007097603, 20536.67104681385, 6443.247967153546, -3907.3084482322274, -29872.368856950863, 0.06, -0.004, 1.032, 192.0, 0.0, 0.0, 0.0, 0.0, 0.0, 0.0, 0.0, 0.0, 0.0, 1.747692254895916E9, 0.0, 2025-05-20 00:04:14.895
12.0, 21329.286256943495, 18445.061855919583, 48123.03759134264, 34701.0385633753, 44872.66926439635, 2693.6310760535093, 8559.175856015188, 8551.822132089394, 0.0, 0.0, 5087.033520583334, -28584.461341436072, 20537.900392758893, 6428.428760579677, -3927.514425219825, -29884.01411581208, 0.06, -0.004, 1.032, 192.0, 0.0, 0.0, 0.0, 0.0, 0.0, 0.0, 0.0, 0.0, 0.0, 1.747692254902903E9, 0.0, 2025-05-20 00:04:14.902
14.0, 21339.94803904868, 18457.265908392183, 48132.447675758325, 34716.61772926065, 44888.65076168189, 2681.8517067255625, 8578.867742880315, 8549.765771599505, 0.0, 0.0, 5095.191907309521, -28575.721809354047, 20532.804195023084, 6427.869966968295, -3917.076160559197, -29889.087961803434, 0.06, -0.004, 1.032, 192.0, 0.0, 0.0, 0.0, 0.0, 0.0, 0.0, 0.0, 0.0, 0.0, 1.747692254910984E9, 0.0, 2025-05-20 00:04:14.910
16.0, 21324.391224907784, 18442.55846054059, 48126.07742858856, 34710.94038616901, 44875.35147373098, 2703.734064547308, 8564.137943284268, 8555.286652479965, 0.0, 0.0, 5100.109291089689, -28574.671277364647, 20548.137491719426, 6440.945737474649, -3911.86820410111, -29871.608897639384, 0.06, -0.004, 1.032, 192.0, 0.0, 0.0, 0.0, 0.0, 0.0, 0.0, 0.0, 0.0, 0.0, 1.747692254919048E9, 0.0, 2025-05-20 00:04:14.919
18.0, 21330.56030637745, 18448.682838521345, 48125.83155939956, 34703.67606922103, 44874.680921397325, 2677.4037095789563, 8581.371138259308, 8566.618986918806, 0.0, 0.0, 5083.121965303656, -28587.791751359913, 20525.249305397192, 6419.0186761639925, -3927.1791490529954, -29895.927595606758, 0.06, -0.004, 1.024, 192.0, 0.5, 112.0, 127.5, 112.0, 16.0, 0.0, 0.0, 0.0, 0.0, 1.747692254927051E9, 0.0, 2025-05-20 00:04:14.927
20.0, 21339.389245437294, 18460.17163517137, 48131.97828912477, 34725.96075844297, 44889.23190703773, 2705.7904250371967, 8603.499365270063, 8557.566530414406, 0.0, 0.0, 5096.488308487929, -28569.284506950917, 20541.40961663838, 6443.002097964537, -3904.9391633199652, -29870.24544122761, 0.06, -0.004, 1.024, 192.0, 0.0, 0.0, 0.0, 0.0, 0.0, 0.0, 0.0, 0.0, 0.0, 1.747692254935068E9, 0.0, 2025-05-20 00:04:14.935
22.0, 21317.26101842654, 18434.958867425787, 48115.3038877611, 34698.37870578512, 44874.5915144195, 2688.847802740074, 8573.436268977675, 8559.93581532667, 0.0, 0.0, 5078.115174545667, -28585.109542025275, 20531.641904311407, 6432.541481559454, -3918.5737274377025, -29879.58847040993, 0.06, -0.004, 1.024, 192.0, 0.0, 0.0, 0.0, 0.0, 0.0, 0.0, 0.0, 0.0, 0.0, 1.747692254943121E9, 0.0, 2025-05-20 00:04:14.943
24.0, 21339.858632070856, 18460.395152615925, 48132.09004784704, 34725.02198517585, 44887.332008759025, 2699.1743086784254, 8613.222374108122, 8586.109708083834, 0.0, 0.0, 5084.641883926616, -28577.331134954828, 20524.645808296897, 6433.1002751708365, -3912.0470180567527, -29879.074380287457, 0.06, -0.004, 1.024, 192.0, 0.0, 0.0, 0.0, 0.0, 0.0, 0.0, 0.0, 0.0, 0.0, 1.747692254951092E9, 0.0, 2025-05-20 00:04:14.951
26.0, 21321.574905106416, 18439.049236661107, 48115.326239505564, 34707.65467973408, 44874.524459186134, 2702.415311624445, 8571.581074187885, 8564.875550851291, 0.0, 0.0, 5089.514564217873, -28573.486634908517, 20541.610782338477, 6449.282938156479, -3903.128672019085, -29858.75664457758, 0.06, -0.004, 1.024, 192.0, 0.0, 0.0, 0.0, 0.0, 0.0, 0.0, 0.0, 0.0, 0.0, 1.747692254958183E9, 0.0, 2025-05-20 00:04:14.958
28.0, 21321.820774295426, 18438.132815138437, 48113.31458250459, 34696.76938018434, 44873.65274115238, 2689.4960033292778, 8592.815231420425, 8563.534446183974, 0.0, 0.0, 5064.212389494466, -28599.61582417677, 20507.63613076641, 6413.520147027987, -3932.5659194667246, -29897.671031674272, 0.052000000000000005, -0.004, 1.028, 192.0, 0.5, 80.0, 127.5, 112.0, 16.0, 16.0, 0.0, 0.0, 0.0, 1.747692254967197E9, 0.0, 2025-05-20 00:04:14.967
30.0, 21329.308608687952, 18446.13473965344, 48120.981230852754, 34721.31159559627, 44888.8966308709, 2706.2374599263026, 8608.975542661612, 8569.725879398095, 0.0, 0.0, 5085.714767660471, -28575.252422720485, 20532.290104900614, 6444.097333442847, -3901.876974329588, -29868.63611562683, 0.052000000000000005, -0.004, 1.028, 192.0, 0.0, 0.0, 0.0, 0.0, 0.0, 0.0, 0.0, 0.0, 0.0, 1.74769225497522E9, 0.0, 2025-05-20 00:04:14.975
32.0, 21314.288236413984, 18428.879192933942, 48107.972515579764, 34692.187272571005, 44867.08132828252, 2687.797270750674, 8572.653957921739, 8573.302158510944, 0.0, 0.0, 5070.1803052640325, -28591.122161283754, 20521.896543728893, 6432.206205392624, -3918.3502099931493, -29877.085075030933, 0.052000000000000005, -0.004, 1.028, 192.0, 0.0, 0.0, 0.0, 0.0, 0.0, 0.0, 0.0, 0.0, 0.0, 1.747692254984263E9, 0.0, 2025-05-20 00:04:14.984
34.0, 21330.31443718844, 18441.820852973564, 48114.49922496072, 34703.05022037628, 44886.46029072527, 2681.8964102144732, 8596.212696577633, 8565.993138074058, 0.0, 0.0, 5070.403822708586, -28593.290280495916, 20508.709014500262, 6421.611478520808, -3921.077122816697, -29891.658412415793, 0.052000000000000005, -0.004, 1.028, 192.0, 0.0, 0.0, 0.0, 0.0, 0.0, 0.0, 0.0, 0.0, 0.0, 1.747692254991309E9, 0.0, 2025-05-20 00:04:14.991
36.0, 21328.325131931917, 18444.123082652462, 48114.32041100507, 34703.20668258747, 44881.40879647837, 2710.260773928258, 8580.275902780999, 8561.746306627549, 0.0, 0.0, 5082.987854836923, -28585.735390870024, 20530.47961359973, 6435.111932171814, -3914.4386547134704, -29874.268755229565, 0.052000000000000005, -0.004, 1.028, 192.0, 0.0, 0.0, 0.0, 0.0, 0.0, 0.0, 0.0, 0.0, 0.0, 1.747692254999307E9, 0.0, 2025-05-20 00:04:14.999
38.0, 21331.02969301101, 18442.513757051678, 48116.46617847278, 34696.232938317415, 44883.88984011291, 2681.650541025465, 8579.940626614169, 8558.639414148261, 0.0, 0.0, 5071.990796564913, -28594.407867718684, 20512.978197691227, 6412.134338871759, -3932.454160744448, -29900.35324100891, 0.058, -0.004, 1.034, 192.0, 0.5, 104.0, 127.5, 112.0, 16.0, 40.0, 0.0, 0.0, 0.0, 1.747692255007369E9, 0.0, 2025-05-20 00:04:15.007
40.0, 21332.683722100704, 18447.297030365113, 48116.9579168508, 34710.269833835344, 44890.93063961633, 2710.4619396283556, 8592.301141297954, 8547.865873320803, 0.0, 0.0, 5085.871229871658, -28580.03569603392, 20526.523354831144, 6429.121664657791, -3914.5951169246578, -29883.81295011198, 0.058, -0.004, 1.034, 192.0, 0.0, 0.0, 0.0, 0.0, 0.0, 0.0, 0.0, 0.0, 0.0, 1.747692255014382E9, 0.0, 2025-05-20 00:04:15.014
42.0, 21312.768317791026, 18429.370931311958, 48104.977381822755, 34683.514795722345, 44873.295113241096, 2693.698131286875, 8553.140885012255, 8544.915443052703, 0.0, 0.0, 5069.107421530178, -28595.65956540818, 20518.901409971884, 6419.286897097457, -3929.749599665356, -29892.194854282723, 0.058, -0.004, 1.034, 192.0, 0.0, 0.0, 0.0, 0.0, 0.0, 0.0, 0.0, 0.0, 0.0, 1.747692255024447E9, 0.0, 2025-05-20 00:04:15.024
44.0, 21327.74398657608, 18448.213451887783, 48116.66734417288, 34703.72077270994, 44883.95689534627, 2691.1723841634257, 8590.1777255747, 8552.917367567703, 0.0, 0.0, 5073.108383787678, -28593.983184574034, 20508.239627866704, 6410.748530715529, -3932.2082915554397, -29903.549540466018, 0.058, -0.004, 1.034, 192.0, 0.0, 0.0, 0.0, 0.0, 0.0, 0.0, 0.0, 0.0, 0.0, 1.747692255031455E9, 0.0, 2025-05-20 00:04:15.031
46.0, 21320.345559161375, 18438.22222211626, 48110.207690025294, 34699.20572032997, 44880.98411333372, 2708.450282627378, 8565.657861907228, 8545.74245759755, 0.0, 0.0, 5083.077261814745, -28583.81314084687, 20532.06658745606, 6432.586185048364, -3919.1548727935406, -29877.30859247549, 0.058, -0.004, 1.034, 192.0, 0.0, 0.0, 0.0, 0.0, 0.0, 0.0, 0.0, 0.0, 0.0, 1.747692255038483E9, 0.0, 2025-05-20 00:04:15.038
48.0, 21321.17257370622, 18436.523489537656, 48106.56435567908, 34686.19700505698, 44879.33008424403, 2688.736044017797, 8552.805608845427, 8551.710373367116, 0.0, 0.0, 5062.737174360415, -28603.32621375635, 20504.976273176228, 6400.019693376982, -3948.0556783742522, -29911.21618881419, 0.058, -0.002, 1.03, 192.0, 0.5, 104.0, 127.5, 120.0, 16.0, 24.0, 0.0, 0.0, 0.0, 1.74769225504651E9, 0.0, 2025-05-20 00:04:15.046
50.0, 21331.968466278133, 18446.22414663126, 48117.87433837347, 34712.594415258696, 44893.612848950965, 2708.7855587942076, 8609.959019417647, 8555.286652479965, 0.0, 0.0, 5084.038386826323, -28580.52743441194, 20527.752700776186, 6430.328658858378, -3918.417265226515, -29882.985935567136, 0.058, -0.002, 1.03, 192.0, 0.0, 0.0, 0.0, 0.0, 0.0, 0.0, 0.0, 0.0, 0.0, 1.747692255055533E9, 0.0, 2025-05-20 00:04:15.055
52.0, 21314.93643700319, 18426.12992836594, 48101.60226841, 34681.21256604345, 44869.5400201726, 2681.4940788142776, 8557.052440291935, 8540.668611606194, 0.0, 0.0, 5070.0014913083905, -28597.671222409157, 20519.63901753891, 6414.9059551842165, -3937.68446894699, -29897.112238062888, 0.058, -0.002, 1.03, 192.0, 0.0, 0.0, 0.0, 0.0, 0.0, 0.0, 0.0, 0.0, 0.0, 1.747692255063568E9, 0.0, 2025-05-20 00:04:15.063
54.0, 21331.722597089123, 18444.994800686218, 48117.00262033971, 34705.15128435508, 44887.4437674813, 2692.8934684864844, 8592.435251764686, 8543.015544774002, 0.0, 0.0, 5075.43296521103, -28591.256271750484, 20512.173534890837, 6415.375341817778, -3929.68254443199, -29903.01309859909, 0.058, -0.002, 1.03, 192.0, 0.0, 0.0, 0.0, 0.0, 0.0, 0.0, 0.0, 0.0, 0.0, 1.747692255070603E9, 0.0, 2025-05-20 00:04:15.070
56.0, 21316.478707370607, 18429.929724923342, 48109.35832373599, 34698.37870578512, 44883.420453479346, 2711.4677681288445, 8563.623853161795, 8546.301251208932, 0.0, 0.0, 5078.562209434773, -28586.540053670415, 20529.406729865877, 6433.681420526675, -3918.2160995264176, -29880.415484954774, 0.058, -0.002, 1.03, 192.0, 0.0, 0.0, 0.0, 0.0, 0.0, 0.0, 0.0, 0.0, 0.0, 1.747692255078627E9, 0.0, 2025-05-20 00:04:15.078
58.0, 21320.2338004391, 18436.65760000439, 48107.48077720175, 34685.99583935688, 44875.19501151979, 2682.4775555703113, 8570.687004409672, 8557.343012969854, 0.0, 0.0, 5062.536008660318, -28603.549731200903, 20505.691528998796, 6409.787405703951, -3936.298660790761, -29906.07528758947, 0.058, -0.004, 1.034, 192.0, 0.5, 104.0, 127.5, 112.0, 16.0, 40.0, 0.0, 0.0, 0.0, 1.747692255087693E9, 0.0, 2025-05-20 00:04:15.087
60.0, 21332.37079767833, 18454.360181612992, 48105.93850683433, 34700.211548830455, 44885.18624129132, 2706.3045151596684, 8579.046556835956, 8549.83282683287, 0.0, 0.0, 5069.755622119382, -28592.999707818, 20513.87226746944, 6419.756283731018, -3928.0285153422974, -29894.407676983796, 0.058, -0.004, 1.034, 192.0, 0.0, 0.0, 0.0, 0.0, 0.0, 0.0, 0.0, 0.0, 0.0, 1.74769225509472E9, 0.0, 2025-05-20 00:04:15.094
62.0, 21314.39999513626, 18425.83935568802, 48105.75969287869, 34685.36999051213, 44879.218325521746, 2694.77101502073, 8550.257509977522, 8553.811437345916, 0.0, 0.0, 5063.7206511164495, -28603.57208294536, 20513.02290118014, 6415.107120884314, -3937.4162480135265, -29897.44751422972, 0.058, -0.004, 1.034, 192.0, 0.0, 0.0, 0.0, 0.0, 0.0, 0.0, 0.0, 0.0, 0.0, 1.747692255102734E9, 0.0, 2025-05-20 00:04:15.102
64.0, 21341.98204779411, 18450.090998422027, 48117.226137784266, 34701.77617094233, 44896.45152049679, 2684.891543971484, 8584.433327249686, 8549.765771599505, 0.0, 0.0, 5077.534029189829, -28592.016231061963, 20513.648750024888, 6415.352990073323, -3930.3754485101044, -29900.174427053265, 0.058, -0.004, 1.034, 192.0, 0.0, 0.0, 0.0, 0.0, 0.0, 0.0, 0.0, 0.0, 0.0, 1.747692255110782E9, 0.0, 2025-05-20 00:04:15.110
66.0, 21332.013169767044, 18436.814062215577, 48107.79370162412, 34690.30972603676, 44890.37184600495, 2682.254038125758, 8559.533483926474, 8538.388733671753, 0.0, 0.0, 5082.227895525443, -28594.385515974227, 20527.752700776186, 6427.087655912359, -3924.8322158851884, -29886.606918168894, 0.058, -0.004, 1.034, 192.0, 0.0, 0.0, 0.0, 0.0, 0.0, 0.0, 0.0, 0.0, 0.0, 1.747692255119851E9, 0.0, 2025-05-20 00:04:15.119
68.0, 21339.813928581945, 18439.540975039123, 48107.41372196838, 34678.753874153364, 44893.612848950965, 2658.874113425507, 8561.50043743854, 8541.585033128862, 0.0, 0.0, 5066.33580521772, -28612.870408638766, 20502.025842908126, 6401.494908511032, -3944.613509728135, -29914.099563848922, 0.06, -0.006, 1.032, 192.0, 0.5, 112.0, 127.5, 104.0, 16.0, 32.0, 0.0, 0.0, 0.0, 1.747692255126823E9, 0.0, 2025-05-20 00:04:15.126
70.0, 21352.822643854935, 18451.499158322713, 48119.32720176306, 34707.43116228952, 44912.85770092699, 2685.4056340939565, 8579.98533010308, 8536.108855737311, 0.0, 0.0, 5085.62536068265, -28595.436047963627, 20520.466032083754, 6425.8806617117725, -3919.9818873383865, -29891.613708926885, 0.06, -0.006, 1.032, 192.0, 0.0, 0.0, 0.0, 0.0, 0.0, 0.0, 0.0, 0.0, 0.0, 1.747692255134829E9, 0.0, 2025-05-20 00:04:15.134
72.0, 21342.876117572323, 18439.07158840556, 48110.05122781411, 34680.76553115434, 44893.03170359513, 2670.228799608803, 8543.59669012984, 8536.757056326516, 0.0, 0.0, 5082.294950758809, -28602.208626533586, 20523.237648396214, 6418.348123830334, -3933.772913667311, -29896.262871773586, 0.06, -0.006, 1.032, 192.0, 0.0, 0.0, 0.0, 0.0, 0.0, 0.0, 0.0, 0.0, 0.0, 1.747692255142912E9, 0.0, 2025-05-20 00:04:15.142
74.0, 21368.290051018008, 18466.6089375745, 48123.86460588749, 34702.8937581651, 44914.735247461234, 2677.5825235345987, 8587.629626706796, 8543.082600007368, 0.0, 0.0, 5087.05587232779, -28596.978318331043, 20517.180325648824, 6417.74462673004, -3925.7039339189455, -29901.53788346504, 0.06, -0.006, 1.032, 192.0, 0.0, 0.0, 0.0, 0.0, 0.0, 0.0, 0.0, 0.0, 0.0, 1.747692255151012E9, 0.0, 2025-05-20 00:04:15.151
76.0, 21352.174443265732, 18450.716847266776, 48111.839367370536, 34687.91808938004, 44899.60311646499, 2682.946942203873, 8557.275957736487, 8530.610326601307, 0.0, 0.0, 5093.090843330722, -28592.820893862357, 20535.3969973799, 6431.580356547875, -3917.746712892856, -29885.042296057025, 0.06, -0.006, 1.032, 192.0, 0.0, 0.0, 0.0, 0.0, 0.0, 0.0, 0.0, 0.0, 0.0, 1.747692255158929E9, 0.0, 2025-05-20 00:04:15.158
78.0, 21351.32507697643, 18449.018114688173, 48108.48660570224, 34676.74221715239, 44897.65851469738, 2656.8624564245292, 8576.341995756864, 8542.747323840538, 0.0, 0.0, 5071.856686098181, -28616.513742984982, 20504.082203398015, 6400.22085907708, -3945.2393585728837, -29920.06747961849, 0.054, -0.004, 1.03, 192.0, 0.5, 88.0, 127.5, 112.0, 16.0, 24.0, 0.0, 0.0, 0.0, 1.747692255166957E9, 0.0, 2025-05-20 00:04:15.166
80.0, 21358.05295205748, 18457.243556647725, 48118.07550407357, 34701.66441222005, 44912.85770092699, 2676.2637706117357, 8588.948379629657, 8544.781332585972, 0.0, 0.0, 5082.607875181184, -28600.308728254884, 20517.046215182094, 6428.562871046409, -3915.86916635861, -29893.223034527666, 0.054, -0.004, 1.03, 192.0, 0.0, 0.0, 0.0, 0.0, 0.0, 0.0, 0.0, 0.0, 0.0, 1.74769225517605E9, 0.0, 2025-05-20 00:04:15.176
82.0, 21346.541803662993, 18449.778073999652, 48107.36901847947, 34678.64211543109, 44892.38350300593, 2666.7866309626856, 8557.767696114504, 8543.172006985189, 0.0, 0.0, 5078.092822801212, -28605.963719602078, 20521.337750117513, 6424.427798322177, -3926.195672296962, -29893.87123511687, 0.054, -0.004, 1.03, 192.0, 0.0, 0.0, 0.0, 0.0, 0.0, 0.0, 0.0, 0.0, 0.0, 1.747692255182001E9, 0.0, 2025-05-20 00:04:15.182
84.0, 21362.858577115367, 18466.6089375745, 48114.61098368299, 34692.20962431546, 44909.66140146988, 2661.9810059047945, 8587.853144151348, 8543.68609710766, 0.0, 0.0, 5076.014110566868, -28607.014251591478, 20508.261979611158, 6412.000228405026, -3931.8283118996997, -29910.232712058154, 0.054, -0.004, 1.03, 192.0, 0.0, 0.0, 0.0, 0.0, 0.0, 0.0, 0.0, 0.0, 0.0, 1.747692255191099E9, 0.0, 2025-05-20 00:04:15.191
86.0, 21352.576774665926, 18451.78973100063, 48104.61975391147, 34686.77815041282, 44898.75375017569, 2678.074261912616, 8546.748286098038, 8520.641448574239, 0.0, 0.0, 5080.596218180206, -28599.9511003436, 20526.59041006451, 6423.131397143769, -3927.87205313111, -29894.810008383993, 0.054, -0.004, 1.03, 192.0, 0.0, 0.0, 0.0, 0.0, 0.0, 0.0, 0.0, 0.0, 0.0, 1.747692255199091E9, 0.0, 2025-05-20 00:04:15.199
88.0, 21361.89745210379, 18459.903414237906, 48113.33693424904, 34681.95017361047, 44897.814976908565, 2664.0820698835937, 8556.02426004699, 8542.1661784847, 0.0, 0.0, 5070.493229686407, -28611.641062693725, 20508.28433135561, 6395.750510186018, -3949.9555766529534, -29924.448421531728, 0.052000000000000005, -0.002, 1.034, 192.0, 0.5, 80.0, 127.5, 120.0, 16.0, 40.0, 0.0, 0.0, 0.0, 1.747692255207102E9, 0.0, 2025-05-20 00:04:15.207
90.0, 21370.56992895245, 18471.459266121303, 48118.4554837293, 34706.60414774468, 44914.109398616485, 2686.9255527169175, 8581.237027792577, 8532.867852791293, 0.0, 0.0, 5093.090843330722, -28586.741219370513, 20531.865421755963, 6419.868042453295, -3925.7039339189455, -29899.369764252875, 0.052000000000000005, -0.002, 1.034, 192.0, 0.0, 0.0, 0.0, 0.0, 0.0, 0.0, 0.0, 0.0, 0.0, 1.747692255214153E9, 0.0, 2025-05-20 00:04:15.214
92.0, 21361.070437558945, 18459.903414237906, 48110.58766968104, 34687.068723090735, 44900.98892462122, 2676.777860734208, 8547.016507031502, 8528.799835300426, 0.0, 0.0, 5081.847915869703, -28594.787847374424, 20531.664256055865, 6414.816548206395, -3936.9021578910542, -29901.73904916514, 0.052000000000000005, -0.002, 1.034, 192.0, 0.0, 0.0, 0.0, 0.0, 0.0, 0.0, 0.0, 0.0, 0.0, 1.747692255223204E9, 0.0, 2025-05-20 00:04:15.223
94.0, 21382.70692619168, 18477.874216779976, 48126.27859428866, 34706.20181634448, 44912.567128249066, 2676.5319915451996, 8566.909559596725, 8529.872719034282, 0.0, 0.0, 5087.704072916994, -28591.524492683948, 20522.343578618, 6414.190699361647, -3932.387105511082, -29906.45526724521, 0.052000000000000005, -0.002, 1.034, 192.0, 0.0, 0.0, 0.0, 0.0, 0.0, 0.0, 0.0, 0.0, 0.0, 1.747692255231242E9, 0.0, 2025-05-20 00:04:15.231
96.0, 21374.012097598566, 18468.5088358532, 48124.42339949887, 34703.7431244544, 44910.42136078136, 2685.29387537168, 8554.1690652572, 8526.229384688066, 0.0, 0.0, 5105.741930692427, -28581.488559423517, 20550.506776631686, 6437.570624061897, -3917.746712892856, -29882.404790211298, 0.052000000000000005, -0.002, 1.034, 192.0, 0.0, 0.0, 0.0, 0.0, 0.0, 0.0, 0.0, 0.0, 0.0, 1.747692255238228E9, 0.0, 2025-05-20 00:04:15.238
98.0, 21374.056801087478, 18466.6089375745, 48118.544890707126, 34685.36999051213, 44900.72070368775, 2656.7059942133424, 8564.69673689565, 8537.092332493345, 0.0, 0.0, 5085.7371194049265, -28604.175580045652, 20520.957770461773, 6412.5590220164095, -3936.7903991687776, -29911.998499870122, 0.058, -0.008, 1.032, 192.0, 0.5, 104.0, 127.5, 96.0, 16.0, 32.0, 0.0, 0.0, 0.0, 1.747692255246329E9, 0.0, 2025-05-20 00:04:15.246
100.0, 21381.455228502182, 18477.784809802153, 48125.76450416619, 34708.749915212386, 44914.82465443906, 2678.744814246275, 8593.910466898737, 8540.601556372829, 0.0, 0.0, 5101.316285290276, -28588.641117649215, 20535.64286656891, 6437.414161850711, -3911.4435209564595, -29888.43976121423, 0.058, -0.008, 1.032, 192.0, 0.0, 0.0, 0.0, 0.0, 0.0, 0.0, 0.0, 0.0, 0.0, 1.747692255255377E9, 0.0, 2025-05-20 00:04:15.255
102.0, 21366.881891117322, 18462.13858868344, 48113.33693424904, 34684.3865137561, 44897.949087375295, 2675.324997344613, 8548.089390765357, 8537.427608660175, 0.0, 0.0, 5089.738081662426, -28600.062859065874, 20533.027712467636, 6426.886490212261, -3925.838044385677, -29896.06170607349, 0.058, -0.008, 1.032, 192.0, 0.0, 0.0, 0.0, 0.0, 0.0, 0.0, 0.0, 0.0, 0.0, 1.747692255262381E9, 0.0, 2025-05-20 00:04:15.262
104.0, 21381.432876757728, 18478.18714120235, 48122.0094110977, 34703.87723492113, 44916.72455271776, 2677.6272270235095, 8592.971693631613, 8550.838655333358, 0.0, 0.0, 5091.637979941128, -28593.536149684925, 20523.885848985417, 6421.455016309621, -3925.256899029839, -29902.007270098602, 0.058, -0.008, 1.032, 192.0, 0.0, 0.0, 0.0, 0.0, 0.0, 0.0, 0.0, 0.0, 0.0, 1.747692255270401E9, 0.0, 2025-05-20 00:04:15.270
106.0, 21358.90231834678, 18454.44958859081, 48101.71402713228, 34687.493406235386, 44901.726532188244, 2678.1413171459817, 8566.998966574547, 8532.219652202088, 0.0, 0.0, 5086.944113605513, -28596.911263097678, 20533.295933401103, 6435.17898740518, -3918.819596626711, -29884.39409546782, 0.058, -0.008, 1.032, 192.0, 0.0, 0.0, 0.0, 0.0, 0.0, 0.0, 0.0, 0.0, 0.0, 1.747692255279384E9, 0.0, 2025-05-20 00:04:15.279
108.0, 21361.808045125967, 18457.109446180995, 48105.49147194523, 34676.026961329815, 44902.7994159221, 2658.1141541140264, 8574.442097478164, 8547.329431453876, 0.0, 0.0, 5067.76631686286, -28617.206647063096, 20503.322244086536, 6405.138242857247, -3944.5688062392246, -29916.267683061087, 0.058, -0.007, 1.032, 192.0, 0.5, 104.0, 127.5, 104.0, 16.0, 32.0, 0.0, 0.0, 0.0, 1.747692255287466E9, 0.0, 2025-05-20 00:04:15.287
110.0, 21368.08888531791, 18464.574928829068, 48105.893803345425, 34690.86851964814, 44914.19880559431, 2683.0139974372387, 8579.582998702885, 8540.132169739267, 0.0, 0.0, 5082.473764714452, -28603.437972478627, 20516.934456459818, 6420.806815720417, -3926.3968379970597, -29899.325060763964, 0.058, -0.007, 1.032, 192.0, 0.0, 0.0, 0.0, 0.0, 0.0, 0.0, 0.0, 0.0, 0.0, 1.747692255294483E9, 0.0, 2025-05-20 00:04:15.294
112.0, 21361.31630674795, 18464.97726022926, 48090.158175248886, 34664.11348153514, 44892.36115126147, 2681.024692180716, 8555.532521668974, 8533.471349891586, 0.0, 0.0, 5066.179343006533, -28618.860676152788, 20509.088994156005, 6407.999266147526, -3940.903120148554, -29910.523284736075, 0.058, -0.007, 1.032, 192.0, 0.0, 0.0, 0.0, 0.0, 0.0, 0.0, 0.0, 0.0, 0.0, 1.747692255302518E9, 0.0, 2025-05-20 00:04:15.302
114.0, 21361.69628640369, 18458.763475270687, 48106.51965219017, 34686.8899091351, 44906.73332294623, 2675.459107811345, 8583.18162956019, 8540.154521483722, 0.0, 0.0, 5064.994700550402, -28611.395193504715, 20500.2377033517, 6404.087710867848, -3936.9915648688752, -29917.854656917414, 0.058, -0.007, 1.032, 192.0, 0.0, 0.0, 0.0, 0.0, 0.0, 0.0, 0.0, 0.0, 0.0, 1.747692255311552E9, 0.0, 2025-05-20 00:04:15.311
116.0, 21357.9411933352, 18449.84512923302, 48107.39137022393, 34685.16882481203, 44910.10843635898, 2682.589314292588, 8563.73561188407, 8532.242003946543, 0.0, 0.0, 5077.422270467552, -28605.069649823865, 20523.12588967394, 6427.847615223839, -3920.093646060663, -29893.73712465014, 0.058, -0.007, 1.032, 192.0, 0.0, 0.0, 0.0, 0.0, 0.0, 0.0, 0.0, 0.0, 0.0, 1.747692255318529E9, 0.0, 2025-05-20 00:04:15.318
118.0, 21373.967394109655, 18461.51273983869, 48110.76648363668, 34676.47399621892, 44915.51755851717, 2659.3211483146133, 8573.145696299756, 8538.589899371851, 0.0, 0.0, 5071.566113420262, -28618.52539998596, 20504.261017353656, 6403.014827133993, -3940.59019572618, -29920.358052296408, 0.061, -0.0055, 1.0270000000000001, 192.0, 1.0, 0.0, 127.5, 112.0, 15.5, 120.0, 0.0, 0.0, 0.0, 1.747692255326625E9, 0.0, 2025-05-20 00:04:15.326
120.0, 21382.46105700267, 18469.08998120904, 48111.23587027024, 34693.506025493865, 44925.66525049988, 2676.2637706117357, 8577.973673102102, 8526.944640510636, 0.0, 0.0, 5088.240514783921, -28600.152266043697, 20520.06370068356, 6421.253850609523, -3921.099474561152, -29900.554406709005, 0.061, -0.0055, 1.0270000000000001, 192.0, 0.0, 0.0, 0.0, 0.0, 0.0, 0.0, 0.0, 0.0, 0.0, 1.747692255334686E9, 0.0, 2025-05-20 00:04:15.334
122.0, 21374.861463887868, 18462.831492761554, 48103.032780055146, 34674.10471130666, 44910.35430554799, 2664.104421628049, 8552.492684423052, 8533.44899814713, 0.0, 0.0, 5077.824601867748, -28613.38449876124, 20518.499078571687, 6407.440472536144, -3941.886596904588, -29910.59033996944, 0.061, -0.0055, 1.0270000000000001, 192.0, 0.0, 0.0, 0.0, 0.0, 0.0, 0.0, 0.0, 0.0, 0.0, 1.747692255343715E9, 0.0, 2025-05-20 00:04:15.343
124.0, 21385.053859359487, 18473.42621963337, 48115.77327439467, 34690.779112670316, 44928.12394238996, 2660.818715193119, 8576.051423078945, 8533.650163847227, 0.0, 0.0, 5083.837221126226, -28606.14253355772, 20513.91697095835, 6406.233478335557, -3936.946861379965, -29916.44649701673, 0.061, -0.0055, 1.0270000000000001, 192.0, 0.0, 0.0, 0.0, 0.0, 0.0, 0.0, 0.0, 0.0, 0.0, 1.747692255350703E9, 0.0, 2025-05-20 00:04:15.350
126.0, 21378.12481857834, 18467.882987008452, 48113.96278309379, 34693.61778421614, 44921.64193649792, 2680.4882503137887, 8569.681175909183, 8527.34697191083, 0.0, 0.0, 5089.827488640248, -28598.341774742818, 20534.83820376852, 6428.719333257596, -3921.233585027884, -29893.021868827567, 0.061, -0.0055, 1.0270000000000001, 192.0, 0.0, 0.0, 0.0, 0.0, 0.0, 0.0, 0.0, 0.0, 0.0, 1.74769225535867E9, 0.0, 2025-05-20 00:04:15.358
128.0, 21386.484371004626, 18474.007364989207, 48113.53809994914, 34680.67612417652, 44916.92571841785, 2658.3823750474903, 8573.190399788666, 8530.655030090216, 0.0, 0.0, 5081.870267614158, -28610.054088837398, 20517.895581471395, 6409.340370814845, -3938.623242214113, -29914.278377804563, 0.0625, -0.00575, 1.0265, 192.0, 1.0, 0.0, 127.5, 104.0, 16.0, 8.0, 0.0, 0.0, 0.0, 1.747692255366793E9, 0.0, 2025-05-20 00:04:15.366
130.0, 21388.18310358323, 18475.437876634347, 48117.53906220663, 34699.11631335215, 44929.688564501834, 2676.710805500842, 8569.41295497572, 8534.79010281445, 0.0, 0.0, 5099.282276544843, -28593.580853173837, 20530.88194499993, 6426.372400089789, -3921.099474561152, -29896.039354329034, 0.0625, -0.00575, 1.0265, 192.0, 0.0, 0.0, 0.0, 0.0, 0.0, 0.0, 0.0, 0.0, 0.0, 1.747692255374822E9, 0.0, 2025-05-20 00:04:15.374
132.0, 21369.117065562852, 18455.07543743556, 48104.7538643782, 34673.791786884285, 44912.72359046026, 2666.8536861960515, 8543.26141396301, 8536.958222026613, 0.0, 0.0, 5077.5787326787395, -28615.887894140233, 20517.381491348922, 6412.111987127303, -3940.1208090926184, -29908.28811029054, 0.0625, -0.00575, 1.0265, 192.0, 0.0, 0.0, 0.0, 0.0, 0.0, 0.0, 0.0, 0.0, 0.0, 1.7476922553829E9, 0.0, 2025-05-20 00:04:15.382
134.0, 21393.56987399696, 18481.65166159292, 48127.53029197816, 34700.68093546402, 44931.40964882489, 2675.034424666694, 8602.001798391557, 8545.943623297648, 0.0, 0.0, 5086.519430460862, -28605.114353312776, 20514.766337247653, 6413.341333072345, -3929.0790473316965, -29912.356127781408, 0.0625, -0.00575, 1.0265, 192.0, 0.0, 0.0, 0.0, 0.0, 0.0, 0.0, 0.0, 0.0, 0.0, 1.747692255390879E9, 0.0, 2025-05-20 00:04:15.390
136.0, 21389.9488913952, 18478.634176091455, 48120.53419596365, 34700.189197086, 44930.381468579944, 2693.407558608956, 8562.908597339225, 8527.63754458875, 0.0, 0.0, 5103.171480080066, -28587.434123448627, 20546.148186462902, 6433.3684961043, -3913.5669366797138, -29887.277470502555, 0.0625, -0.00575, 1.0265, 192.0, 0.0, 0.0, 0.0, 0.0, 0.0, 0.0, 0.0, 0.0, 0.0, 1.747692255398919E9, 0.0, 2025-05-20 00:04:15.398
138.0, 21405.14807762481, 18491.2629117087, 48119.75188490771, 34687.20283355747, 44933.331898848046, 2668.1724391189146, 8551.442152433652, 8529.716256823094, 0.0, 0.0, 5089.916895618069, -28600.08521081033, 20526.948037975795, 6402.612495733798, -3943.428867272004, -29918.614616228893, 0.05925, -0.005875, 1.0282499999999999, 192.0, 0.5, 96.0, 127.5, 104.0, 16.0, 24.0, 0.0, 0.0, 0.0, 1.747692255406915E9, 0.0, 2025-05-20 00:04:15.406
140.0, 21412.77002248407, 18500.874161824486, 48126.14448382193, 34707.29705182279, 44944.41836409788, 2689.3395411180904, 8564.383812473276, 8518.227460173066, 0.0, 0.0, 5111.218108083976, -28581.80148384589, 20546.349352163, 6419.465711053099, -3928.229681042395, -29901.33671776494, 0.05925, -0.005875, 1.0282499999999999, 192.0, 0.0, 0.0, 0.0, 0.0, 0.0, 0.0, 0.0, 0.0, 0.0, 1.74769225541498E9, 0.0, 2025-05-20 00:04:15.414
142.0, 21393.61457748587, 18482.255158693213, 48116.53323370615, 34684.23005154491, 44922.37954406495, 2676.107308400549, 8529.850367289826, 8521.960201497102, 0.0, 0.0, 5099.751663178404, -28592.440914206614, 20543.711846317274, 6414.6153825062975, -3936.4998264908586, -29905.807066656005, 0.05925, -0.005875, 1.0282499999999999, 192.0, 0.0, 0.0, 0.0, 0.0, 0.0, 0.0, 0.0, 0.0, 0.0, 1.747692255422985E9, 0.0, 2025-05-20 00:04:15.422
144.0, 21405.52805728055, 18495.152115243927, 48126.59151871104, 34703.63136573212, 44935.27650061566, 2672.8216019656184, 8574.196228289155, 8536.578242370873, 0.0, 0.0, 5097.918820133069, -28592.865597351265, 20528.602067065487, 6412.000228405026, -3935.046963101264, -29910.456229502706, 0.05925, -0.005875, 1.0282499999999999, 192.0, 0.0, 0.0, 0.0, 0.0, 0.0, 0.0, 0.0, 0.0, 0.0, 1.747692255431964E9, 0.0, 2025-05-20 00:04:15.431
146.0, 21389.56891173946, 18476.443705134836, 48117.67317267337, 34696.031772617316, 44925.17351212186, 2692.357026619557, 8545.317774452898, 8526.989343999547, 0.0, 0.0, 5106.9265731485575, -28584.953079814088, 20551.289087687623, 6435.827187994384, -3920.741846649867, -29884.81877861247, 0.05925, -0.005875, 1.0282499999999999, 192.0, 0.0, 0.0, 0.0, 0.0, 0.0, 0.0, 0.0, 0.0, 0.0, 1.747692255439031E9, 0.0, 2025-05-20 00:04:15.439
148.0, 21391.89349316281, 18480.109391225506, 48123.350515765014, 34690.46618824794, 44923.474779543256, 2669.1559158749483, 8555.197245502144, 8538.992230772046, 0.0, 0.0, 5089.112232817678, -28608.17654230315, 20525.852802497484, 6412.7378359720515, -3939.7631811813335, -29911.417354514284, 0.058625, -0.0049375, 1.0311249999999998, 192.0, 0.5, 104.0, 127.5, 112.0, 16.0, 40.0, 0.0, 0.0, 0.0, 1.747692255447065E9, 0.0, 2025-05-20 00:04:15.447
150.0, 21400.43185954474, 18486.412583161902, 48127.083257089056, 34709.666336735056, 44944.016032697684, 2677.068433412127, 8581.03586209248, 8533.001963258024, 0.0, 0.0, 5106.367779537175, -28586.98708855952, 20541.901355016395, 6438.978783962582, -3913.969268079909, -29887.210415269186, 0.058625, -0.0049375, 1.0311249999999998, 192.0, 0.0, 0.0, 0.0, 0.0, 0.0, 0.0, 0.0, 0.0, 0.0, 1.747692255454124E9, 0.0, 2025-05-20 00:04:15.454
152.0, 21378.929481378735, 18463.971431728773, 48109.26891675817, 34679.446778231475, 44918.24447134072, 2657.9576919028395, 8544.423704674686, 8533.493701636042, 0.0, 0.0, 5092.040311341323, -28602.767420144966, 20534.502927601687, 6429.278126868979, -3926.1062653191407, -29895.458208973196, 0.058625, -0.0049375, 1.0311249999999998, 192.0, 0.0, 0.0, 0.0, 0.0, 0.0, 0.0, 0.0, 0.0, 0.0, 1.747692255462085E9, 0.0, 2025-05-20 00:04:15.462
154.0, 21390.306519306483, 18477.31542316859, 48116.33206800605, 34690.13091208111, 44929.979137179755, 2658.3823750474903, 8585.908542383737, 8541.920309295692, 0.0, 0.0, 5083.0325583258345, -28610.27760628195, 20513.648750024888, 6413.073112138881, -3934.1752450675067, -29912.311424292497, 0.058625, -0.0049375, 1.0311249999999998, 192.0, 0.0, 0.0, 0.0, 0.0, 0.0, 0.0, 0.0, 0.0, 0.0, 1.747692255471173E9, 0.0, 2025-05-20 00:04:15.471
156.0, 21389.635966972826, 18475.6613940789, 48116.08619881704, 34693.640135960595, 44931.34259359152, 2684.19863989337, 8564.719088640106, 8531.325582423877, 0.0, 0.0, 5093.67198868656, -28598.878216609744, 20537.274543914147, 6434.284917626967, -3915.86916635861, -29888.01507806958, 0.058625, -0.0049375, 1.0311249999999998, 192.0, 0.0, 0.0, 0.0, 0.0, 0.0, 0.0, 0.0, 0.0, 0.0, 1.747692255479187E9, 0.0, 2025-05-20 00:04:15.479
158.0, 21393.81574318597, 18478.254196435715, 48117.09202731753, 34681.681952677005, 44931.14142789143, 2673.2462851102696, 8571.2234462766, 8543.2167104741, 0.0, 0.0, 5082.71963390346, -28610.165847559674, 20520.041348939103, 6410.234440593057, -3935.4045910125487, -29913.384308026354, 0.0583125, -0.00546875, 1.0315625, 192.0, 0.5, 104.0, 127.5, 104.0, 16.0, 32.0, 0.0, 0.0, 0.0, 1.747692255486206E9, 0.0, 2025-05-20 00:04:15.486
160.0, 21392.80991468548, 18479.058859236105, 48114.275707516164, 34692.96958362694, 44932.92956744785, 2677.783689234697, 8577.593693446363, 8528.889242278248, 0.0, 0.0, 5096.0636253432785, -28598.56529218737, 20528.82558451004, 6427.691153012652, -3918.3055065042386, -29895.748781651117, 0.0583125, -0.00546875, 1.0315625, 192.0, 0.0, 0.0, 0.0, 0.0, 0.0, 0.0, 0.0, 0.0, 0.0, 1.74769225549427E9, 0.0, 2025-05-20 00:04:15.494
162.0, 21376.001402855087, 18461.71390553879, 48099.65766664239, 34666.43806295849, 44920.85962544199, 2666.1160786290266, 8543.59669012984, 8526.788178299448, 0.0, 0.0, 5076.841125111714, -28616.29022554043, 20520.846011739497, 6412.916649927694, -3938.198559069462, -29909.71862193568, 0.0583125, -0.00546875, 1.0315625, 192.0, 0.0, 0.0, 0.0, 0.0, 0.0, 0.0, 0.0, 0.0, 0.0, 1.747692255503242E9, 0.0, 2025-05-20 00:04:15.503
164.0, 21397.682594976737, 18485.071478494585, 48117.11437906198, 34692.388438271104, 44937.08699191654, 2663.81384895013, 8571.826943376893, 8545.898919808737, 0.0, 0.0, 5079.053947812789, -28609.361184759284, 20512.01707267965, 6409.250963837024, -3935.3151840347273, -29914.54659873803, 0.0583125, -0.00546875, 1.0315625, 192.0, 0.0, 0.0, 0.0, 0.0, 0.0, 0.0, 0.0, 0.0, 0.0, 1.747692255510333E9, 0.0, 2025-05-20 00:04:15.510
166.0, 21384.115086092366, 18473.336812655547, 48114.901556360914, 34692.41079001556, 44925.017049910675, 2683.5057358152553, 8566.730745641082, 8518.272163661977, 0.0, 0.0, 5091.012131096379, -28597.782981131433, 20536.4475293693, 6433.3684961043, -3919.043114071264, -29889.490293203628, 0.0583125, -0.00546875, 1.0315625, 192.0, 0.0, 0.0, 0.0, 0.0, 0.0, 0.0, 0.0, 0.0, 0.0, 1.747692255518275E9, 0.0, 2025-05-20 00:04:15.518
168.0, 21392.049955373997, 18480.399963903423, 48119.68482967435, 34683.69360967798, 44928.39216332343, 2662.3386338160794, 8580.521771970007, 8550.07869602188, 0.0, 0.0, 5081.713805402971, -28609.919978370664, 20519.169630905348, 6412.044931893937, -3935.9633846239312, -29913.20549407071, 0.06115625, -0.006734375, 1.0317812499999999, 192.0, 1.0, 0.0, 127.5, 96.0, 16.0, 32.0, 0.0, 0.0, 0.0, 1.747692255526359E9, 0.0, 2025-05-20 00:04:15.526
170.0, 21392.161714096273, 18482.389269159947, 48118.05315232911, 34700.7926941863, 44937.08699191654, 2690.099500429571, 8588.724862185105, 8523.457768375609, 0.0, 0.0, 5098.231744555444, -28591.70330663959, 20535.039369468614, 6429.9933826915485, -3914.4163029690153, -29895.72642990666, 0.06115625, -0.006734375, 1.0317812499999999, 192.0, 0.0, 0.0, 0.0, 0.0, 0.0, 0.0, 0.0, 0.0, 0.0, 1.74769225553637E9, 0.0, 2025-05-20 00:04:15.536
172.0, 21376.582548210925, 18464.641984062433, 48105.13384403394, 34678.23978403089, 44922.71482023178, 2672.933360687895, 8549.184626243667, 8526.519957365985, 0.0, 0.0, 5078.159878034578, -28606.43310623564, 20526.501003086687, 6416.64939125173, -3933.392934011571, -29907.416392256786, 0.06115625, -0.006734375, 1.0317812499999999, 192.0, 0.0, 0.0, 0.0, 0.0, 0.0, 0.0, 0.0, 0.0, 0.0, 1.747692255543432E9, 0.0, 2025-05-20 00:04:15.543
174.0, 21395.983862398134, 18483.90918778291, 48126.14448382193, 34705.86654017765, 44939.12100066197, 2674.162706632937, 8603.097033869868, 8551.240986733555, 0.0, 0.0, 5084.463069970974, -28597.626518920246, 20519.303741372078, 6418.593993019342, -3926.1509688080514, -29906.768191667583, 0.06115625, -0.006734375, 1.0317812499999999, 192.0, 0.0, 0.0, 0.0, 0.0, 0.0, 0.0, 0.0, 0.0, 0.0, 1.747692255550502E9, 0.0, 2025-05-20 00:04:15.550
176.0, 21384.8973971483, 18472.08511496605, 48116.577937195056, 34702.178502342525, 44928.81684646808, 2691.0829771856042, 8566.194303774155, 8534.1642539697, 0.0, 0.0, 5097.67295094406, -28586.629460648237, 20543.667142828363, 6447.114818944314, -3906.1461575205517, -29875.00636279659, 0.06115625, -0.006734375, 1.0317812499999999, 192.0, 0.0, 0.0, 0.0, 0.0, 0.0, 0.0, 0.0, 0.0, 0.0, 1.747692255558456E9, 0.0, 2025-05-20 00:04:15.558
178.0, 21389.05482161699, 18473.60503358901, 48114.47687321626, 34687.91808938004, 44930.962613935786, 2692.6252475530205, 8560.762829871515, 8535.818283059392, 0.0, 0.0, 5074.985930321924, -28606.14253355772, 20516.35331110398, 6411.329676071367, -3939.1373323365847, -29910.746802180627, 0.062578125, -0.0073671875000000005, 1.029890625, 192.0, 1.0, 0.0, 127.5, 96.0, 16.0, 16.0, 0.0, 0.0, 0.0, 1.747692255567565E9, 0.0, 2025-05-20 00:04:15.567
180.0, 21390.418278028763, 18480.109391225506, 48124.73632392124, 34707.94525241199, 44937.77989599465, 2682.097575914571, 8588.099013340356, 8531.303230679421, 0.0, 0.0, 5096.376549765653, -28587.32236472635, 20535.35229389099, 6437.704734528629, -3909.7894918667666, -29886.450455957707, 0.062578125, -0.0073671875000000005, 1.029890625, 192.0, 0.0, 0.0, 0.0, 0.0, 0.0, 0.0, 0.0, 0.0, 0.0, 1.747692255574524E9, 0.0, 2025-05-20 00:04:15.574
182.0, 21378.57185346745, 18467.726524797265, 48112.08523655954, 34687.851034146675, 44923.832407454545, 2676.9566746898504, 8541.003887773024, 8529.604498100818, 0.0, 0.0, 5086.72059616096, -28598.006498575985, 20535.240535168712, 6427.042952423448, -3924.5639949517245, -29895.16763629528, 0.062578125, -0.0073671875000000005, 1.029890625, 192.0, 0.0, 0.0, 0.0, 0.0, 0.0, 0.0, 0.0, 0.0, 0.0, 1.747692255582602E9, 0.0, 2025-05-20 00:04:15.582
184.0, 21394.84392343091, 18482.433972648858, 48121.115341319484, 34702.53613025381, 44934.449486070815, 2677.761337490241, 8576.274940523499, 8538.612251116307, 0.0, 0.0, 5085.379491493642, -28593.357335729284, 20523.72938677423, 6419.532766286465, -3925.7262856634006, -29904.600072455418, 0.062578125, -0.0073671875000000005, 1.029890625, 192.0, 0.0, 0.0, 0.0, 0.0, 0.0, 0.0, 0.0, 0.0, 0.0, 1.74769225559163E9, 0.0, 2025-05-20 00:04:15.591
186.0, 21392.698155963204, 18481.964586015296, 48122.590556453535, 34705.933595411014, 44935.74588724922, 2704.5834308366098, 8563.668556650706, 8523.368361397786, 0.0, 0.0, 5100.265753300876, -28582.784960601923, 20546.25994518518, 6441.437475852666, -3909.9906575668647, -29881.24249949962, 0.062578125, -0.0073671875000000005, 1.029890625, 192.0, 0.0, 0.0, 0.0, 0.0, 0.0, 0.0, 0.0, 0.0, 0.0, 1.747692255598714E9, 0.0, 2025-05-20 00:04:15.598
188.0, 21390.619443728858, 18480.198798203328, 48117.58376569555, 34690.10856033666, 44928.66038425689, 2702.907050002462, 8564.964957829114, 8544.893091308248, 0.0, 0.0, 5087.257038027888, -28595.570158430357, 20528.579715321033, 6419.599821519831, -3929.257861287339, -29906.410563756297, 0.06328906249999999, -0.00468359375, 1.0289453124999999, 192.0, 1.0, 0.0, 127.5, 120.0, 16.0, 16.0, 0.0, 0.0, 0.0, 1.747692255606712E9, 0.0, 2025-05-20 00:04:15.606
190.0, 21391.647623973804, 18480.064687736594, 48126.41270475539, 34713.421429803544, 44947.50290483271, 2682.7234247593196, 8583.18162956019, 8541.853254062326, 0.0, 0.0, 5099.617552711672, -28582.38262920173, 20538.615648581464, 6437.235347895068, -3911.7564453788336, -29886.204586768697, 0.06328906249999999, -0.00468359375, 1.0289453124999999, 192.0, 0.0, 0.0, 0.0, 0.0, 0.0, 0.0, 0.0, 0.0, 0.0, 1.747692255614722E9, 0.0, 2025-05-20 00:04:15.614
192.0, 21383.80216166999, 18467.79358003063, 48113.359285993494, 34686.59933645718, 44921.7536952202, 2681.2482096252693, 8543.239062218556, 8534.231309203065, 0.0, 0.0, 5089.62632294015, -28595.257234007986, 20537.006322980684, 6434.955469960627, -3918.819596626711, -29889.132665292345, 0.06328906249999999, -0.00468359375, 1.0289453124999999, 192.0, 0.0, 0.0, 0.0, 0.0, 0.0, 0.0, 0.0, 0.0, 0.0, 1.747692255622741E9, 0.0, 2025-05-20 00:04:15.622
194.0, 21393.033432130032, 18480.62348134798, 48121.964707608786, 34701.35148779768, 44934.94122444883, 2675.392052577979, 8582.622835948807, 8538.07580924938, 0.0, 0.0, 5085.982988593935, -28596.93361484213, 20520.309569872566, 6420.739760487051, -3927.3803147530934, -29904.376555010866, 0.06328906249999999, -0.00468359375, 1.0289453124999999, 192.0, 0.0, 0.0, 0.0, 0.0, 0.0, 0.0, 0.0, 0.0, 0.0, 1.747692255630768E9, 0.0, 2025-05-20 00:04:15.630
196.0, 21376.984879611122, 18466.094847452026, 48113.024009826666, 34698.53516799631, 44929.59915752401, 2681.024692180716, 8553.722030368093, 8517.758073539504, 0.0, 0.0, 5093.157898564088, -28586.629460648237, 20539.95675324878, 6440.744571774551, -3913.254012257339, -29882.695362889215, 0.06328906249999999, -0.00468359375, 1.0289453124999999, 192.0, 0.0, 0.0, 0.0, 0.0, 0.0, 0.0, 0.0, 0.0, 0.0, 1.747692255638789E9, 0.0, 2025-05-20 00:04:15.638
198.0, 21388.876007661343, 18475.147303956426, 48122.299983775614, 34695.51768249484, 44932.37077383647, 2682.0528724256606, 8564.115591539812, 8536.600594115329, 0.0, 0.0, 5079.031596068335, -28599.973452088056, 20519.72842451673, 6417.208184863113, -3933.8623206451325, -29907.841075401437, 0.060644531249999994, -0.002341796875, 1.03047265625, 192.0, 0.5, 104.0, 0.0, 0.0, 16.0, 32.0, 0.0, 0.0, 0.0, 1.747692255646842E9, 0.0, 2025-05-20 00:04:15.646
200.0, 21397.90611242129, 18482.121048226483, 48126.94914662232, 34714.0919821372, 44943.72546001976, 2694.01105570925, 8580.477068481096, 8521.289649163444, 0.0, 0.0, 5102.389169024131, -28579.27573672244, 20539.15209044839, 6442.309193886423, -3905.2744394867946, -29883.164749522777, 0.060644531249999994, -0.002341796875, 1.03047265625, 192.0, 0.0, 0.0, 0.0, 0.0, 0.0, 0.0, 0.0, 0.0, 0.0, 1.747692255653812E9, 0.0, 2025-05-20 00:04:15.653
202.0, 21381.812856413468, 18466.251309663214, 48114.342762749526, 34694.46715050544, 44925.24056735523, 2673.805078721652, 8537.561719126907, 8539.998059272535, 0.0, 0.0, 5090.922724118558, -28592.016231061963, 20538.146261947903, 6435.827187994384, -3918.5737274377025, -29886.361048979885, 0.060644531249999994, -0.002341796875, 1.03047265625, 192.0, 0.0, 0.0, 0.0, 0.0, 0.0, 0.0, 0.0, 0.0, 0.0, 1.747692255662899E9, 0.0, 2025-05-20 00:04:15.662
204.0, 21398.263740332575, 18485.026775005674, 48123.23875704274, 34705.62067098864, 44941.24441638523, 2673.894485699473, 8563.534446183974, 8534.030143502969, 0.0, 0.0, 5085.200677538, -28591.23392000603, 20523.12588967394, 6421.276202353979, -3927.87205313111, -29902.990746854633, 0.060644531249999994, -0.002341796875, 1.03047265625, 192.0, 0.0, 0.0, 0.0, 0.0, 0.0, 0.0, 0.0, 0.0, 0.0, 1.747692255670886E9, 0.0, 2025-05-20 00:04:15.670
206.0, 21398.1519816103, 18480.690536581344, 48124.758675665704, 34710.76157221336, 44945.37948910946, 2707.5115093602553, 8568.675347408695, 8526.788178299448, 0.0, 0.0, 5100.601029467706, -28578.60518438878, 20547.198718452302, 6446.667784055207, -3907.10728253213, -29878.225013998155, 0.060644531249999994, -0.002341796875, 1.03047265625, 192.0, 0.0, 0.0, 0.0, 0.0, 0.0, 0.0, 0.0, 0.0, 0.0, 1.747692255677943E9, 0.0, 2025-05-20 00:04:15.677
208.0, 21396.52030426506, 18479.95292901432, 48120.9588791083, 34693.28250804931, 44938.07046867257, 2694.2122214093474, 8566.239007263066, 8540.802722072927, 0.0, 0.0, 5089.335750262231, -28594.139646785217, 20528.26679089866, 6422.818472721395, -3927.3356112641827, -29904.510665477595, 0.060322265624999996, -0.0041708984375, 1.030236328125, 192.0, 0.5, 112.0, 127.5, 104.0, 16.0, 24.0, 0.0, 0.0, 0.0, 1.747692255685962E9, 0.0, 2025-05-20 00:04:15.685
210.0, 21394.776868197547, 18480.04233599214, 48121.02593434166, 34707.833493689715, 44940.9091402184, 2690.8818114855067, 8593.396376776263, 8534.588937114351, 0.0, 0.0, 5100.623381212161, -28583.969603058053, 20535.888735757915, 6437.3694583618, -3908.7613116218226, -29891.032563571047, 0.060322265624999996, -0.0041708984375, 1.030236328125, 192.0, 0.0, 0.0, 0.0, 0.0, 0.0, 0.0, 0.0, 0.0, 0.0, 1.747692255695012E9, 0.0, 2025-05-20 00:04:15.695
212.0, 21382.639870958315, 18469.782885287153, 48112.21934702627, 34688.52158648033, 44929.01801216818, 2682.9245904594172, 8552.626794889784, 8529.090407978345, 0.0, 0.0, 5084.418366482064, -28595.368992730262, 20533.452395612287, 6428.831091979872, -3923.1781867954955, -29897.223996785164, 0.060322265624999996, -0.0041708984375, 1.030236328125, 192.0, 0.0, 0.0, 0.0, 0.0, 0.0, 0.0, 0.0, 0.0, 0.0, 1.747692255703025E9, 0.0, 2025-05-20 00:04:15.703
214.0, 21398.107278121388, 18484.579740116566, 48120.645954685926, 34700.7926941863, 44942.071430930075, 2669.7370612307864, 8579.918274869713, 8531.482044635064, 0.0, 0.0, 5085.267732771365, -28593.89377759621, 20522.47768908473, 6417.7222749855855, -3928.9672886094204, -29908.69044169074, 0.060322265624999996, -0.0041708984375, 1.030236328125, 192.0, 0.0, 0.0, 0.0, 0.0, 0.0, 0.0, 0.0, 0.0, 0.0, 1.747692255710044E9, 0.0, 2025-05-20 00:04:15.710
216.0, 21388.361917538874, 18472.822722533074, 48111.615849925984, 34701.10561860867, 44935.99175643823, 2690.1442039184817, 8550.346916955343, 8513.377131626265, 0.0, 0.0, 5094.119023575667, -28583.634326891224, 20543.153052705893, 6438.352935117833, -3915.3550762361383, -29885.399923968307, 0.060322265624999996, -0.0041708984375, 1.030236328125, 192.0, 0.0, 0.0, 0.0, 0.0, 0.0, 0.0, 0.0, 0.0, 0.0, 1.747692255719082E9, 0.0, 2025-05-20 00:04:15.719
218.0, 21384.293900048007, 18469.71583005379, 48114.99096333873, 34691.94140338199, 44927.05105865611, 2671.2122763648363, 8557.36536471431, 8536.064152248402, 0.0, 0.0, 5077.779898378837, -28602.208626533586, 20519.616665794452, 6413.453091794621, -3939.226739314406, -29911.43970625874, 0.0601611328125, -0.00508544921875, 1.0301181640625, 192.0, 0.5, 112.0, 127.5, 104.0, 16.0, 24.0, 0.0, 0.0, 0.0, 1.747692255727125E9, 0.0, 2025-05-20 00:04:15.727
220.0, 21394.03926063052, 18482.165751715394, 48126.70327743331, 34716.81889496075, 44944.12779141996, 2698.347294133579, 8583.338091771377, 8535.281841192465, 0.0, 0.0, 5098.611724211183, -28578.672239622145, 20537.900392758893, 6443.113856686814, -3907.8225383546996, -29881.734237877637, 0.0601611328125, -0.00508544921875, 1.0301181640625, 192.0, 0.0, 0.0, 0.0, 0.0, 0.0, 0.0, 0.0, 0.0, 0.0, 1.747692255734102E9, 0.0, 2025-05-20 00:04:15.734
222.0, 21377.342507522408, 18463.390286372934, 48114.81214938309, 34689.34860102518, 44929.73326799074, 2676.8225642231187, 8549.944585555148, 8526.743474810539, 0.0, 0.0, 5087.05587232779, -28593.402039218196, 20536.134604946925, 6437.391810106255, -3914.9527448359427, -29889.758514137095, 0.0601611328125, -0.00508544921875, 1.0301181640625, 192.0, 0.0, 0.0, 0.0, 0.0, 0.0, 0.0, 0.0, 0.0, 0.0, 1.747692255742156E9, 0.0, 2025-05-20 00:04:15.742
224.0, 21389.814780928467, 18471.41456263239, 48116.26501277268, 34695.472979005935, 44946.18415190985, 2662.6292064939985, 8577.928969613191, 8523.524823608974, 0.0, 0.0, 5079.165706535066, -28600.353431743795, 20515.638055281408, 6418.169309874691, -3928.1849775534843, -29910.38917426934, 0.0601611328125, -0.00508544921875, 1.0301181640625, 192.0, 0.0, 0.0, 0.0, 0.0, 0.0, 0.0, 0.0, 0.0, 0.0, 1.74769225575122E9, 0.0, 2025-05-20 00:04:15.751
226.0, 21390.37357453985, 18473.873254522474, 48118.880166873954, 34706.514740766856, 44947.27938738816, 2696.4920993437886, 8572.564550943918, 8526.87758527727, 0.0, 0.0, 5093.828450897748, -28587.27766123744, 20540.58260209353, 6441.325717130389, -3909.1189395331076, -29883.567080922974, 0.0601611328125, -0.00508544921875, 1.0301181640625, 192.0, 0.0, 0.0, 0.0, 0.0, 0.0, 0.0, 0.0, 0.0, 0.0, 1.747692255759206E9, 0.0, 2025-05-20 00:04:15.759
228.0, 21391.669975718258, 18475.48258012326, 48116.89086161743, 34694.35539178317, 44941.49028557423, 2676.755508989753, 8565.546103184952, 8536.086503992856, 0.0, 0.0, 5082.250247269899, -28597.51476019797, 20526.053968197582, 6422.259679110012, -3927.425018242004, -29903.370726510377, 0.0601611328125, -0.00508544921875, 1.0301181640625, 192.0, 0.0, 0.0, 0.0, 0.0, 0.0, 0.0, 0.0, 0.0, 0.0, 1.74769225576627E9, 0.0, 2025-05-20 00:04:15.766
230.0, 21396.02856588704, 18479.394135402934, 48120.24362328573, 34711.94621466949, 44951.52621883467, 2696.0450644546827, 8578.241894035566, 8525.648239332228, 0.0, 0.0, 5096.95769512149, -28580.728600112034, 20537.475709614242, 6441.459827597121, -3908.1801662659846, -29884.282336745542, 0.058, -0.008, 1.038, 192.0, 0.5, 104.0, 127.5, 96.0, 16.0, 56.0, 0.0, 0.0, 0.0, 1.747692255774266E9, 0.0, 2025-05-20 00:04:15.774
232.0, 21379.220054056652, 18461.400981116414, 48108.46425395778, 34686.26406029035, 44932.974270936764, 2684.7127300158418, 8541.74149534005, 8527.682248077661, 0.0, 0.0, 5079.4562792129855, -28598.721754398557, 20530.591372322007, 6426.79708323444, -3926.7544659083446, -29896.86636887388, 0.058, -0.008, 1.038, 192.0, 0.0, 0.0, 0.0, 0.0, 0.0, 0.0, 0.0, 0.0, 0.0, 1.74769225578335E9, 0.0, 2025-05-20 00:04:15.783
234.0, 21392.251121074096, 18474.43204813386, 48120.60125119701, 34701.77617094233, 44948.709899033296, 2678.9012764574622, 8592.70347269815, 8535.862986548304, 0.0, 0.0, 5085.7371194049265, -28593.625556662748, 20521.20363965078, 6423.980763433071, -3921.2782885167944, -29901.828456142957, 0.058, -0.008, 1.038, 192.0, 0.0, 0.0, 0.0, 0.0, 0.0, 0.0, 0.0, 0.0, 0.0, 1.747692255790397E9, 0.0, 2025-05-20 00:04:15.790
236.0, 21384.76328668157, 18466.675992807865, 48112.01818132617, 34698.44576101849, 44938.83042798405, 2679.638884024487, 8559.108800781823, 8513.01950371498, 0.0, 0.0, 5089.916895618069, -28592.262100250973, 20535.77697703564, 6436.7436095170515, -3913.879861102088, -29886.62926991335, 0.058, -0.008, 1.038, 192.0, 0.0, 0.0, 0.0, 0.0, 0.0, 0.0, 0.0, 0.0, 0.0, 1.747692255798346E9, 0.0, 2025-05-20 00:04:15.798
238.0, 21387.8478274164, 18467.055972463604, 48113.96278309379, 34685.615859701145, 44936.349384349516, 2656.884808168985, 8552.246815234044, 8527.838710288848, 0.0, 0.0, 5078.495154201407, -28602.23097827804, 20521.91889547335, 6413.050760394426, -3935.2704805458166, -29911.909092892303, 0.058, -0.008, 1.038, 192.0, 0.0, 0.0, 0.0, 0.0, 0.0, 0.0, 0.0, 0.0, 0.0, 1.747692255806408E9, 0.0, 2025-05-20 00:04:15.806
240.0, 21388.786600683525, 18467.480655608255, 48114.63333542745, 34699.317479052246, 44942.205541396805, 2674.877962455507, 8577.1243068128, 8517.758073539504, 0.0, 0.0, 5085.826526382748, -28593.6479084072, 20524.511697830167, 6429.32283035789, -3915.3774279805934, -29897.603976440907, 0.058, -0.01, 1.032, 192.0, 0.5, 104.0, 127.5, 88.0, 16.0, 32.0, 0.0, 0.0, 0.0, 1.747692255815445E9, 0.0, 2025-05-20 00:04:15.815
242.0, 21382.394001769306, 18459.948117726817, 48108.553660935606, 34684.185348056, 44932.30371860311, 2677.2695991122246, 8545.585995386362, 8518.11570145079, 0.0, 0.0, 5074.1142122881665, -28603.50502771199, 20524.86932574145, 6425.992420434049, -3925.4133612410265, -29898.63215668585, 0.058, -0.01, 1.032, 192.0, 0.0, 0.0, 0.0, 0.0, 0.0, 0.0, 0.0, 0.0, 0.0, 1.747692255822432E9, 0.0, 2025-05-20 00:04:15.822
244.0, 21394.732164708636, 18474.521455111677, 48115.41564648338, 34696.8364354177, 44939.27746287316, 2679.258904368747, 8571.670481165705, 8525.357666654309, 0.0, 0.0, 5076.304683244787, -28598.31942299836, 20516.330959359522, 6419.532766286465, -3927.894404875565, -29906.544674223027, 0.058, -0.01, 1.032, 192.0, 0.0, 0.0, 0.0, 0.0, 0.0, 0.0, 0.0, 0.0, 0.0, 1.747692255830489E9, 0.0, 2025-05-20 00:04:15.830
246.0, 21386.17144658225, 18464.32905964006, 48112.68873365984, 34697.01524937335, 44936.818770983075, 2694.05575919816, 8561.925120583192, 8522.563698597396, 0.0, 0.0, 5085.603008938195, -28591.055106050386, 20534.97231423525, 6437.883548484272, -3914.6621721580236, -29887.29982224701, 0.058, -0.01, 1.032, 192.0, 0.0, 0.0, 0.0, 0.0, 0.0, 0.0, 0.0, 0.0, 0.0, 1.747692255838484E9, 0.0, 2025-05-20 00:04:15.838
248.0, 21386.529074493537, 18462.786789272643, 48108.73247489124, 34680.13968230959, 44940.64091928493, 2676.152011889459, 8557.49947518104, 8526.788178299448, 0.0, 0.0, 5072.9966250654015, -28608.869446381268, 20514.341654103002, 6413.989533661549, -3934.845797401166, -29914.54659873803, 0.058, -0.01, 1.032, 192.0, 0.0, 0.0, 0.0, 0.0, 0.0, 0.0, 0.0, 0.0, 0.0, 1.747692255846531E9, 0.0, 2025-05-20 00:04:15.846
250.0, 21391.625272229347, 18470.36403064299, 48111.16881503687, 34698.37870578512, 44945.647710042926, 2696.1568231769593, 8568.474181708596, 8511.946619981125, 0.0, 0.0, 5080.819735624759, -28597.93944334262, 20519.77312800564, 6422.371437832289, -3924.7875123962776, -29903.43778174374, 0.064, -0.008, 1.024, 192.0, 1.0, 0.0, 127.5, 96.0, 16.0, 0.0, 0.0, 0.0, 0.0, 1.747692255854589E9, 0.0, 2025-05-20 00:04:15.854
252.0, 21380.583510468427, 18461.959774727795, 48108.21838476877, 34683.80536840026, 44939.053945428604, 2682.4328520814006, 8552.35857395632, 8517.847480517326, 0.0, 0.0, 5076.86347685617, -28601.42631547765, 20527.663293798363, 6425.299516355934, -3926.486244974881, -29901.3590695094, 0.064, -0.008, 1.024, 192.0, 0.0, 0.0, 0.0, 0.0, 0.0, 0.0, 0.0, 0.0, 0.0, 1.747692255862603E9, 0.0, 2025-05-20 00:04:15.862
254.0, 21395.71564146467, 18474.85673127851, 48118.34372500703, 34697.01524937335, 44945.066564687084, 2671.0111106647387, 8582.868705137815, 8523.033085230958, 0.0, 0.0, 5081.155011791589, -28599.347603243306, 20515.77216574814, 6414.011885406004, -3932.9011956335544, -29913.07138360398, 0.064, -0.008, 1.024, 192.0, 0.0, 0.0, 0.0, 0.0, 0.0, 0.0, 0.0, 0.0, 0.0, 1.747692255870649E9, 0.0, 2025-05-20 00:04:15.870
0.0, 21392.474638518648, 18471.07928646556, 48116.19795753932, 34704.14545585459, 44946.78764901014, 2690.1442039184817, 8550.92806231118, 8519.814434029393, 0.0, 0.0, 5092.1520700636, -28588.171731015653, 20538.25802067018, 6437.905900228728, -3914.5951169246578, -29885.66814490177, 0.064, -0.008, 1.024, 192.0, 0.0, 0.0, 0.0, 0.0, 0.0, 0.0, 0.0, 0.0, 0.0, 1.747692255877743E9, 0.0, 2025-05-20 00:04:15.877
2.0, 21392.787562941023, 18473.98501324475, 48116.779102895154, 34690.19796731448, 44931.63316626944, 2670.228799608803, 8547.865873320803, 8518.607439828807, 0.0, 0.0, 5082.250247269899, -28598.38647823173, 20523.505869329678, 6415.21887960659, -3936.030439857297, -29911.21618881419, 0.064, -0.008, 1.024, 192.0, 0.0, 0.0, 0.0, 0.0, 0.0, 0.0, 0.0, 0.0, 0.0, 1.74769225588676E9, 0.0, 2025-05-20 00:04:15.886
4.0, 21392.60874898538, 18478.52241736918, 48120.33303026355, 34709.48752277941, 44948.285215888645, 2693.8992969869732, 8577.75015565755, 8530.476216134575, 0.0, 0.0, 5097.62824745515, -28583.70138212459, 20532.96065723427, 6435.626022294286, -3913.164605279518, -29891.34548799342, 0.062, -0.006, 1.03, 192.0, 0.5, 120.0, 127.5, 104.0, 16.0, 24.0, 0.0, 0.0, 0.0, 1.747692255894742E9, 0.0, 2025-05-20 00:04:15.894
6.0, 21375.241443543608, 18458.249385148214, 48105.51382368968, 34684.408865500554, 44935.54472154912, 2692.2005644083697, 8548.558777398917, 8516.819300272382, 0.0, 0.0, 5078.651616412594, -28599.66052766568, 20527.81975600955, 6427.869966968295, -3924.1616635515293, -29899.168598552777, 0.062, -0.006, 1.03, 192.0, 0.0, 0.0, 0.0, 0.0, 0.0, 0.0, 0.0, 0.0, 0.0, 1.747692255902718E9, 0.0, 2025-05-20 00:04:15.902
8.0, 21391.71467920717, 18472.330984155058, 48111.88407085944, 34695.182406328015, 44946.85470424351, 2676.487288056289, 8583.941588871669, 8531.146768468234, 0.0, 0.0, 5070.493229686407, -28601.26985326646, 20508.843124966996, 6416.448225551632, -3928.855529887144, -29912.087906847944, 0.062, -0.006, 1.03, 192.0, 0.0, 0.0, 0.0, 0.0, 0.0, 0.0, 0.0, 0.0, 0.0, 1.747692255910796E9, 0.0, 2025-05-20 00:04:15.910
10.0, 21392.072307118455, 18474.78967604514, 48119.930698863354, 34706.6935547225, 44951.32505313457, 2697.542631333188, 8564.674385151195, 8526.721123066083, 0.0, 0.0, 5084.977160093446, -28586.09301878131, 20534.927610746337, 6441.817455508406, -3909.9012505890432, -29884.885833845838, 0.062, -0.006, 1.03, 192.0, 0.0, 0.0, 0.0, 0.0, 0.0, 0.0, 0.0, 0.0, 0.0, 1.747692255918804E9, 0.0, 2025-05-20 00:04:15.918
12.0, 21393.279301319042, 18473.80619928911, 48116.3544197505, 34692.746066182386, 44947.18998041034, 2672.843953710074, 8567.490704952563, 8539.238099961054, 0.0, 0.0, 5080.752680391393, -28596.419524719662, 20522.12006117345, 6423.690190755152, -3929.101399076152, -29901.87315963187, 0.062, -0.006, 1.03, 192.0, 0.0, 0.0, 0.0, 0.0, 0.0, 0.0, 0.0, 0.0, 0.0, 1.747692255926855E9, 0.0, 2025-05-20 00:04:15.926
14.0, 21403.404641557296, 18486.770211073188, 48125.20571055481, 34717.37768857213, 44961.13746895045, 2709.5231663612326, 8578.040728335467, 8532.532576624462, 0.0, 0.0, 5095.862459643181, -28579.722771611545, 20534.793500279608, 6439.112894429314, -3912.4269977124927, -29884.19292976772, 0.062, -0.004, 1.03, 192.0, 0.5, 120.0, 127.5, 112.0, 16.0, 24.0, 0.0, 0.0, 0.0, 1.747692255933889E9, 0.0, 2025-05-20 00:04:15.933
16.0, 21386.864350660366, 18470.811065532096, 48109.62654466946, 34690.26502254784, 44942.31730011908, 2704.9187070034395, 8539.640431361251, 8522.764864297493, 0.0, 0.0, 5089.425157240053, -28585.89185308121, 20540.873174771452, 6437.0341821949705, -3919.2666315158167, -29885.802255368504, 0.062, -0.004, 1.03, 192.0, 0.0, 0.0, 0.0, 0.0, 0.0, 0.0, 0.0, 0.0, 0.0, 1.747692255943927E9, 0.0, 2025-05-20 00:04:15.943
18.0, 21396.29678682051, 18483.171580215883, 48120.62360294147, 34701.53030175332, 44952.75556477971, 2715.7145995753526, 8584.32156852741, 8534.655992347716, 0.0, 0.0, 5077.086994300723, -28597.045373564408, 20515.615703536954, 6419.733931986562, -3929.1237508206073, -29908.15399982381, 0.062, -0.004, 1.03, 192.0, 0.0, 0.0, 0.0, 0.0, 0.0, 0.0, 0.0, 0.0, 0.0, 1.747692255950976E9, 0.0, 2025-05-20 00:04:15.950
20.0, 21381.23171105763, 18466.944213741328, 48107.59253592403, 34695.29416505029, 44945.84887574302, 2692.2452678972804, 8563.512094439518, 8516.327561894364, 0.0, 0.0, 5091.235648540932, -28584.573100158348, 20539.77793929314, 6448.8359032673725, -3904.0897970306632, -29878.828511098447, 0.062, -0.004, 1.03, 192.0, 0.0, 0.0, 0.0, 0.0, 0.0, 0.0, 0.0, 0.0, 0.0, 1.747692255957958E9, 0.0, 2025-05-20 00:04:15.957
22.0, 21386.014984371064, 18466.6089375745, 48104.418588211374, 34681.59254569919, 44938.76337275069, 2678.476593312811, 8554.660803635217, 8521.02142822998, 0.0, 0.0, 5064.972348805946, -28609.405888248195, 20508.86547671145, 6412.961353416605, -3937.1927305689733, -29914.390136526843, 0.062, -0.004, 1.03, 192.0, 0.0, 0.0, 0.0, 0.0, 0.0, 0.0, 0.0, 0.0, 0.0, 1.747692255966005E9, 0.0, 2025-05-20 00:04:15.966
24.0, 21394.17337109725, 18474.543806856134, 48106.54200393463, 34698.311650551754, 44954.431945613855, 2684.4221573379227, 8571.98340558808, 8508.571506568374, 0.0, 0.0, 5080.909142602581, -28593.938481085122, 20519.63901753891, 6426.327696600878, -3920.9206606055095, -29900.956738109202, 0.06, 0.0, 1.028, 192.0, 0.5, 112.0, 0.0, 0.0, 16.0, 16.0, 0.0, 0.0, 0.0, 1.747692255974983E9, 0.0, 2025-05-20 00:04:15.974
26.0, 21377.253100544585, 18460.28339389365, 48102.22811725475, 34684.3865137561, 44938.51750356168, 2685.6515032829648, 8540.892129050748, 8524.642410831739, 0.0, 0.0, 5070.314415730764, -28600.644004421712, 20522.321226873544, 6422.79612097694, -3930.554262465747, -29901.560235209494, 0.06, 0.0, 1.028, 192.0, 0.0, 0.0, 0.0, 0.0, 0.0, 0.0, 0.0, 0.0, 0.0, 1.747692255983005E9, 0.0, 2025-05-20 00:04:15.983
28.0, 21390.172408839753, 18469.447609120325, 48106.96668707928, 34689.88504289211, 44944.79834375362, 2665.3114158286353, 8557.208902503122, 8527.414027144197, 0.0, 0.0, 5069.509752930374, -28603.817952134366, 20507.323206344034, 6414.928306928672, -3933.370582267116, -29911.484409747653, 0.06, 0.0, 1.028, 192.0, 0.0, 0.0, 0.0, 0.0, 0.0, 0.0, 0.0, 0.0, 0.0, 1.747692255991116E9, 0.0, 2025-05-20 00:04:15.991
30.0, 21384.13743783682, 18461.736257283243, 48100.73055037625, 34688.49923473588, 44943.99368095323, 2687.193773650381, 8579.35948125833, 8517.02046597248, 0.0, 0.0, 5072.750755876393, -28600.442838721614, 20522.47768908473, 6432.899109470739, -3920.071294316208, -29892.552482194005, 0.06, 0.0, 1.028, 192.0, 0.0, 0.0, 0.0, 0.0, 0.0, 0.0, 0.0, 0.0, 0.0, 1.747692255998105E9, 0.0, 2025-05-20 00:04:15.998
32.0, 21381.90226339129, 18461.71390553879, 48099.00946605319, 34675.535222951796, 44939.79155299563, 2688.445471339878, 8565.41199271822, 8531.750265568528, 0.0, 0.0, 5056.9704242909465, -28615.03852785093, 20503.21048536426, 6407.485176025054, -3943.6300329721016, -29918.793430184538, 0.06, 0.0, 1.028, 192.0, 0.0, 0.0, 0.0, 0.0, 0.0, 0.0, 0.0, 0.0, 0.0, 1.747692256007079E9, 0.0, 2025-05-20 00:04:16.007
34.0, 21390.91001640678, 18474.4096963894, 48108.46425395778, 34697.283470306815, 44956.264788659195, 2685.316227116135, 8575.514981212018, 8518.093349706334, 0.0, 0.0, 5077.131697789633, -28594.787847374424, 20517.739119260208, 6426.5288623009765, -3920.786550138778, -29898.475694474662, 0.062, 0.006, 1.026, 192.0, 0.5, 120.0, 0.0, 24.0, 16.0, 8.0, 0.0, 0.0, 0.0, 1.747692256014101E9, 0.0, 2025-05-20 00:04:16.014
36.0, 21380.248234301598, 18461.825664261065, 48100.70819863179, 34677.61393518614, 44945.066564687084, 2685.249171882769, 8531.772617312983, 8519.277992162466, 0.0, 0.0, 5071.029671553334, -28605.60609169079, 20522.187116406814, 6421.8349959653615, -3931.448332243959, -29904.175389310767, 0.062, 0.006, 1.026, 192.0, 0.0, 0.0, 0.0, 0.0, 0.0, 0.0, 0.0, 0.0, 0.0, 1.747692256022245E9, 0.0, 2025-05-20 00:04:16.022
38.0, 21393.212246085674, 18474.074420222572, 48111.45938771479, 34693.75189468287, 44954.67781480287, 2676.5543432896548, 8587.339054028876, 8536.377076670775, 0.0, 0.0, 5070.8285058532365, -28603.929710856642, 20508.932531944818, 6413.274277838979, -3933.9517276229535, -29912.132610336856, 0.062, 0.006, 1.026, 192.0, 0.0, 0.0, 0.0, 0.0, 0.0, 0.0, 0.0, 0.0, 0.0, 1.747692256031224E9, 0.0, 2025-05-20 00:04:16.031
40.0, 21388.540731494515, 18471.168693443382, 48105.402064967406, 34697.46228426245, 44949.02282345567, 2694.39103536499, 8562.84154210586, 8526.251736432521, 0.0, 0.0, 5078.495154201407, -28589.915167083167, 20530.72548278874, 6435.648374038741, -3918.0149338263195, -29887.210415269186, 0.062, 0.006, 1.026, 192.0, 0.0, 0.0, 0.0, 0.0, 0.0, 0.0, 0.0, 0.0, 0.0, 1.747692256039216E9, 0.0, 2025-05-20 00:04:16.039
42.0, 21389.412449528274, 18472.107466710506, 48103.502166688704, 34681.77135965483, 44939.23275938425, 2671.3910903204787, 8563.623853161795, 8541.629736617773, 0.0, 0.0, 5062.267787726854, -28607.684803925134, 20512.553514546576, 6410.45795803761, -3942.423038771515, -29915.35126153842, 0.062, 0.006, 1.026, 192.0, 0.0, 0.0, 0.0, 0.0, 0.0, 0.0, 0.0, 0.0, 0.0, 1.747692256046251E9, 0.0, 2025-05-20 00:04:16.046
44.0, 21394.016908886064, 18475.013193489696, 48109.67124815837, 34698.892795907595, 44952.66615780189, 2702.3259046466237, 8567.803629374937, 8518.965067740091, 0.0, 0.0, 5079.791555379815, -28591.435085706125, 20523.05883444057, 6430.529824558476, -3921.613564683624, -29894.385325239342, 0.058, 0.004, 1.028, 192.0, 0.5, 104.0, 0.0, 16.0, 16.0, 16.0, 0.0, 0.0, 0.0, 1.747692256054211E9, 0.0, 2025-05-20 00:04:16.054
46.0, 21384.47271400365, 18462.295050894627, 48104.195070766815, 34685.124121323126, 44938.293986117125, 2698.481404600311, 8550.302213466432, 8523.055436975412, 0.0, 0.0, 5073.130735532133, -28603.057992822887, 20524.757567019173, 6430.283955369468, -3926.4638932304256, -29896.39698224032, 0.058, 0.004, 1.028, 192.0, 0.0, 0.0, 0.0, 0.0, 0.0, 0.0, 0.0, 0.0, 0.0, 1.747692256063286E9, 0.0, 2025-05-20 00:04:16.063
48.0, 21398.397850799305, 18481.137571470448, 48112.57697493756, 34697.79756042929, 44952.66615780189, 2679.1694973909257, 8582.332263270888, 8537.427608660175, 0.0, 0.0, 5073.57777042124, -28596.844207864313, 20514.43106108082, 6424.360743088811, -3924.8545676296435, -29902.700174176716, 0.058, 0.004, 1.028, 192.0, 0.0, 0.0, 0.0, 0.0, 0.0, 0.0, 0.0, 0.0, 0.0, 1.74769225607031E9, 0.0, 2025-05-20 00:04:16.070
50.0, 21389.90418790629, 18470.65460332091, 48103.65862889989, 34696.523510995336, 44948.19580891083, 2691.328846374613, 8555.845446091347, 8525.581184098863, 0.0, 0.0, 5080.775032135848, -28591.099809539297, 20532.670084556354, 6444.052629953937, -3911.577631423191, -29883.00828731159, 0.058, 0.004, 1.028, 192.0, 0.0, 0.0, 0.0, 0.0, 0.0, 0.0, 0.0, 0.0, 0.0, 1.747692256078326E9, 0.0, 2025-05-20 00:04:16.078
52.0, 21390.172408839753, 18471.839245777042, 48105.603230667504, 34690.779112670316, 44949.492210089236, 2700.738930790297, 8557.298309480942, 8537.092332493345, 0.0, 0.0, 5060.949034803991, -28606.52251321346, 20511.525334301634, 6417.118777885292, -3937.0809718466967, -29908.9586626242, 0.058, 0.004, 1.028, 192.0, 0.0, 0.0, 0.0, 0.0, 0.0, 0.0, 0.0, 0.0, 0.0, 1.747692256086367E9, 0.0, 2025-05-20 00:04:16.086
54.0, 21401.61650200087, 18482.746897071233, 48120.064809330084, 34718.33881358371, 44962.09859396203, 2719.2014717103807, 8590.445946508164, 8542.50145465153, 0.0, 0.0, 5086.362968249675, -28578.292259966405, 20532.290104900614, 6446.0195834660035, -3908.269573243806, -29878.895566331812, 0.06, -0.004, 1.03, 192.0, 0.5, 112.0, 127.5, 112.0, 16.0, 24.0, 0.0, 0.0, 0.0, 1.747692256094331E9, 0.0, 2025-05-20 00:04:16.094
56.0, 21384.47271400365, 18461.915071238884, 48103.47981494425, 34688.76745566934, 44936.57290179407, 2681.874058470018, 8540.914480795203, 8520.462634618598, 0.0, 0.0, 5078.204581523488, -28590.13868452772, 20534.324113646046, 6439.761095018518, -3920.2277565273953, -29886.070476301968, 0.06, -0.004, 1.03, 192.0, 0.0, 0.0, 0.0, 0.0, 0.0, 0.0, 0.0, 0.0, 0.0, 1.747692256102429E9, 0.0, 2025-05-20 00:04:16.102
58.0, 21397.928464165743, 18477.382478401956, 48114.87920461645, 34702.96081339846, 44957.04709971513, 2688.6466370399758, 8586.869667395315, 8543.820207574392, 0.0, 0.0, 5071.141430275611, -28597.55946368688, 20513.44758432479, 6419.7786354754735, -3933.6611549450345, -29907.326985278964, 0.06, -0.004, 1.03, 192.0, 0.0, 0.0, 0.0, 0.0, 0.0, 0.0, 0.0, 0.0, 0.0, 1.747692256110447E9, 0.0, 2025-05-20 00:04:16.110
60.0, 21382.88574014732, 18459.434027604348, 48099.14357651992, 34691.472016748434, 44942.85374198601, 2708.2714686717354, 8562.975652572592, 8519.613268329294, 0.0, 0.0, 5080.283293757831, -28590.429257205637, 20532.15599443388, 6443.247967153546, -3912.7846256237776, -29882.67301114476, 0.06, -0.004, 1.03, 192.0, 0.0, 0.0, 0.0, 0.0, 0.0, 0.0, 0.0, 0.0, 0.0, 1.7476922561185E9, 0.0, 2025-05-20 00:04:16.118
62.0, 21377.878949389335, 18454.74016126873, 48093.913268317374, 34673.27769676181, 44940.12682916246, 2664.4396977948786, 8551.889187322759, 8532.085541735356, 0.0, 0.0, 5050.197845720988, -28622.79458317692, 20498.24839809518, 6408.222783592079, -3948.100381863163, -29918.659319717804, 0.06, -0.004, 1.03, 192.0, 0.0, 0.0, 0.0, 0.0, 0.0, 0.0, 0.0, 0.0, 0.0, 1.747692256125502E9, 0.0, 2025-05-20 00:04:16.125
64.0, 21387.914882649766, 18468.575891086566, 48104.17271902236, 34699.27277556333, 44954.90133224742, 2681.091747414082, 8580.454716736642, 8531.88437603526, 0.0, 0.0, 5066.961654062468, -28603.750896901, 20507.72553774423, 6428.428760579677, -3923.915794362521, -29897.983956096647, 0.058, 0.0, 1.03, 192.0, 0.5, 104.0, 0.0, 0.0, 16.0, 24.0, 0.0, 0.0, 0.0, 1.747692256134479E9, 0.0, 2025-05-20 00:04:16.134
66.0, 21382.371650024852, 18460.372800871468, 48102.2057655103, 34686.62168820163, 44942.630224541455, 2684.8244887381184, 8546.055382019924, 8528.621021344785, 0.0, 0.0, 5067.922779074047, -28603.437972478627, 20519.527258816634, 6432.832054237373, -3925.6368786855796, -29890.540825193028, 0.058, 0.0, 1.03, 192.0, 0.0, 0.0, 0.0, 0.0, 0.0, 0.0, 0.0, 0.0, 0.0, 1.747692256144555E9, 0.0, 2025-05-20 00:04:16.144
68.0, 21397.48142927664, 18475.124952211972, 48115.594460439024, 34704.25721457687, 44952.88967524644, 2687.260828883747, 8592.122327342311, 8540.914480795203, 0.0, 0.0, 5069.174476763544, -28599.19114103212, 20508.709014500262, 6426.84178672335, -3925.614526941124, -29900.085020075447, 0.058, 0.0, 1.03, 192.0, 0.0, 0.0, 0.0, 0.0, 0.0, 0.0, 0.0, 0.0, 0.0, 1.74769225615054E9, 0.0, 2025-05-20 00:04:16.150
70.0, 21389.814780928467, 18469.358202142503, 48110.632373169945, 34704.65954597706, 44955.23660841425, 2710.4842913728107, 8568.78710613097, 8526.564660854896, 0.0, 0.0, 5083.05491007029, -28586.741219370513, 20532.312456645068, 6451.898092257749, -3906.302619731739, -29874.536976163028, 0.058, 0.0, 1.03, 192.0, 0.0, 0.0, 0.0, 0.0, 0.0, 0.0, 0.0, 0.0, 0.0, 1.74769225615762E9, 0.0, 2025-05-20 00:04:16.157
72.0, 21387.400792527296, 18462.49621659472, 48103.41275971088, 34683.82772014472, 44947.860532743995, 2670.0499856531605, 8562.707431639128, 8536.377076670775, 0.0, 0.0, 5062.312491215765, -28608.511818469982, 20509.35721508947, 6426.305344856423, -3930.822483399211, -29902.007270098602, 0.058, 0.0, 1.03, 192.0, 0.0, 0.0, 0.0, 0.0, 0.0, 0.0, 0.0, 0.0, 0.0, 1.747692256166686E9, 0.0, 2025-05-20 00:04:16.166
74.0, 21398.263740332575, 18474.923786511874, 48094.561468906584, 34689.795635914285, 44958.32114914908, 2676.9790264343055, 8573.883303866782, 8514.651181060217, 0.0, 0.0, 5071.074375042245, -28601.51572245547, 20510.094822656494, 6432.027391436982, -3921.8817856170876, -29895.994650840123, 0.064, -0.002, 1.032, 192.0, 1.0, 0.0, 127.5, 120.0, 16.0, 32.0, 0.0, 0.0, 0.0, 1.747692256174712E9, 0.0, 2025-05-20 00:04:16.174
76.0, 21380.628213957338, 18459.70224853781, 48096.170794507365, 34686.018191101335, 44937.7575442502, 2683.0587009261494, 8544.73662909706, 8530.006829501013, 0.0, 0.0, 5058.8479708251925, -28611.50695222699, 20511.21240987926, 6422.08086515437, -3938.6679457030236, -29902.67782243226, 0.064, -0.002, 1.032, 192.0, 0.0, 0.0, 0.0, 0.0, 0.0, 0.0, 0.0, 0.0, 0.0, 1.74769225618172E9, 0.0, 2025-05-20 00:04:16.181
78.0, 21395.447420531204, 18482.121048226483, 48110.14063479193, 34706.67120297804, 44949.29104438914, 2691.4853085858, 8591.295312797465, 8546.54712039794, 0.0, 0.0, 5070.202657008488, -28596.75480088649, 20512.084127913015, 6426.573565789887, -3927.87205313111, -29899.30270901951, 0.064, -0.002, 1.032, 192.0, 0.0, 0.0, 0.0, 0.0, 0.0, 0.0, 0.0, 0.0, 0.0, 1.747692256189722E9, 0.0, 2025-05-20 00:04:16.189
80.0, 21393.86044667488, 18480.13174296996, 48107.52548069066, 34713.846112948195, 44946.07239318758, 2712.920631518439, 8565.993138074058, 8532.800797557926, 0.0, 0.0, 5078.942189090513, -28578.51577741096, 20536.67104681385, 6453.127438202791, -3907.5319656767806, -29869.708999360682, 0.064, -0.002, 1.032, 192.0, 0.0, 0.0, 0.0, 0.0, 0.0, 0.0, 0.0, 0.0, 0.0, 1.747692256198782E9, 0.0, 2025-05-20 00:04:16.198
82.0, 21401.23652234513, 18488.290129696146, 48112.26405051519, 34702.78199944282, 44940.17153265137, 2701.767111035241, 8559.242911248555, 8543.484931407564, 0.0, 0.0, 5068.101593029689, -28591.770361872957, 20521.06952918405, 6431.133321658769, -3927.916756620021, -29893.223034527666, 0.064, -0.002, 1.032, 192.0, 0.0, 0.0, 0.0, 0.0, 0.0, 0.0, 0.0, 0.0, 0.0, 1.747692256205764E9, 0.0, 2025-05-20 00:04:16.205
84.0, 21412.032414917045, 18504.00340604823, 48116.7567511507, 34720.88691245162, 44955.638939814446, 2719.2685269437466, 8587.60727496234, 8543.417876174197, 0.0, 0.0, 5086.38531999413, -28571.251460462983, 20534.77114853515, 6448.612385822819, -3907.129634276585, -29874.268755229565, 0.068, -0.004, 1.032, 192.0, 1.0, 16.0, 127.5, 112.0, 16.0, 32.0, 0.0, 0.0, 0.0, 1.747692256213772E9, 0.0, 2025-05-20 00:04:16.213
86.0, 21394.218074586162, 18485.362051172502, 48102.56339342158, 34693.28250804931, 44935.2541488712, 2696.737968532797, 8546.904748309225, 8529.246870189532, 0.0, 0.0, 5076.4611454559745, -28584.595451902802, 20536.26871541366, 6436.765961261507, -3921.5241577058027, -29886.472807702165, 0.068, -0.004, 1.032, 192.0, 0.0, 0.0, 0.0, 0.0, 0.0, 0.0, 0.0, 0.0, 0.0, 1.747692256222828E9, 0.0, 2025-05-20 00:04:16.222
88.0, 21410.512496294083, 18504.85277233753, 48119.12603606296, 34711.20860710247, 44952.12971593496, 2697.944962733384, 8588.74721392956, 8544.669573863695, 0.0, 0.0, 5072.303720987287, -28589.13285602723, 20519.81783149455, 6419.443359308643, -3930.464855487926, -29906.49997073412, 0.068, -0.004, 1.032, 192.0, 0.0, 0.0, 0.0, 0.0, 0.0, 0.0, 0.0, 0.0, 0.0, 1.747692256230817E9, 0.0, 2025-05-20 00:04:16.230
90.0, 21409.014929415578, 18500.695347868845, 48119.595422696526, 34719.25523510638, 44952.80026826862, 2715.513433875255, 8568.36242298632, 8523.34600965333, 0.0, 0.0, 5095.124852076156, -28565.529413882425, 20553.5019103887, 6452.65805156923, -3902.8604510856217, -29872.81589183997, 0.068, -0.004, 1.032, 192.0, 0.0, 0.0, 0.0, 0.0, 0.0, 0.0, 0.0, 0.0, 0.0, 1.747692256237894E9, 0.0, 2025-05-20 00:04:16.237
92.0, 21404.924560180254, 18493.967472787797, 48113.58280343805, 34700.368011041646, 44948.352271122014, 2693.966352220339, 8563.98148107308, 8549.341088454854, 0.0, 0.0, 5079.299817001798, -28583.7460856135, 20533.497099101198, 6426.908841956716, -3925.7486374078558, -29898.45334273021, 0.068, -0.004, 1.032, 192.0, 0.0, 0.0, 0.0, 0.0, 0.0, 0.0, 0.0, 0.0, 0.0, 1.7476922562459E9, 0.0, 2025-05-20 00:04:16.245
94.0, 21415.0051969296, 18502.617597892, 48115.750922650215, 34717.19887461649, 44956.46595435929, 2708.5173378607437, 8595.162164588233, 8542.747323840538, 0.0, 0.0, 5088.508735717384, -28573.12900699723, 20536.40282588039, 6441.124551430292, -3908.4036837105377, -29882.76241812258, 0.064, -0.003, 1.0270000000000001, 192.0, 0.5, 112.0, 127.5, 120.0, 15.5, 120.0, 0.0, 0.0, 0.0, 1.747692256254936E9, 0.0, 2025-05-20 00:04:16.254
96.0, 21398.08492637693, 18486.52434188418, 48106.296134745615, 34700.569176741745, 44944.03838444214, 2707.2656401712466, 8552.537387911963, 8526.184681199156, 0.0, 0.0, 5079.545686190807, -28580.52743441194, 20539.934401504328, 6437.078885683881, -3919.9818873383865, -29884.550557679006, 0.064, -0.003, 1.0270000000000001, 192.0, 0.0, 0.0, 0.0, 0.0, 0.0, 0.0, 0.0, 0.0, 0.0, 1.747692256261973E9, 0.0, 2025-05-20 00:04:16.261
98.0, 21417.48624056414, 18509.3678247175, 48121.22710004176, 34718.182351372525, 44958.23174217126, 2709.8807942725175, 8595.855068666348, 8559.622890904295, 0.0, 0.0, 5076.572904178251, -28581.354448956783, 20526.16572691986, 6426.7076762566185, -3922.3735239951047, -29896.307575262497, 0.064, -0.003, 1.0270000000000001, 192.0, 0.0, 0.0, 0.0, 0.0, 0.0, 0.0, 0.0, 0.0, 0.0, 1.747692256269933E9, 0.0, 2025-05-20 00:04:16.269
100.0, 21419.319083609473, 18511.80416486313, 48122.165873308884, 34727.23480787692, 44956.264788659195, 2728.7456665927966, 8568.049498563945, 8537.40525691572, 0.0, 0.0, 5096.845936399214, -28557.952172512076, 20557.301706946102, 6456.636662082275, -3897.898363816543, -29864.322228946952, 0.064, -0.003, 1.0270000000000001, 192.0, 0.0, 0.0, 0.0, 0.0, 0.0, 0.0, 0.0, 0.0, 0.0, 1.74769225627801E9, 0.0, 2025-05-20 00:04:16.278
102.0, 21426.583400557447, 18520.29782775615, 48128.69258268984, 34721.445706063, 44947.41349785489, 2718.9332507769172, 8547.195320987144, 8541.45092266213, 0.0, 0.0, 5085.871229871658, -28568.390437172704, 20546.461110885277, 6429.903975713727, -3922.8429106286662, -29891.0549153155, 0.064, -0.003, 1.0270000000000001, 192.0, 0.0, 0.0, 0.0, 0.0, 0.0, 0.0, 0.0, 0.0, 0.0, 1.747692256287081E9, 0.0, 2025-05-20 00:04:16.287
104.0, 21453.047865992532, 18546.6281827245, 48148.51858002169, 34755.375654146155, 44978.705940092324, 2747.5658354241655, 8573.637434677772, 8546.88239656477, 0.0, 0.0, 5118.281259331854, -28535.667483290137, 20574.154922265403, 6456.860179526828, -3897.1607562495183, -29864.590449880416, 0.063, -0.0035, 1.0275, 192.0, 0.5, 120.0, 127.5, 112.0, 16.0, 16.0, 0.0, 0.0, 0.0, 1.747692256294068E9, 0.0, 2025-05-20 00:04:16.294
106.0, 21436.932258240256, 18522.935333601872, 48129.05021060112, 34726.02781367634, 44957.98587298225, 2737.4851986748217, 8547.93292855417, 8527.861062033304, 0.0, 0.0, 5115.531994763851, -28541.545992081883, 20583.028564814158, 6460.995252251059, -3899.775910350789, -29861.260039956578, 0.063, -0.0035, 1.0275, 192.0, 0.0, 0.0, 0.0, 0.0, 0.0, 0.0, 0.0, 0.0, 0.0, 1.747692256302108E9, 0.0, 2025-05-20 00:04:16.302
108.0, 21438.42982511876, 18530.020836594205, 48127.17266406687, 34728.799429988794, 44949.335747878045, 2708.450282627378, 8576.029071334491, 8533.650163847227, 0.0, 0.0, 5097.538840477328, -28558.30980042336, 20552.943116777315, 6434.6872490271635, -3920.004239082842, -29888.752685636606, 0.063, -0.0035, 1.0275, 192.0, 0.0, 0.0, 0.0, 0.0, 0.0, 0.0, 0.0, 0.0, 0.0, 1.74769225631014E9, 0.0, 2025-05-20 00:04:16.310
110.0, 21430.58436281495, 18518.532039944177, 48123.39521925393, 34732.30865386828, 44955.23660841425, 2722.6212886120425, 8546.904748309225, 8523.860099775804, 0.0, 0.0, 5107.6865324600385, -28549.726730552524, 20570.533939663645, 6455.7649440485175, -3908.3142767327163, -29866.62445862585, 0.063, -0.0035, 1.0275, 192.0, 0.0, 0.0, 0.0, 0.0, 0.0, 0.0, 0.0, 0.0, 0.0, 1.747692256318202E9, 0.0, 2025-05-20 00:04:16.318
112.0, 21422.448327833215, 18507.311464227612, 48120.847120386024, 34719.05406940628, 44946.966462965785, 2705.2316314258137, 8570.642300920761, 8558.92998682618, 0.0, 0.0, 5087.1005758167, -28571.072646507342, 20550.05974174258, 6439.515225829509, -3919.9371838494762, -29882.471845444663, 0.063, -0.0035, 1.0275, 192.0, 0.0, 0.0, 0.0, 0.0, 0.0, 0.0, 0.0, 0.0, 0.0, 1.747692256326271E9, 0.0, 2025-05-20 00:04:16.326
114.0, 21428.416243602784, 18514.173449775393, 48123.55168146511, 34730.78873524532, 44955.057794458604, 2714.552308863677, 8600.705397213149, 8535.840634803848, 0.0, 0.0, 5099.505793989396, -28556.588716100305, 20551.758474321185, 6456.65901382673, -3902.525174918792, -29867.138548748324, 0.0615, -0.00375, 1.0317500000000002, 192.0, 0.5, 112.0, 127.5, 112.0, 16.0, 48.0, 0.0, 0.0, 0.0, 1.747692256334228E9, 0.0, 2025-05-20 00:04:16.334
116.0, 21398.08492637693, 18484.825609305575, 48096.439015440825, 34694.44479876099, 44936.818770983075, 2700.135433690004, 8548.424666932186, 8537.02527725998, 0.0, 0.0, 5076.90818034508, -28580.95211755659, 20541.78959629412, 6438.934080473671, -3920.048942571753, -29884.282336745542, 0.0615, -0.00375, 1.0317500000000002, 192.0, 0.0, 0.0, 0.0, 0.0, 0.0, 0.0, 0.0, 0.0, 0.0, 1.747692256343218E9, 0.0, 2025-05-20 00:04:16.343
118.0, 21417.44153707523, 18506.260932238216, 48108.888937102434, 34710.985089657916, 44951.81679151259, 2696.223878410325, 8586.422632506208, 8550.235158233067, 0.0, 0.0, 5064.301796472287, -28590.22809150554, 20514.788688992106, 6416.470577296088, -3934.3093555342384, -29904.756534666605, 0.0615, -0.00375, 1.0317500000000002, 192.0, 0.0, 0.0, 0.0, 0.0, 0.0, 0.0, 0.0, 0.0, 0.0, 1.747692256351314E9, 0.0, 2025-05-20 00:04:16.351
120.0, 21407.874990448356, 18493.52043789869, 48101.356399221, 34704.748952954884, 44952.219122912786, 2714.0158669967495, 8554.50434142403, 8536.31002143741, 0.0, 0.0, 5084.552476948796, -28571.18440522962, 20541.34256140501, 6442.4209526087, -3914.39395122456, -29875.72161861916, 0.0615, -0.00375, 1.0317500000000002, 192.0, 0.0, 0.0, 0.0, 0.0, 0.0, 0.0, 0.0, 0.0, 0.0, 1.747692256358356E9, 0.0, 2025-05-20 00:04:16.358
122.0, 21398.621368243857, 18485.451458150324, 48092.01337003868, 34683.5371474668, 44932.7060500033, 2696.3356371326017, 8555.331355968876, 8542.79202732945, 0.0, 0.0, 5049.706107342971, -28608.355356258795, 20507.613779021955, 6398.5891817318425, -3949.5755969972133, -29921.00625288561, 0.0615, -0.00375, 1.0317500000000002, 192.0, 0.0, 0.0, 0.0, 0.0, 0.0, 0.0, 0.0, 0.0, 0.0, 1.747692256366448E9, 0.0, 2025-05-20 00:04:16.366
124.0, 21435.077063450466, 18519.917848100406, 48122.322335520075, 34732.196895146, 44963.462050373804, 2727.6504311144868, 8615.345789831375, 8563.355632228331, 0.0, 0.0, 5084.53012520434, -28568.971582528542, 20535.26288691317, 6438.822321751395, -3909.5436226777583, -29880.884871588336, 0.05875, -0.004875, 1.031875, 192.0, 0.5, 96.0, 127.5, 104.0, 16.0, 32.0, 0.0, 0.0, 0.0, 1.747692256374402E9, 0.0, 2025-05-20 00:04:16.374
126.0, 21413.015891673076, 18498.638987378956, 48111.615849925984, 34707.72173496744, 44934.18126513735, 2722.286012445213, 8556.851274591836, 8551.442152433652, 0.0, 0.0, 5086.072395571756, -28569.17274822864, 20548.53982311962, 6445.572548576898, -3908.627201155091, -29873.91112731828, 0.05875, -0.004875, 1.031875, 192.0, 0.0, 0.0, 0.0, 0.0, 0.0, 0.0, 0.0, 0.0, 0.0, 1.747692256383463E9, 0.0, 2025-05-20 00:04:16.383
128.0, 21438.742749541136, 18523.494127213256, 48127.75380942271, 34729.60409278919, 44950.65450080091, 2723.7612275792635, 8603.856993181347, 8569.88234160928, 0.0, 0.0, 5084.731290904438, -28571.05029476289, 20534.77114853515, 6433.390847848756, -3913.835157613177, -29888.931499592247, 0.05875, -0.004875, 1.031875, 192.0, 0.0, 0.0, 0.0, 0.0, 0.0, 0.0, 0.0, 0.0, 0.0, 1.747692256390438E9, 0.0, 2025-05-20 00:04:16.390
130.0, 21420.928409210257, 18511.535943929666, 48116.53323370615, 34725.69253750951, 44946.49707633223, 2731.2490619717914, 8578.532466713485, 8551.330393711376, 0.0, 0.0, 5101.428044012552, -28552.36423639825, 20562.5543668931, 6460.391755150767, -3897.1607562495183, -29859.360141677877, 0.05875, -0.004875, 1.031875, 192.0, 0.0, 0.0, 0.0, 0.0, 0.0, 0.0, 0.0, 0.0, 0.0, 1.747692256398465E9, 0.0, 2025-05-20 00:04:16.398
132.0, 21416.167487641276, 18500.695347868845, 48108.01721906868, 34705.6430227331, 44930.85085521351, 2709.4337593834116, 8563.042707805957, 8553.856140834825, 0.0, 0.0, 5067.341633718209, -28582.919071068656, 20529.563192077065, 6422.684362254663, -3929.7048961764453, -29896.709906662694, 0.05875, -0.004875, 1.031875, 192.0, 0.0, 0.0, 0.0, 0.0, 0.0, 0.0, 0.0, 0.0, 0.0, 1.747692256405513E9, 0.0, 2025-05-20 00:04:16.405
134.0, 21433.9594762277, 18520.744862645253, 48126.636222199944, 34739.21534290497, 44963.43969862934, 2727.672782858942, 8601.17478384671, 8548.35761169882, 0.0, 0.0, 5092.375587508152, -28555.42642538863, 20547.17636670785, 6448.455923611632, -3904.402721453038, -29872.681781373238, 0.055375, -0.0024375, 1.0329375, 192.0, 0.5, 80.0, 0.0, 0.0, 16.0, 40.0, 0.0, 0.0, 0.0, 1.747692256414491E9, 0.0, 2025-05-20 00:04:16.414
136.0, 21396.27443507605, 18481.27168193718, 48096.39431195192, 34696.299993550776, 44936.41643958288, 2703.219974424836, 8551.576262900384, 8538.142864482745, 0.0, 0.0, 5078.539857690318, -28571.810254074368, 20545.72350331825, 6444.3208508874, -3911.48822444537, -29876.369819208365, 0.055375, -0.0024375, 1.0329375, 192.0, 0.0, 0.0, 0.0, 0.0, 0.0, 0.0, 0.0, 0.0, 0.0, 1.747692256422503E9, 0.0, 2025-05-20 00:04:16.422
138.0, 21425.555220312504, 18511.04420555165, 48115.34859125002, 34718.0929443947, 44957.315320648595, 2708.293820416191, 8596.771490189016, 8552.31387046741, 0.0, 0.0, 5064.726479616938, -28589.915167083167, 20515.43688958131, 6420.583298275865, -3925.3686577521157, -29901.24731078712, 0.055375, -0.0024375, 1.0329375, 192.0, 0.0, 0.0, 0.0, 0.0, 0.0, 0.0, 0.0, 0.0, 0.0, 1.747692256429528E9, 0.0, 2025-05-20 00:04:16.429
140.0, 21404.29871133551, 18486.770211073188, 48105.8043963676, 34715.70130773799, 44950.18511416735, 2715.0440472416935, 8573.50332421104, 8532.376114413275, 0.0, 0.0, 5091.369759007664, -28564.389474915206, 20547.73516031923, 6452.3227754024, -3903.195727252451, -29867.42912142624, 0.055375, -0.0024375, 1.0329375, 192.0, 0.0, 0.0, 0.0, 0.0, 0.0, 0.0, 0.0, 0.0, 0.0, 1.747692256437568E9, 0.0, 2025-05-20 00:04:16.437
142.0, 21391.848789673903, 18473.761495800198, 48100.149405020406, 34696.948194139986, 44940.37269835147, 2700.4260063679226, 8558.058268792423, 8542.590861629351, 0.0, 0.0, 5063.117154016156, -28596.66539390867, 20519.706072772275, 6413.877774939272, -3937.34919278016, -29907.63990970134, 0.055375, -0.0024375, 1.0329375, 192.0, 0.0, 0.0, 0.0, 0.0, 0.0, 0.0, 0.0, 0.0, 0.0, 1.747692256446528E9, 0.0, 2025-05-20 00:04:16.446
144.0, 21394.687461219724, 18477.874216779976, 48110.8558906145, 34722.98797643041, 44958.87994276046, 2719.357933921568, 8592.278789553498, 8535.97474527058, 0.0, 0.0, 5085.759471149382, -28571.497329651993, 20535.151128190893, 6440.722220030096, -3910.6612099005238, -29880.1025605324, 0.0546875, -0.00121875, 1.0314687500000002, 192.0, 0.5, 88.0, 0.0, 0.0, 16.0, 24.0, 0.0, 0.0, 0.0, 1.747692256456601E9, 0.0, 2025-05-20 00:04:16.456
146.0, 21349.045199041986, 18432.142547624415, 48096.14844276291, 34695.1377028391, 44932.39312558092, 2702.9517534913725, 8541.339163939854, 8526.87758527727, 0.0, 0.0, 5068.548627918795, -28586.60710890378, 20532.15599443388, 6432.429722837177, -3922.4405792284706, -29887.188063524733, 0.0546875, -0.00121875, 1.0314687500000002, 192.0, 0.0, 0.0, 0.0, 0.0, 0.0, 0.0, 0.0, 0.0, 0.0, 1.747692256462655E9, 0.0, 2025-05-20 00:04:16.462
148.0, 21348.776978108523, 18439.116291894472, 48109.89476560292, 34715.83541820472, 44949.00047171122, 2708.2491169272803, 8590.55770523044, 8544.088428507857, 0.0, 0.0, 5061.664290626561, -28590.831588605834, 20514.341654103002, 6420.739760487051, -3927.1567973085403, -29901.381421253853, 0.0546875, -0.00121875, 1.0314687500000002, 192.0, 0.0, 0.0, 0.0, 0.0, 0.0, 0.0, 0.0, 0.0, 0.0, 1.747692256469726E9, 0.0, 2025-05-20 00:04:16.469
150.0, 21296.384489105283, 18385.226236012728, 48099.5012044312, 34715.07545889324, 44939.27746287316, 2717.390980409501, 8576.610216690327, 8529.917422523193, 0.0, 0.0, 5076.058814055778, -28573.33017269733, 20535.240535168712, 6451.741630046562, -3906.01204705382, -29868.502005160095, 0.0546875, -0.00121875, 1.0314687500000002, 192.0, 0.0, 0.0, 0.0, 0.0, 0.0, 0.0, 0.0, 0.0, 0.0, 1.747692256478705E9, 0.0, 2025-05-20 00:04:16.478
152.0, 21262.365134044307, 18356.347782176468, 48094.337951462025, 34694.95888888346, 44922.759523720684, 2687.4843463283, 8559.55583567093, 8540.601556372829, 0.0, 0.0, 5040.318374671742, -28607.684803925134, 20500.036537651606, 6416.314115084901, -3937.4609515024367, -29905.02475560007, 0.0546875, -0.00121875, 1.0314687500000002, 192.0, 0.0, 0.0, 0.0, 0.0, 0.0, 0.0, 0.0, 0.0, 0.0, 1.747692256485665E9, 0.0, 2025-05-20 00:04:16.485
154.0, 21254.474968251583, 18346.177738449303, 48102.09400678802, 34715.947176926995, 44942.697279774824, 2694.7933667651855, 8590.513001741529, 8525.894108521237, 0.0, 0.0, 5064.592369150206, -28585.444818192103, 20512.933494202316, 6436.9224234726935, -3916.070332058708, -29884.68466814574, 0.05534375, -6.09375E-4, 1.029734375, 192.0, 0.5, 96.0, 0.0, 0.0, 16.0, 16.0, 0.0, 0.0, 0.0, 1.747692256493733E9, 0.0, 2025-05-20 00:04:16.493
156.0, 21211.85019157531, 18305.586970518467, 48089.01823628166, 34693.4389702605, 44918.89267192992, 2697.520279588733, 8540.288631950454, 8526.341143410342, 0.0, 0.0, 5050.242549209899, -28598.788809631922, 20511.63709302391, 6432.854405981828, -3925.234547285384, -29887.67980190275, 0.05534375, -6.09375E-4, 1.029734375, 192.0, 0.0, 0.0, 0.0, 0.0, 0.0, 0.0, 0.0, 0.0, 0.0, 1.747692256501784E9, 0.0, 2025-05-20 00:04:16.501
158.0, 21221.215572502086, 18317.478098568692, 48099.00946605319, 34708.07936287873, 44939.836256484545, 2695.419215609934, 8583.963940616124, 8536.69000109315, 0.0, 0.0, 5040.877168283126, -28604.08617306783, 20492.68281372581, 6418.169309874691, -3932.141236322074, -29903.884816632846, 0.05534375, -6.09375E-4, 1.029734375, 192.0, 0.0, 0.0, 0.0, 0.0, 0.0, 0.0, 0.0, 0.0, 0.0, 1.747692256510809E9, 0.0, 2025-05-20 00:04:16.510
160.0, 21199.824953058356, 18294.902836668833, 48087.45361416979, 34697.127008095624, 44933.86834071497, 2694.703959787364, 8558.013565303512, 8509.107948435301, 0.0, 0.0, 5055.249339967888, -28588.909338582678, 20512.799383735586, 6444.879644498783, -3915.422131469504, -29878.068551786968, 0.05534375, -6.09375E-4, 1.029734375, 192.0, 0.0, 0.0, 0.0, 0.0, 0.0, 0.0, 0.0, 0.0, 0.0, 1.747692256517878E9, 0.0, 2025-05-20 00:04:16.517
162.0, 21196.159266967687, 18288.75610694362, 48083.430300167835, 34681.34667651018, 44931.879035458456, 2678.118965401526, 8553.07382977889, 8535.661820848205, 0.0, 0.0, 5022.839310507692, -28626.66143496769, 20479.316470541533, 6405.3394085573445, -3949.4414865304816, -29917.54173249504, 0.05534375, -6.09375E-4, 1.029734375, 192.0, 0.0, 0.0, 0.0, 0.0, 0.0, 0.0, 0.0, 0.0, 0.0, 1.747692256525868E9, 0.0, 2025-05-20 00:04:16.525
164.0, 21211.04552877492, 18309.476174053692, 48094.360303206486, 34708.21347334546, 44955.37071888098, 2691.8652882415404, 8586.065004594922, 8522.988381742047, 0.0, 0.0, 5051.673060855039, -28595.257234007986, 20501.131773129913, 6431.848577481339, -3922.306468761739, -29889.937328092736, 0.058671875, -0.0013046875, 1.0308671875000002, 192.0, 0.5, 120.0, 127.5, 120.0, 16.0, 32.0, 0.0, 0.0, 0.0, 1.747692256534934E9, 0.0, 2025-05-20 00:04:16.534
166.0, 21191.867732032268, 18287.57146448749, 48079.94342803281, 34681.905470121565, 44931.74492499172, 2691.127680674515, 8542.054419762424, 8526.341143410342, 0.0, 0.0, 5036.7197438144385, -28611.730469671547, 20497.935473672806, 6422.594955276842, -3935.9633846239312, -29897.425162485262, 0.058671875, -0.0013046875, 1.0308671875000002, 192.0, 0.0, 0.0, 0.0, 0.0, 0.0, 0.0, 0.0, 0.0, 0.0, 1.747692256541925E9, 0.0, 2025-05-20 00:04:16.541
168.0, 21240.415720989196, 18339.561622090536, 48105.8043963676, 34712.460304791966, 44954.90133224742, 2700.4260063679226, 8585.84148715037, 8536.757056326516, 0.0, 0.0, 5040.273671182832, -28610.188199304128, 20490.44763928028, 6414.838899950851, -3935.8739776461102, -29909.428049257764, 0.058671875, -0.0013046875, 1.0308671875000002, 192.0, 0.0, 0.0, 0.0, 0.0, 0.0, 0.0, 0.0, 0.0, 0.0, 1.747692256549929E9, 0.0, 2025-05-20 00:04:16.549
170.0, 21249.267011793498, 18340.00865697964, 48100.73055037625, 34718.025889161334, 44948.68754728884, 2716.0275239977273, 8558.818228103904, 8515.187622927144, 0.0, 0.0, 5073.197790765499, -28572.592565130304, 20530.457261855277, 6447.494798600054, -3916.4056082255374, -29872.793540095514, 0.058671875, -0.0013046875, 1.0308671875000002, 192.0, 0.0, 0.0, 0.0, 0.0, 0.0, 0.0, 0.0, 0.0, 0.0, 1.747692256557984E9, 0.0, 2025-05-20 00:04:16.557
172.0, 21260.621697976792, 18353.062075741538, 48103.502166688704, 34710.02396464634, 44940.596215796024, 2699.509584845255, 8552.693850123149, 8541.54032963995, 0.0, 0.0, 5051.8071713217705, -28594.743143885513, 20512.06177616856, 6421.03033316497, -3936.700992190956, -29900.040316586535, 0.058671875, -0.0013046875, 1.0308671875000002, 192.0, 0.0, 0.0, 0.0, 0.0, 0.0, 0.0, 0.0, 0.0, 0.0, 1.747692256567026E9, 0.0, 2025-05-20 00:04:16.567
174.0, 21301.905369985747, 18399.17372455284, 48117.360248250996, 34738.34362487121, 44968.89352427644, 2723.2471374567913, 8590.401243019252, 8530.140939967745, 0.0, 0.0, 5081.445584469508, -28562.266059191952, 20534.190003179312, 6453.082734713881, -3905.944991820454, -29867.831452826438, 0.0593359375, -6.5234375E-4, 1.03343359375, 192.0, 0.5, 112.0, 0.0, 0.0, 16.0, 48.0, 0.0, 0.0, 0.0, 1.747692256574061E9, 0.0, 2025-05-20 00:04:16.574
176.0, 21286.996756434055, 18377.693698131287, 48104.57505042256, 34711.186255358014, 44945.46889608728, 2712.1159687180484, 8540.22157671709, 8534.857158047815, 0.0, 0.0, 5074.784764621826, -28574.380704686726, 20538.63800032592, 6448.679441056185, -3918.976058837898, -29872.704133117695, 0.0593359375, -6.5234375E-4, 1.03343359375, 192.0, 0.0, 0.0, 0.0, 0.0, 0.0, 0.0, 0.0, 0.0, 0.0, 1.747692256582066E9, 0.0, 2025-05-20 00:04:16.582
178.0, 21323.787727807492, 18413.724710193244, 48113.09106506003, 34726.228979376436, 44967.597123098036, 2704.9634104923502, 8593.776356432005, 8547.888225065259, 0.0, 0.0, 5064.212389494466, -28582.963774557567, 20519.527258816634, 6430.373362347289, -3924.96632635192, -29890.272604259564, 0.0593359375, -6.5234375E-4, 1.03343359375, 192.0, 0.0, 0.0, 0.0, 0.0, 0.0, 0.0, 0.0, 0.0, 0.0, 1.747692256590105E9, 0.0, 2025-05-20 00:04:16.590
180.0, 21314.154125947254, 18404.448736244292, 48099.76942536467, 34714.87429319314, 44953.85080025802, 2705.8798320150177, 8564.36146072882, 8519.54621309593, 0.0, 0.0, 5082.272599014354, -28563.02601850343, 20541.275506171645, 6456.033164981981, -3907.979000565887, -29865.48451965863, 0.0593359375, -6.5234375E-4, 1.03343359375, 192.0, 0.0, 0.0, 0.0, 0.0, 0.0, 0.0, 0.0, 0.0, 0.0, 1.74769225659814E9, 0.0, 2025-05-20 00:04:16.598
182.0, 21316.813983537435, 18405.879247889432, 48090.38169269344, 34694.623612716634, 44946.92175947688, 2697.8555557555624, 8551.2186349891, 8540.69096335065, 0.0, 0.0, 5046.599214863684, -28603.259158522986, 20506.183267376815, 6408.334542314356, -3945.798152184266, -29911.97614812567, 0.0593359375, -6.5234375E-4, 1.03343359375, 192.0, 0.0, 0.0, 0.0, 0.0, 0.0, 0.0, 0.0, 0.0, 0.0, 1.747692256606176E9, 0.0, 2025-05-20 00:04:16.606
184.0, 21358.9917253246, 18443.36312334098, 48105.469120200774, 34723.52441829734, 44974.928495279375, 2712.2724309292357, 8595.765661688527, 8523.860099775804, 0.0, 0.0, 5075.0529855552895, -28570.84912906279, 20528.222087409747, 6438.263528140013, -3915.86916635861, -29881.130740777346, 0.060667968749999995, -0.001326171875, 1.037716796875, 192.0, 0.5, 120.0, 127.5, 120.0, 16.0, 72.0, 0.0, 0.0, 0.0, 1.747692256614196E9, 0.0, 2025-05-20 00:04:16.614
186.0, 21318.825640538413, 18403.241742043705, 48081.217477466766, 34681.838414888196, 44950.69920428982, 2691.5523638191657, 8534.87950979227, 8518.629791573261, 0.0, 0.0, 5055.092877756701, -28592.46326595107, 20522.365930362455, 6428.071132668392, -3930.9565938659425, -29891.792522882526, 0.060667968749999995, -0.001326171875, 1.037716796875, 192.0, 0.0, 0.0, 0.0, 0.0, 0.0, 0.0, 0.0, 0.0, 0.0, 1.747692256622249E9, 0.0, 2025-05-20 00:04:16.622
188.0, 21359.90814684727, 18442.17848088485, 48101.24464049872, 34709.86750243515, 44980.65054185993, 2693.8545934980625, 8589.75304243005, 8533.605460358318, 0.0, 0.0, 5044.431095651519, -28607.103658569296, 20497.600197505977, 6405.205298090613, -3941.327803293205, -29916.759421439103, 0.060667968749999995, -0.001326171875, 1.037716796875, 192.0, 0.0, 0.0, 0.0, 0.0, 0.0, 0.0, 0.0, 0.0, 0.0, 1.747692256629259E9, 0.0, 2025-05-20 00:04:16.629
190.0, 21350.02867579802, 18433.617762758466, 48093.98032355074, 34708.70521172348, 44961.025710228176, 2717.547442620688, 8568.652995664239, 8513.354779881809, 0.0, 0.0, 5083.904276359592, -28568.07751275033, 20539.73323580423, 6447.830074766884, -3914.6621721580236, -29870.49131041662, 0.060667968749999995, -0.001326171875, 1.037716796875, 192.0, 0.0, 0.0, 0.0, 0.0, 0.0, 0.0, 0.0, 0.0, 0.0, 1.74769225663833E9, 0.0, 2025-05-20 00:04:16.638
192.0, 21350.475710687126, 18429.482690034234, 48088.9511810483, 34688.052199846774, 44955.54953283662, 2682.4552038258557, 8552.850312334336, 8533.73957082505, 0.0, 0.0, 5040.452485138475, -28612.669242938668, 20502.428174308323, 6400.064396865892, -3953.487152276892, -29918.324043550976, 0.060667968749999995, -0.001326171875, 1.037716796875, 192.0, 0.0, 0.0, 0.0, 0.0, 0.0, 0.0, 0.0, 0.0, 0.0, 1.747692256646314E9, 0.0, 2025-05-20 00:04:16.646
194.0, 21396.117972864864, 18482.70219358232, 48124.9598413658, 34739.438860349524, 44996.67674263439, 2716.183986208914, 8612.283600840998, 8528.978649256069, 0.0, 0.0, 5090.207468295988, -28562.713094081057, 20540.96258174927, 6443.002097964537, -3910.3482854781496, -29877.397999453307, 0.060333984375, -0.0016630859375, 1.0378583984375, 192.0, 0.5, 112.0, 127.5, 120.0, 16.0, 56.0, 0.0, 0.0, 0.0, 1.74769225665437E9, 0.0, 2025-05-20 00:04:16.654
196.0, 21359.03642881351, 18444.927745452853, 48101.84813759901, 34703.02786863183, 44957.69530030433, 2704.9187070034395, 8540.02041101699, 8522.898974764226, 0.0, 0.0, 5088.598142695206, -28567.65282960568, 20550.327962676045, 6440.409295607722, -3918.126692548596, -29879.432008198743, 0.060333984375, -0.0016630859375, 1.0378583984375, 192.0, 0.0, 0.0, 0.0, 0.0, 0.0, 0.0, 0.0, 0.0, 0.0, 1.747692256662355E9, 0.0, 2025-05-20 00:04:16.662
198.0, 21401.303577578496, 18482.6127866045, 48123.12699832046, 34730.92284571205, 44984.67385586189, 2711.221898939836, 8588.903676140748, 8541.853254062326, 0.0, 0.0, 5071.186133764521, -28580.862710578767, 20526.523354831144, 6414.011885406004, -3930.6436694435683, -29905.87412188937, 0.060333984375, -0.0016630859375, 1.0378583984375, 192.0, 0.0, 0.0, 0.0, 0.0, 0.0, 0.0, 0.0, 0.0, 0.0, 1.747692256670408E9, 0.0, 2025-05-20 00:04:16.670
200.0, 21395.8497519314, 18478.164789457893, 48124.31164077659, 34735.370842858654, 44974.10148073453, 2726.4881404028106, 8576.721975412605, 8524.68711432065, 0.0, 0.0, 5108.491195260429, -28542.64122756019, 20566.957660550794, 6462.962205763127, -3896.289038215761, -29855.649752098296, 0.060333984375, -0.0016630859375, 1.0378583984375, 192.0, 0.0, 0.0, 0.0, 0.0, 0.0, 0.0, 0.0, 0.0, 0.0, 1.74769225667844E9, 0.0, 2025-05-20 00:04:16.678
202.0, 21391.13353385133, 18469.358202142503, 48123.641088442935, 34717.623557761144, 44965.67487307488, 2706.9080122599617, 8554.057306534924, 8550.212806488611, 0.0, 0.0, 5073.555418676784, -28580.862710578767, 20537.2968956586, 6424.405446577722, -3925.4804164743923, -29895.614671184383, 0.060333984375, -0.0016630859375, 1.0378583984375, 192.0, 0.0, 0.0, 0.0, 0.0, 0.0, 0.0, 0.0, 0.0, 0.0, 1.747692256685463E9, 0.0, 2025-05-20 00:04:16.685
204.0, 21421.867182477377, 18503.936350814864, 48141.321318307084, 34757.677883825054, 44996.14030076746, 2730.3102887046684, 8602.627647236306, 8539.551024383429, 0.0, 0.0, 5115.219070341476, -28541.79186127089, 20567.605861139997, 6463.029260996493, -3890.5893433796577, -29858.71194108867, 0.0611669921875, -0.0018315429687500002, 1.03592919921875, 192.0, 0.5, 120.0, 127.5, 120.0, 16.0, 40.0, 0.0, 0.0, 0.0, 1.747692256693506E9, 0.0, 2025-05-20 00:04:16.693
206.0, 21381.566987224458, 18456.103617680506, 48112.57697493756, 34716.46126704947, 44963.03736722915, 2714.284087930213, 8537.427608660175, 8536.31002143741, 0.0, 0.0, 5097.471785243963, -28555.694646322092, 20563.64960237141, 6455.317909159411, -3908.3142767327163, -29862.735255090625, 0.0611669921875, -0.0018315429687500002, 1.03592919921875, 192.0, 0.0, 0.0, 0.0, 0.0, 0.0, 0.0, 0.0, 0.0, 0.0, 1.747692256702485E9, 0.0, 2025-05-20 00:04:16.702
208.0, 21421.174278399263, 18497.23082747827, 48135.733382193255, 34745.78675577483, 44996.69909437884, 2727.5610241366658, 8590.445946508164, 8551.59861464484, 0.0, 0.0, 5078.249285012399, -28574.671277364647, 20537.319247403055, 6434.307269371423, -3913.745750635356, -29887.16571178028, 0.0611669921875, -0.0018315429687500002, 1.03592919921875, 192.0, 0.0, 0.0, 0.0, 0.0, 0.0, 0.0, 0.0, 0.0, 0.0, 1.747692256709568E9, 0.0, 2025-05-20 00:04:16.709
210.0, 21407.115031136876, 18483.953891271816, 48129.20667281231, 34741.62933130614, 44988.630114630476, 2724.8788148020285, 8571.782239887982, 8525.089445720845, 0.0, 0.0, 5119.443550043529, -28537.433271102105, 20578.759381623197, 6477.155563492247, -3885.9848840218647, -29843.736272303617, 0.0611669921875, -0.0018315429687500002, 1.03592919921875, 192.0, 0.0, 0.0, 0.0, 0.0, 0.0, 0.0, 0.0, 0.0, 0.0, 1.747692256717557E9, 0.0, 2025-05-20 00:04:16.717
212.0, 21396.117972864864, 18471.235748676747, 48119.39425699643, 34716.7965432163, 44972.35804466702, 2711.3783611510235, 8549.45284717713, 8549.698716366138, 0.0, 0.0, 5075.745889633405, -28583.254347235485, 20539.576773593042, 6431.133321658769, -3920.294811760761, -29891.591357182428, 0.0611669921875, -0.0018315429687500002, 1.03592919921875, 192.0, 0.0, 0.0, 0.0, 0.0, 0.0, 0.0, 0.0, 0.0, 0.0, 1.747692256726561E9, 0.0, 2025-05-20 00:04:16.726
214.0, 21433.445386105228, 18508.786679361663, 48137.14154209394, 34749.07246220976, 45001.348257225545, 2727.829245070129, 8603.2311443366, 8532.912556280204, 0.0, 0.0, 5107.083035359745, -28547.84918401828, 20561.97322153726, 6463.118667974314, -3888.264761956306, -29860.880060300835, 0.0611669921875, -0.0018315429687500002, 1.03592919921875, 192.0, 0.0, 0.0, 0.0, 0.0, 0.0, 0.0, 0.0, 0.0, 0.0, 1.747692256734599E9, 0.0, 2025-05-20 00:04:16.734
216.0, 21384.405658770283, 18457.51177758119, 48098.696541630816, 34695.92001389504, 44957.00239622622, 2700.940096490395, 8531.705562079616, 8517.847480517326, 0.0, 0.0, 5085.871229871658, -28572.07847500783, 20554.664201100375, 6444.410257865222, -3912.8293291126884, -29880.281374488044, 0.062, 0.002, 1.03, 192.0, 0.5, 120.0, 0.0, 8.0, 16.0, 24.0, 0.0, 0.0, 0.0, 1.747692256741685E9, 0.0, 2025-05-20 00:04:16.741
218.0, 21412.546505039514, 18488.46894365179, 48115.594460439024, 34718.942310684004, 44980.11409999301, 2704.1810994364146, 8593.999873876557, 8530.520919623485, 0.0, 0.0, 5060.837276081715, -28599.124085798754, 20520.4436803393, 6413.117815627792, -3929.5037304763478, -29912.44553475923, 0.062, 0.002, 1.03, 192.0, 0.0, 0.0, 0.0, 0.0, 0.0, 0.0, 0.0, 0.0, 0.0, 1.747692256749709E9, 0.0, 2025-05-20 00:04:16.749
220.0, 21393.033432130032, 18466.36306838549, 48098.31656197507, 34710.694516979995, 44969.60878009901, 2710.350180906079, 8567.602463674839, 8517.109872950301, 0.0, 0.0, 5090.118061318167, -28562.713094081057, 20552.384323165934, 6451.629871324286, -3907.353151721138, -29872.43591218423, 0.062, 0.002, 1.03, 192.0, 0.0, 0.0, 0.0, 0.0, 0.0, 0.0, 0.0, 0.0, 0.0, 1.74769225675866E9, 0.0, 2025-05-20 00:04:16.758
222.0, 21386.841998915912, 18456.193024658325, 48094.695579373314, 34694.17657782752, 44954.38724212495, 2708.003247738272, 8556.180722258177, 8548.067039020902, 0.0, 0.0, 5041.413610150053, -28612.825705149855, 20507.92670344433, 6399.0585683654035, -3951.5649022537355, -29922.772040697582, 0.062, 0.002, 1.03, 192.0, 0.0, 0.0, 0.0, 0.0, 0.0, 0.0, 0.0, 0.0, 0.0, 1.747692256766779E9, 0.0, 2025-05-20 00:04:16.766
224.0, 21424.459984834193, 18499.37659494598, 48124.825730899065, 34738.72360452695, 44980.18115522637, 2730.1091230045704, 8609.981371162101, 8545.02720177498, 0.0, 0.0, 5093.649636942106, -28563.338942925806, 20547.757512063687, 6449.931138745683, -3901.720512118401, -29873.709961618184, 0.062, 0.002, 1.03, 192.0, 0.0, 0.0, 0.0, 0.0, 0.0, 0.0, 0.0, 0.0, 0.0, 1.747692256773734E9, 0.0, 2025-05-20 00:04:16.773
226.0, 21371.97808885313, 18444.21248963028, 48087.38655893643, 34688.7898074138, 44934.605948282, 2709.1208349610374, 8541.696791851138, 8534.857158047815, 0.0, 0.0, 5074.67300589955, -28582.56144315737, 20541.074340471547, 6439.671688040697, -3920.384218738582, -29881.95775532219, 0.068, -0.002, 1.03, 192.0, 1.0, 16.0, 127.5, 120.0, 16.0, 24.0, 0.0, 0.0, 0.0, 1.747692256781759E9, 0.0, 2025-05-20 00:04:16.781
228.0, 21397.347318809905, 18465.84897826302, 48099.881184086946, 34708.90637742357, 44965.89839051943, 2708.450282627378, 8591.675292453205, 8558.102972281335, 0.0, 0.0, 5038.731400815416, -28613.071574338865, 20502.67404349733, 6407.50752776951, -3937.237434057884, -29914.367784782386, 0.068, -0.002, 1.03, 192.0, 0.0, 0.0, 0.0, 0.0, 0.0, 0.0, 0.0, 0.0, 0.0, 1.747692256789765E9, 0.0, 2025-05-20 00:04:16.789
230.0, 21385.053859359487, 18457.42237060337, 48092.28159097214, 34701.97733664243, 44956.62241657048, 2712.384189651512, 8559.868760093303, 8524.664762576194, 0.0, 0.0, 5072.460183198475, -28577.197024488098, 20535.82168052455, 6446.46661835511, -3913.0304948127864, -29875.76632210807, 0.068, -0.002, 1.03, 192.0, 0.0, 0.0, 0.0, 0.0, 0.0, 0.0, 0.0, 0.0, 0.0, 1.747692256797806E9, 0.0, 2025-05-20 00:04:16.797
232.0, 21374.593242954405, 18441.776149484653, 48086.42543392485, 34680.854938132165, 44948.352271122014, 2706.39392213749, 8545.384829686265, 8544.64722211924, 0.0, 0.0, 5031.8470635231815, -28624.985054133544, 20496.169685860837, 6397.248077064523, -3953.4200970435263, -29924.627235487373, 0.068, -0.002, 1.03, 192.0, 0.0, 0.0, 0.0, 0.0, 0.0, 0.0, 0.0, 0.0, 0.0, 1.747692256805875E9, 0.0, 2025-05-20 00:04:16.805
234.0, 21402.801144457, 18475.773152801175, 48105.893803345425, 34716.3942118161, 44978.37066392549, 2728.96918403735, 8593.932818643192, 8531.459692890608, 0.0, 0.0, 5067.989834307413, -28586.18242575913, 20522.812965251564, 6432.69794377064, -3917.2549745148394, -29890.987860082136, 0.068, -0.002, 1.03, 192.0, 0.0, 0.0, 0.0, 0.0, 0.0, 0.0, 0.0, 0.0, 0.0, 1.747692256813845E9, 0.0, 2025-05-20 00:04:16.813
236.0, 21364.713771905157, 18430.957905168285, 48084.27966645714, 34678.77622589782, 44942.67492803036, 2706.9080122599617, 8530.811492301404, 8527.659896333205, 0.0, 0.0, 5061.306662715276, -28597.8500363648, 20524.466994341255, 6423.265507610501, -3934.845797401166, -29898.45334273021, 0.058, 0.006, 1.03, 192.0, 0.5, 104.0, 0.0, 24.0, 16.0, 24.0, 0.0, 0.0, 0.0, 1.747692256821878E9, 0.0, 2025-05-20 00:04:16.821
238.0, 21403.561103768483, 18468.687649808842, 48103.502166688704, 34703.87723492113, 44977.18602146936, 2712.7418175627968, 8589.194248818667, 8545.317774452898, 0.0, 0.0, 5043.291156684299, -28615.19499006212, 20500.394165562888, 6400.712597455096, -3941.6407277155795, -29922.660281975306, 0.058, 0.006, 1.03, 192.0, 0.0, 0.0, 0.0, 0.0, 0.0, 0.0, 0.0, 0.0, 0.0, 1.747692256829916E9, 0.0, 2025-05-20 00:04:16.829
240.0, 21406.310368336486, 18474.65556557841, 48097.646009641416, 34700.61388023065, 44968.93822776535, 2713.0994454740817, 8562.707431639128, 8518.652143317717, 0.0, 0.0, 5087.346445005709, -28577.331134954828, 20542.504852116686, 6440.230481652079, -3914.975096580398, -29883.567080922974, 0.058, 0.006, 1.03, 192.0, 0.0, 0.0, 0.0, 0.0, 0.0, 0.0, 0.0, 0.0, 0.0, 1.747692256837949E9, 0.0, 2025-05-20 00:04:16.837
242.0, 21365.339620749906, 18434.869460447964, 48090.60521013799, 34685.258231789856, 44948.911064733395, 2690.814756252141, 8552.291518722954, 8547.2176727316, 0.0, 0.0, 5040.586595605207, -28620.358243031293, 20503.277540597624, 6396.0634346083925, -3952.0789923762077, -29928.605846000417, 0.058, 0.006, 1.03, 192.0, 0.0, 0.0, 0.0, 0.0, 0.0, 0.0, 0.0, 0.0, 0.0, 1.747692256845968E9, 0.0, 2025-05-20 00:04:16.845
244.0, 21396.587359498426, 18475.817856290087, 48116.37677149496, 34729.984072444924, 44980.67289360439, 2712.25007918478, 8610.69662698467, 8540.445094161641, 0.0, 0.0, 5074.404784966086, -28577.04056227691, 20533.050064212093, 6439.023487451493, -3908.716608132912, -29886.76338038008, 0.058, 0.006, 1.03, 192.0, 0.0, 0.0, 0.0, 0.0, 0.0, 0.0, 0.0, 0.0, 0.0, 1.747692256854013E9, 0.0, 2025-05-20 00:04:16.854
246.0, 21340.395073937783, 18417.613913728466, 48086.06780601356, 34691.85199640417, 44936.32703260506, 2695.8662504990402, 8548.916405310203, 8540.378038928275, 0.0, 0.0, 5064.346499961198, -28581.577966401335, 20537.140433447414, 6437.011830450515, -3921.658268172535, -29886.15988327979, 0.06, 0.0, 1.03, 192.0, 0.5, 112.0, 0.0, 0.0, 16.0, 24.0, 0.0, 0.0, 0.0, 1.747692256862036E9, 0.0, 2025-05-20 00:04:16.862
248.0, 21371.709867919668, 18448.74989375471, 48111.77231213717, 34720.81985721825, 44960.42221312788, 2703.6893610583975, 8605.242801337577, 8563.825018861893, 0.0, 0.0, 5044.341688673698, -28600.778114888446, 20509.178401133824, 6410.569716759886, -3933.392934011571, -29911.752630681116, 0.06, 0.0, 1.03, 192.0, 0.0, 0.0, 0.0, 0.0, 0.0, 0.0, 0.0, 0.0, 0.0, 1.747692256871069E9, 0.0, 2025-05-20 00:04:16.871
250.0, 21354.879004344824, 18433.7518732252, 48104.53034693365, 34717.48944729441, 44954.163724680395, 2711.0207332397385, 8583.136926071278, 8541.048591261935, 0.0, 0.0, 5086.0276920828455, -28561.662562091657, 20550.3503144205, 6457.195455693657, -3900.0664830287083, -29863.76343533557, 0.06, 0.0, 1.03, 192.0, 0.0, 0.0, 0.0, 0.0, 0.0, 0.0, 0.0, 0.0, 0.0, 1.747692256878161E9, 0.0, 2025-05-20 00:04:16.878
252.0, 21333.264867456543, 18417.278637561638, 48095.94727706281, 34697.976374384925, 44948.06169844409, 2696.9838377218057, 8562.953300828136, 8560.628719404784, 0.0, 0.0, 5041.503017127874, -28602.409792233684, 20513.760508747164, 6411.553193515921, -3936.812750913233, -29910.120953335878, 0.06, 0.0, 1.03, 192.0, 0.0, 0.0, 0.0, 0.0, 0.0, 0.0, 0.0, 0.0, 0.0, 1.747692256886201E9, 0.0, 2025-05-20 00:04:16.886
254.0, 21371.441646986204, 18455.388361857935, 48113.56045169359, 34731.66045327907, 44963.104422462515, 2723.8953380459952, 8607.94736241667, 8547.999983787535, 0.0, 0.0, 5070.9402645755135, -28566.98227727202, 20537.05102646959, 6442.622118308797, -3903.262782485817, -29880.77311286606, 0.06, 0.0, 1.03, 192.0, 0.0, 0.0, 0.0, 0.0, 0.0, 0.0, 0.0, 0.0, 0.0, 1.747692256896234E9, 0.0, 2025-05-20 00:04:16.896
0.0, 21331.94611453368, 18413.948227637797, 48081.66451235587, 34685.50410097887, 44926.402858066904, 2696.8050237661632, 8543.015544774002, 8531.16912021269, 0.0, 0.0, 5059.138543503112, -28582.27087047945, 20533.20652642328, 6429.166368146703, -3924.8322158851884, -29893.49125546113, 0.058, -0.004, 1.032, 192.0, 0.5, 104.0, 127.5, 112.0, 16.0, 32.0, 0.0, 0.0, 0.0, 1.74769225690227E9, 0.0, 2025-05-20 00:04:16.902
2.0, 21356.35421947887, 18439.160995383383, 48097.04251254112, 34702.245557575894, 44956.37654738147, 2699.196660422881, 8594.201039576656, 8553.297347223443, 0.0, 0.0, 5034.171644946533, -28606.835437635833, 20501.91408418585, 6396.689283453141, -3941.9983556268644, -29929.186991356255, 0.058, -0.004, 1.032, 192.0, 0.0, 0.0, 0.0, 0.0, 0.0, 0.0, 0.0, 0.0, 0.0, 1.747692256909217E9, 0.0, 2025-05-20 00:04:16.909
4.0, 21351.190966509697, 18434.042445903116, 48091.09694851601, 34699.49629300789, 44951.012128712195, 2721.5037013892775, 8571.178742787688, 8533.158425469212, 0.0, 0.0, 5066.492267428907, -28579.007515788977, 20532.312456645068, 6433.837882737861, -3913.4775297018923, -29891.367839737875, 0.058, -0.004, 1.032, 192.0, 0.0, 0.0, 0.0, 0.0, 0.0, 0.0, 0.0, 0.0, 0.0, 1.747692256918308E9, 0.0, 2025-05-20 00:04:16.918
6.0, 21340.08214951541, 18425.414672543367, 48080.569276877555, 34676.63045843011, 44942.51846581918, 2693.5640208201435, 8552.626794889784, 8542.814379073903, 0.0, 0.0, 5028.717819299438, -28619.821801164366, 20498.62837775092, 6390.9001816392165, -3951.967233653931, -29934.663168747804, 0.058, -0.004, 1.032, 192.0, 0.0, 0.0, 0.0, 0.0, 0.0, 0.0, 0.0, 0.0, 0.0, 1.74769225692632E9, 0.0, 2025-05-20 00:04:16.926
8.0, 21361.070437558945, 18450.046294933116, 48095.34377996252, 34708.258176834366, 44961.360986395004, 2708.7632070497525, 8600.146603601766, 8538.276974949476, 0.0, 0.0, 5052.231854466421, -28585.400114703196, 20518.432023338322, 6420.382132575766, -3921.010067583331, -29905.605900955907, 0.058, -0.004, 1.032, 192.0, 0.0, 0.0, 0.0, 0.0, 0.0, 0.0, 0.0, 0.0, 0.0, 1.74769225693335E9, 0.0, 2025-05-20 00:04:16.933
10.0, 21334.9859517796, 18424.27473357615, 48079.36228267697, 34681.257269532354, 44933.24249187022, 2699.554288334166, 8545.608347130817, 8529.515091122996, 0.0, 0.0, 5035.75861880286, -28607.28247252494, 20511.234761623713, 6411.754359216018, -3936.879806146599, -29915.083040604957, 0.056, -0.01, 1.036, 192.0, 0.5, 96.0, 127.5, 88.0, 16.0, 48.0, 0.0, 0.0, 0.0, 1.747692256941395E9, 0.0, 2025-05-20 00:04:16.941
12.0, 21363.283260260017, 18451.70032402281, 48102.47398644376, 34710.38159255762, 44950.4086316119, 2687.4396428393893, 8590.781222674994, 8547.240024476056, 0.0, 0.0, 5037.926738015025, -28597.961795087078, 20507.524372044132, 6401.718425955585, -3937.975041624909, -29922.816744186493, 0.056, -0.01, 1.036, 192.0, 0.0, 0.0, 0.0, 0.0, 0.0, 0.0, 0.0, 0.0, 0.0, 1.747692256950454E9, 0.0, 2025-05-20 00:04:16.950
14.0, 21372.46982723115, 18459.098751437516, 48105.62558241196, 34716.52832228283, 44954.54370433613, 2722.1519019784814, 8571.737536399072, 8535.25948944801, 0.0, 0.0, 5076.081165800234, -28566.155262727174, 20547.10931147448, 6438.442342095655, -3909.4095122110266, -29883.20945301169, 0.056, -0.01, 1.036, 192.0, 0.0, 0.0, 0.0, 0.0, 0.0, 0.0, 0.0, 0.0, 0.0, 1.747692256957449E9, 0.0, 2025-05-20 00:04:16.957
16.0, 21356.22010901214, 18444.301896608104, 48088.59355313701, 34691.31555453724, 44936.1035151605, 2693.2063929088586, 8552.31387046741, 8547.329431453876, 0.0, 0.0, 5049.9296247875245, -28597.0006700755, 20520.935418717316, 6401.338446299845, -3944.457047516948, -29919.128706351366, 0.056, -0.01, 1.036, 192.0, 0.0, 0.0, 0.0, 0.0, 0.0, 0.0, 0.0, 0.0, 0.0, 1.747692256965504E9, 0.0, 2025-05-20 00:04:16.965
18.0, 21378.013059856065, 18467.257138163703, 48106.69846614581, 34725.938406698515, 44953.31435839109, 2724.7894078242075, 8601.822984435914, 8556.35953621382, 0.0, 0.0, 5067.721613373949, -28572.145530241196, 20533.87707875694, 6429.903975713727, -3917.009105325831, -29889.691458903726, 0.056, -0.01, 1.036, 192.0, 0.0, 0.0, 0.0, 0.0, 0.0, 0.0, 0.0, 0.0, 0.0, 1.747692256974502E9, 0.0, 2025-05-20 00:04:16.974
20.0, 21350.498062431583, 18436.478786048745, 48083.38559667893, 34694.37774352762, 44929.95678543529, 2720.117893233048, 8548.424666932186, 8542.769675584994, 0.0, 0.0, 5055.42815392353, -28586.741219370513, 20531.3960351224, 6425.433626822666, -3934.9128526345316, -29893.78182813905, 0.054, -0.01, 1.032, 192.0, 0.5, 88.0, 127.5, 88.0, 16.0, 32.0, 0.0, 0.0, 0.0, 1.747692256982544E9, 0.0, 2025-05-20 00:04:16.982
22.0, 21371.59810919739, 18454.628402546456, 48093.48858517272, 34708.816970445754, 44946.340614121036, 2703.845823269585, 8590.89298139727, 8554.459637935119, 0.0, 0.0, 5043.626432851128, -28592.932652584634, 20513.939322702805, 6406.211126591102, -3945.328765550705, -29914.457191760208, 0.054, -0.01, 1.032, 192.0, 0.0, 0.0, 0.0, 0.0, 0.0, 0.0, 0.0, 0.0, 0.0, 1.747692256989575E9, 0.0, 2025-05-20 00:04:16.989
24.0, 21349.536937420005, 18436.702303493297, 48081.061015255575, 34700.502121508376, 44933.533064548144, 2705.9468872483835, 8569.636472420272, 8527.615192844296, 0.0, 0.0, 5058.244473724899, -28582.51673966846, 20529.362026376966, 6433.9272897156825, -3923.133483306585, -29887.97037458067, 0.054, -0.01, 1.032, 192.0, 0.0, 0.0, 0.0, 0.0, 0.0, 0.0, 0.0, 0.0, 0.0, 1.747692256997573E9, 0.0, 2025-05-20 00:04:16.997
26.0, 21342.18321349421, 18424.095919620504, 48080.68103559984, 34688.3874760136, 44923.541834776624, 2701.4988901017773, 8562.59567291685, 8549.162274499211, 0.0, 0.0, 5025.4544646089635, -28612.95981561659, 20500.2377033517, 6400.198507332624, -3956.2811203338056, -29923.464944775696, 0.054, -0.01, 1.032, 192.0, 0.0, 0.0, 0.0, 0.0, 0.0, 0.0, 0.0, 0.0, 0.0, 1.747692257006662E9, 0.0, 2025-05-20 00:04:17.006
28.0, 21353.26967874404, 18443.921916952364, 48086.17956473584, 34704.72660121043, 44941.914968718884, 2715.6028408530765, 8606.919182171725, 8541.562681384406, 0.0, 0.0, 5045.258110196365, -28592.060934550875, 20513.648750024888, 6430.9321559586715, -3918.6407826710683, -29895.16763629528, 0.054, -0.01, 1.032, 192.0, 0.0, 0.0, 0.0, 0.0, 0.0, 0.0, 0.0, 0.0, 0.0, 1.747692257013615E9, 0.0, 2025-05-20 00:04:17.013
30.0, 21326.201716208663, 18415.4457945163, 48060.89974175689, 34671.04252231628, 44915.159930605885, 2691.9323434749062, 8554.146713512744, 8530.051532989924, 0.0, 0.0, 5033.9034240130695, -28612.33396677184, 20506.898523199383, 6424.070170410892, -3932.387105511082, -29905.02475560007, 0.06, -0.008, 1.028, 192.0, 0.5, 112.0, 127.5, 96.0, 16.0, 16.0, 0.0, 0.0, 0.0, 1.747692257021606E9, 0.0, 2025-05-20 00:04:17.021
32.0, 21360.489292203107, 18447.855823976497, 48083.005617023184, 34694.19892957198, 44930.672041257865, 2694.8827737430065, 8602.89586816977, 8553.118533267801, 0.0, 0.0, 5011.350513857665, -28626.19204833413, 20480.791685675584, 6396.7116351975965, -3948.5474167522693, -29932.33858732445, 0.06, -0.008, 1.028, 192.0, 0.0, 0.0, 0.0, 0.0, 0.0, 0.0, 0.0, 0.0, 0.0, 1.747692257029768E9, 0.0, 2025-05-20 00:04:17.029
34.0, 21348.531108919517, 18436.54584128211, 48077.641198353915, 34694.78007492782, 44925.62054701096, 2711.7359890623084, 8579.784164402981, 8535.93004178167, 0.0, 0.0, 5056.121058001645, -28592.66443165117, 20523.48351758522, 6439.492874085054, -3909.655381400035, -29889.53499669254, 0.06, -0.008, 1.028, 192.0, 0.0, 0.0, 0.0, 0.0, 0.0, 0.0, 0.0, 0.0, 0.0, 1.747692257038705E9, 0.0, 2025-05-20 00:04:17.038
36.0, 21342.40673093876, 18426.822832444053, 48071.136840717416, 34674.43998747349, 44906.8003781796, 2695.7991952656744, 8565.344937484853, 8547.865873320803, 0.0, 0.0, 5020.358266873153, -28625.09681285582, 20491.43111603631, 6394.1858880741465, -3951.900178420565, -29933.79145071405, 0.06, -0.008, 1.028, 192.0, 0.0, 0.0, 0.0, 0.0, 0.0, 0.0, 0.0, 0.0, 0.0, 1.74769225704567E9, 0.0, 2025-05-20 00:04:17.045
38.0, 21359.483463702618, 18448.638135032434, 48082.6479891119, 34699.47394126343, 44924.94999467731, 2721.8836810450175, 8610.651923495761, 8545.965975042101, 0.0, 0.0, 5045.8169038077485, -28594.94430958561, 20509.11134590046, 6420.8962226982385, -3919.333686749183, -29907.125819578865, 0.06, -0.008, 1.028, 192.0, 0.0, 0.0, 0.0, 0.0, 0.0, 0.0, 0.0, 0.0, 0.0, 1.747692257053699E9, 0.0, 2025-05-20 00:04:17.053
40.0, 21331.677893600216, 18421.726634708244, 48057.144648688394, 34666.460414702946, 44894.30575302908, 2701.744759290786, 8552.805608845427, 8533.180777213667, 0.0, 0.0, 5025.253298908866, -28615.574969717858, 20501.57880801902, 6407.842803936339, -3942.847721916166, -29919.061651118, 0.056, -0.002, 1.026, 192.0, 0.5, 96.0, 127.5, 120.0, 16.0, 8.0, 0.0, 0.0, 0.0, 1.747692257061736E9, 0.0, 2025-05-20 00:04:17.061
42.0, 21353.89552758879, 18437.775187227155, 48074.53430587463, 34688.901566136075, 44908.02972412464, 2689.831279496107, 8601.08537686889, 8554.303175723931, 0.0, 0.0, 5021.22998490691, -28620.067670353375, 20489.039479379593, 6391.414271761689, -3951.9225301650204, -29935.40077631483, 0.056, -0.002, 1.026, 192.0, 0.0, 0.0, 0.0, 0.0, 0.0, 0.0, 0.0, 0.0, 0.0, 1.747692257069749E9, 0.0, 2025-05-20 00:04:17.069
44.0, 21352.733236877113, 18442.692571007323, 48077.19416346481, 34696.165883084046, 44905.90630840138, 2719.0226577547382, 8580.119440569812, 8536.712352837605, 0.0, 0.0, 5044.09581948469, -28598.43118172064, 20511.72650000173, 6422.170272132191, -3926.620355441613, -29903.124857321367, 0.056, -0.002, 1.026, 192.0, 0.0, 0.0, 0.0, 0.0, 0.0, 0.0, 0.0, 0.0, 0.0, 1.747692257077808E9, 0.0, 2025-05-20 00:04:17.077
