%OpenBCI Raw EXG Data
%Number of channels = 16
%Sample Rate = 125 Hz
%Board = OpenBCI_GUI$BoardCytonSerialDaisy
Sample Index, EXG Channel 0, EXG Channel 1, EXG Channel 2, EXG Channel 3, EXG Channel 4, EXG Channel 5, EXG Channel 6, EXG Channel 7, EXG Channel 8, EXG Channel 9, EXG Channel 10, EXG Channel 11, EXG Channel 12, EXG Channel 13, EXG Channel 14, EXG Channel 15, Accel Channel 0, Accel Channel 1, Accel Channel 2, Not Used, Digital Channel 0 (D11), Digital Channel 1 (D12), Digital Channel 2 (D13), Digital Channel 3 (D17), Not Used, Digital Channel 4 (D18), Analog Channel 0, Analog Channel 1, Analog Channel 2, Timestamp, Marker Channel, Timestamp (Formatted)
0.0, 23355.427188328173, 17876.858160121225, 48024.33228782801, 30716.214265372073, 35358.87275443945, -217.52717703904833, 8212.276782068824, 1039.9596142720718, 0.0, 0.0, 0.0, 0.0, 0.0, 0.0, 0.0, 0.0, 0.0, 0.0, 0.0, 192.0, 0.0, 0.0, 0.0, 0.0, 0.0, 0.0, 0.0, 0.0, 0.0, 1.747688052931585E9, 0.0, 2025-05-19 22:54:12.931
54.0, 23347.648781257725, 17868.275090250383, 48011.50238651066, 30699.718677964054, 35329.79313490309, -243.79047677403412, 8167.863865836128, 1046.3745649307448, 0.0, 0.0, 16509.17726864544, -12838.797311639466, 7894.479679403267, -300.4745007126928, -26185.538016025785, -33438.209705139365, 0.0, 0.0, 0.0, 192.0, 0.0, 0.0, 0.0, 0.0, 0.0, 0.0, 0.0, 0.0, 0.0, 1.747688052932037E9, 0.0, 2025-05-19 22:54:12.932
0.0, 10647.34287826334, 8849.882644400912, 23608.851266962443, 14907.361854000314, 17815.837897758236, -1364.8869234188705, 4771.806868530139, 740.3121281042252, 0.0, 0.0, 8258.902521002594, -6411.6202487492865, 3945.172303339518, -149.17554249471934, -13086.633454159912, -16726.50327998439, 0.062, -0.01, 1.032, 192.0, 0.5, 120.0, 127.5, 88.0, 16.0, 32.0, 0.0, 0.0, 0.0, 1.747688053010784E9, 0.0, 2025-05-19 22:54:13.010
2.0, 21296.049212938455, 17701.151096958052, 47235.33806030012, 29837.120155944845, 35677.899203050045, -2728.030410770227, 9531.45438807659, 1467.056747324079, 0.0, 0.0, 15422.994246839793, -13578.72946008795, 924.0434675268493, -661.7680980882762, -24385.954366440103, -33331.07779396508, 0.062, -0.01, 1.032, 192.0, 0.0, 0.0, 0.0, 0.0, 0.0, 0.0, 0.0, 0.0, 0.0, 1.747688053017812E9, 0.0, 2025-05-19 22:54:13.017
4.0, 21294.283425126487, 17700.346434157662, 47230.01834511976, 29813.203789377665, 35663.504679620826, -2694.994532465283, 9471.462305958546, 1470.0518810810902, 0.0, 0.0, 15422.3907497395, -13585.233817724446, 937.2309967554804, -676.1849732619493, -24397.845494490328, -33335.659901578416, 0.062, -0.01, 1.032, 192.0, 0.0, 0.0, 0.0, 0.0, 0.0, 0.0, 0.0, 0.0, 0.0, 1.747688053024847E9, 0.0, 2025-05-19 22:54:13.024
6.0, 21295.98215770509, 17699.675881824005, 47232.40998177648, 29824.603179049875, 35675.99930477134, -2697.520279588733, 9530.962649698575, 1478.5902474630175, 0.0, 0.0, 15424.782386396217, -13588.631282881652, 926.4127524391118, -677.257856995804, -24385.641442017728, -33348.445099406854, 0.062, -0.01, 1.032, 192.0, 0.0, 0.0, 0.0, 0.0, 0.0, 0.0, 0.0, 0.0, 0.0, 1.747688053033881E9, 0.0, 2025-05-19 22:54:13.033
8.0, 21291.578864047395, 17694.15500094354, 47227.42554276295, 29826.14544941729, 35681.58724088517, -2696.626209810521, 9490.26012304546, 1460.57474143204, 0.0, 0.0, 15416.735758392306, -13587.759564847895, 947.2222265270027, -656.2248654633601, -24377.90773843619, -33326.09335495155, 0.056, 0.0, 1.03, 192.0, 0.5, 96.0, 0.0, 0.0, 16.0, 24.0, 0.0, 0.0, 0.0, 1.747688053040896E9, 0.0, 2025-05-19 22:54:13.040
10.0, 21289.075468668398, 17687.091849695666, 47218.68601068092, 29800.597405504872, 35664.599915099134, -2718.9779542658275, 9506.040454630907, 1472.376462504442, 0.0, 0.0, 15411.505450189765, -13597.661387641596, 931.3748397081899, -696.2121362939043, -24408.037889961946, -33359.442157678866, 0.056, 0.0, 1.03, 192.0, 0.0, 0.0, 0.0, 0.0, 0.0, 0.0, 0.0, 0.0, 0.0, 1.747688053048928E9, 0.0, 2025-05-19 22:54:13.048
12.0, 21291.84708498086, 17691.517495097818, 47222.61991770505, 29826.056042439468, 35665.382226155074, -2657.510657013733, 9536.595289301311, 1461.1335350434226, 0.0, 0.0, 15416.914572347949, -13598.488402186442, 943.6235956696983, -669.3900429475359, -24389.35183159731, -33344.75706157173, 0.056, 0.0, 1.03, 192.0, 0.0, 0.0, 0.0, 0.0, 0.0, 0.0, 0.0, 0.0, 0.0, 1.747688053056964E9, 0.0, 2025-05-19 22:54:13.056
14.0, 21282.660518009725, 17680.945119970456, 47212.53928095571, 29803.167856117234, 35638.895408975535, -2694.5698493206323, 9481.721756663532, 1461.6029216769841, 0.0, 0.0, 15410.387862967, -13598.64486439763, 954.7324126639859, -688.8584123681084, -24414.54224759844, -33350.948494785844, 0.056, 0.0, 1.03, 192.0, 0.0, 0.0, 0.0, 0.0, 0.0, 0.0, 0.0, 0.0, 0.0, 1.747688053065991E9, 0.0, 2025-05-19 22:54:13.065
16.0, 21307.64976831076, 17703.2298091924, 47238.69082196842, 29830.325225630433, 35677.96625828341, -2703.130567447015, 9514.534117523923, 1474.2093055497774, 0.0, 0.0, 15417.093386303592, -13596.879076585661, 948.4515724720446, -693.5746304481781, -24412.329424897365, -33361.49851816875, 0.056, 0.0, 1.03, 192.0, 0.0, 0.0, 0.0, 0.0, 0.0, 0.0, 0.0, 0.0, 0.0, 1.747688053072043E9, 0.0, 2025-05-19 22:54:13.072
18.0, 21295.11043967133, 17696.21136143343, 47234.91337715547, 29831.308702386465, 35681.609592629626, -2596.3115806951023, 9479.106602562262, 1458.1607530308668, 0.0, 0.0, 15438.886337147516, -13577.857742054195, 992.886840449195, -647.9100165259858, -24368.162377853678, -33320.52777058217, 0.056, -0.008, 1.034, 192.0, 0.5, 96.0, 127.5, 96.0, 16.0, 40.0, 0.0, 0.0, 0.0, 1.747688053081087E9, 0.0, 2025-05-19 22:54:13.081
20.0, 21289.88013146879, 17688.567064829716, 47216.428484490934, 29807.79466721948, 35652.14999343753, -2711.668933828942, 9485.946236365586, 1463.4581164667745, 0.0, 0.0, 15414.09825254658, -13597.102594030213, 964.7236424355082, -702.515328230301, -24418.051471477924, -33365.007742048234, 0.056, -0.008, 1.034, 192.0, 0.0, 0.0, 0.0, 0.0, 0.0, 0.0, 0.0, 0.0, 0.0, 1.747688053089084E9, 0.0, 2025-05-19 22:54:13.089
22.0, 21292.338823358874, 17692.45626836494, 47221.7929031602, 29834.259132654566, 35660.710711563916, -2674.2968170996687, 9527.341667096814, 1461.66997691035, 0.0, 0.0, 15416.2887235032, -13590.419422438077, 977.1959158415694, -672.0499005377175, -24395.11858166678, -33345.96405577231, 0.056, -0.008, 1.034, 192.0, 0.0, 0.0, 0.0, 0.0, 0.0, 0.0, 0.0, 0.0, 0.0, 1.747688053096147E9, 0.0, 2025-05-19 22:54:13.096
24.0, 21290.528332057995, 17686.622463062104, 47224.96685087286, 29817.04828942398, 35661.67183657549, -2651.5650929886215, 9468.288358245893, 1464.3074827560763, 0.0, 0.0, 15421.139052050003, -13588.743041603928, 995.0102561724492, -683.0469588097285, -24408.708442295607, -33345.33820692757, 0.056, -0.008, 1.034, 192.0, 0.0, 0.0, 0.0, 0.0, 0.0, 0.0, 0.0, 0.0, 0.0, 1.747688053104147E9, 0.0, 2025-05-19 22:54:13.104
26.0, 21294.864570482325, 17688.745878785357, 47227.91728114096, 29823.396184849287, 35665.449281388435, -2688.5572300621548, 9524.36888508426, 1470.0742328255456, 0.0, 0.0, 15420.781424138717, -13593.749832361918, 983.0744246333152, -687.3831972340581, -24399.96891021358, -33360.470337923805, 0.056, -0.008, 1.034, 192.0, 0.0, 0.0, 0.0, 0.0, 0.0, 0.0, 0.0, 0.0, 0.0, 1.747688053113158E9, 0.0, 2025-05-19 22:54:13.113
28.0, 21283.35342208784, 17679.40284960304, 47220.429446748436, 29820.33399585891, 35660.978932497375, -2645.798342919152, 9472.378727481215, 1448.482447681719, 0.0, 0.0, 15424.447110229386, -13592.140506761136, 1008.1083784232592, -665.7243568568656, -24388.569520541376, -33342.3207214261, 0.06, -0.006, 1.032, 192.0, 0.5, 112.0, 127.5, 104.0, 16.0, 32.0, 0.0, 0.0, 0.0, 1.747688053120193E9, 0.0, 2025-05-19 22:54:13.120
30.0, 21280.805323219935, 17676.810047246225, 47207.53249019772, 29804.866588695837, 35628.97123443738, -2637.7293631707867, 9512.522460522945, 1478.120860829456, 0.0, 0.0, 15401.76008960725, -13610.848916870227, 982.8062036998515, -713.4453312689461, -24432.915381540704, -33383.336172501586, 0.06, -0.006, 1.032, 192.0, 0.0, 0.0, 0.0, 0.0, 0.0, 0.0, 0.0, 0.0, 0.0, 1.747688053128216E9, 0.0, 2025-05-19 22:54:13.128
32.0, 21298.239683895074, 17692.992710231865, 47241.373031303054, 29845.05502522648, 35671.99834251384, -2623.625412419488, 9504.542887752401, 1465.3580147454757, 0.0, 0.0, 15431.689075432907, -13579.914102544082, 1020.3794861292228, -659.2647027092818, -24377.505407036, -33339.996140002746, 0.06, -0.006, 1.032, 192.0, 0.0, 0.0, 0.0, 0.0, 0.0, 0.0, 0.0, 0.0, 0.0, 1.747688053136246E9, 0.0, 2025-05-19 22:54:13.136
34.0, 21289.388393090772, 17682.06270719322, 47229.66071720848, 29818.009414435557, 35652.14999343753, -2663.9479594168615, 9469.987090824496, 1478.3667300184645, 0.0, 0.0, 15430.683246932418, -13593.414556195088, 1028.2249484330355, -679.224810507871, -24400.706517780607, -33351.84256456406, 0.06, -0.006, 1.032, 192.0, 0.0, 0.0, 0.0, 0.0, 0.0, 0.0, 0.0, 0.0, 0.0, 1.747688053145265E9, 0.0, 2025-05-19 22:54:13.145
36.0, 21315.51758235903, 17706.98490226089, 47254.98524367634, 29854.018074753058, 35679.39676992855, -2600.7595778417085, 9530.470911320557, 1488.9391051458247, 0.0, 0.0, 15442.283802304722, -13580.227026966457, 1028.336707155312, -667.1772202464605, -24379.96409892608, -33344.17591621589, 0.06, -0.006, 1.032, 192.0, 0.0, 0.0, 0.0, 0.0, 0.0, 0.0, 0.0, 0.0, 0.0, 1.747688053152295E9, 0.0, 2025-05-19 22:54:13.152
38.0, 21302.441811852674, 17695.429050377494, 47241.663603980975, 29842.551629847483, 35671.79717681374, -2618.395104216946, 9489.410756756159, 1471.705910170783, 0.0, 0.0, 15450.665706475462, -13564.625509336653, 1063.3171872278676, -634.0742867081508, -24360.093398105313, -33311.5647210556, 0.06, -0.002, 1.032, 192.0, 0.5, 112.0, 127.5, 120.0, 16.0, 32.0, 0.0, 0.0, 0.0, 1.747688053160325E9, 0.0, 2025-05-19 22:54:13.160
40.0, 21292.20471289214, 17684.052012449745, 47230.91241489797, 29817.696490013182, 35643.432813099964, -2612.561298914111, 9494.417547514147, 1469.9401223588136, 0.0, 0.0, 15422.3907497395, -13597.057890541302, 1030.8624542787618, -692.2335257808597, -24414.229323176067, -33364.2254309923, 0.06, -0.002, 1.032, 192.0, 0.0, 0.0, 0.0, 0.0, 0.0, 0.0, 0.0, 0.0, 0.0, 1.747688053168376E9, 0.0, 2025-05-19 22:54:13.168
42.0, 21291.936491958677, 17687.427125862494, 47231.15828408698, 29835.95786523317, 35658.92257200749, -2620.384409473468, 9513.863565190264, 1446.9401773143027, 0.0, 0.0, 15440.786235426216, -13582.752774089906, 1052.5659981448648, -651.0616124941841, -24365.3013545634, -33338.85620103552, 0.06, -0.002, 1.032, 192.0, 0.0, 0.0, 0.0, 0.0, 0.0, 0.0, 0.0, 0.0, 0.0, 1.747688053176382E9, 0.0, 2025-05-19 22:54:13.176
44.0, 21287.55555004544, 17677.391192602063, 47227.470246251854, 29818.165876646744, 35645.98091196787, -2637.259976537225, 9467.39428846768, 1459.6359681649171, 0.0, 0.0, 15417.875697359526, -13602.087033043746, 1047.1568759866807, -682.1752407759716, -24407.568503328384, -33359.19628848985, 0.06, -0.002, 1.032, 192.0, 0.0, 0.0, 0.0, 0.0, 0.0, 0.0, 0.0, 0.0, 0.0, 1.747688053184408E9, 0.0, 2025-05-19 22:54:13.184
46.0, 21297.949111217156, 17689.796410774758, 47238.4002492905, 29841.121118202343, 35661.96240925341, -2615.489377437756, 9517.708065236577, 1465.2909595121098, 0.0, 0.0, 15429.05156958718, -13590.084146271247, 1045.592253874809, -674.8438685946309, -24386.691974007128, -33359.95624780133, 0.06, -0.002, 1.032, 192.0, 0.0, 0.0, 0.0, 0.0, 0.0, 0.0, 0.0, 0.0, 0.0, 1.74768805319239E9, 0.0, 2025-05-19 22:54:13.192
48.0, 21279.374811574795, 17668.74106749786, 47216.62965019103, 29821.451583081674, 35649.84776375863, -2583.012292744195, 9487.600265455278, 1454.6515291513836, 0.0, 0.0, 15430.504432976775, -13590.933512560548, 1069.6203791642642, -654.1908567179271, -24378.31006983639, -33334.966997500305, 0.064, -0.004, 1.028, 192.0, 1.0, 0.0, 127.5, 112.0, 16.0, 16.0, 0.0, 0.0, 0.0, 1.747688053201483E9, 0.0, 2025-05-19 22:54:13.201
50.0, 21283.84516046586, 17676.31830886821, 47229.705420697384, 29823.083260426913, 35640.214161898395, -2644.0549068516384, 9509.21440234356, 1477.3385497735203, 0.0, 0.0, 15415.506412447265, -13608.814908124794, 1048.3638701872671, -692.1441188030385, -24406.383860872254, -33366.348846715555, 0.064, -0.004, 1.028, 192.0, 0.0, 0.0, 0.0, 0.0, 0.0, 0.0, 0.0, 0.0, 0.0, 1.7476880532075E9, 0.0, 2025-05-19 22:54:13.207
52.0, 21282.83933196537, 17672.093829166155, 47230.688897453416, 29842.61868508085, 35655.99449348384, -2604.8946505659405, 9516.188146613616, 1467.5931891910063, 0.0, 0.0, 15430.862060888061, -13590.799402093817, 1069.9556553310938, -652.4697723948684, -24369.704648221094, -33335.57049460059, 0.064, -0.004, 1.028, 192.0, 0.0, 0.0, 0.0, 0.0, 0.0, 0.0, 0.0, 0.0, 0.0, 1.747688053216524E9, 0.0, 2025-05-19 22:54:13.216
54.0, 21277.273747596, 17665.433009318473, 47222.75402817178, 29817.875303968827, 35642.315225877195, -2591.75182482622, 9481.11825956324, 1475.5504102170958, 0.0, 0.0, 15416.62399967003, -13605.819774367783, 1073.107251299292, -676.5873046621448, -24397.957253212604, -33348.6239133625, 0.064, -0.004, 1.028, 192.0, 0.0, 0.0, 0.0, 0.0, 0.0, 0.0, 0.0, 0.0, 0.0, 1.747688053224539E9, 0.0, 2025-05-19 22:54:13.224
56.0, 21286.72853550059, 17676.16184665702, 47221.07764733764, 29829.162934918757, 35631.04994667172, -2598.010313273706, 9533.26487937747, 1475.9080381283807, 0.0, 0.0, 15424.402406740477, -13596.700262630018, 1069.4192134641664, -676.9225808289744, -24391.54230255393, -33356.6705413664, 0.064, -0.004, 1.028, 192.0, 0.0, 0.0, 0.0, 0.0, 0.0, 0.0, 0.0, 0.0, 0.0, 1.747688053232581E9, 0.0, 2025-05-19 22:54:13.232
58.0, 21283.331070343385, 17672.563215799717, 47227.78317067423, 29831.778089020027, 35655.167478938994, -2549.1493998944047, 9479.77715489592, 1458.6524914088836, 0.0, 0.0, 15422.994246839793, -13596.54380041883, 1094.9225538876717, -661.8575050660975, -24386.848436218315, -33340.80080280314, 0.066, 0.0, 1.032, 192.0, 1.0, 8.0, 0.0, 0.0, 16.0, 32.0, 0.0, 0.0, 0.0, 1.74768805324065E9, 0.0, 2025-05-19 22:54:13.240
60.0, 21283.26401511002, 17669.16575064251, 47221.144702571, 29817.405917335265, 35636.57082755218, -2640.4115725054235, 9508.387387798713, 1475.2598375391767, 0.0, 0.0, 15418.09921480408, -13610.3124750033, 1081.5115072144874, -700.3695607625915, -24411.815334774892, -33376.697704398364, 0.066, 0.0, 1.032, 192.0, 0.0, 0.0, 0.0, 0.0, 0.0, 0.0, 0.0, 0.0, 0.0, 1.747688053248595E9, 0.0, 2025-05-19 22:54:13.248
62.0, 21293.411707092728, 17681.9733002154, 47239.495484768806, 29857.72846433264, 35660.59895284164, -2553.5750452965553, 9502.441823773603, 1451.1423052719003, 0.0, 0.0, 15434.460691745364, -13584.898541557615, 1107.4171790381884, -654.0790979956506, -24366.95538365309, -33339.83967779156, 0.066, 0.0, 1.032, 192.0, 0.0, 0.0, 0.0, 0.0, 0.0, 0.0, 0.0, 0.0, 0.0, 1.74768805325765E9, 0.0, 2025-05-19 22:54:13.257
64.0, 21282.057020909433, 17667.377611086085, 47227.91728114096, 29826.65953953976, 35635.65440602951, -2572.9987112282174, 9467.193122767583, 1455.925578585336, 0.0, 0.0, 15430.884412632515, -13591.40289919411, 1119.5094727885096, -670.6864441259437, -24391.654061276207, -33344.64530284945, 0.066, 0.0, 1.032, 192.0, 0.0, 0.0, 0.0, 0.0, 0.0, 0.0, 0.0, 0.0, 0.0, 1.74768805326366E9, 0.0, 2025-05-19 22:54:13.263
66.0, 21303.335881630886, 17689.50583809684, 47233.05818236568, 29844.026844981534, 35644.63980730055, -2596.646856861932, 9518.535079781423, 1451.544636672096, 0.0, 0.0, 15433.276049289234, -13592.900466072615, 1108.490062772043, -679.3589209746028, -24388.189540885633, -33363.64428563646, 0.066, 0.0, 1.032, 192.0, 0.0, 0.0, 0.0, 0.0, 0.0, 0.0, 0.0, 0.0, 0.0, 1.747688053272703E9, 0.0, 2025-05-19 22:54:13.272
68.0, 21278.01135516302, 17663.443704061952, 47232.54409224321, 29846.843164782902, 35643.231647399865, -2548.4117923273793, 9485.610960198755, 1440.4358196778082, 0.0, 0.0, 15437.522880735742, -13584.205637479501, 1139.9389672206603, -650.9945572608182, -24371.984526155535, -33335.57049460059, 0.06, -0.004, 1.034, 192.0, 0.5, 112.0, 127.5, 112.0, 16.0, 40.0, 0.0, 0.0, 0.0, 1.747688053280709E9, 0.0, 2025-05-19 22:54:13.280
70.0, 21285.901520955744, 17667.087038408165, 47230.46538000886, 29830.638150052804, 35637.12962116356, -2603.128862753971, 9482.54877120838, 1458.0713460530455, 0.0, 0.0, 15421.496679961287, -13599.40482370911, 1116.5143390314984, -695.4074734935133, -24411.100078952324, -33375.20013751985, 0.06, -0.004, 1.034, 192.0, 0.0, 0.0, 0.0, 0.0, 0.0, 0.0, 0.0, 0.0, 0.0, 1.747688053288762E9, 0.0, 2025-05-19 22:54:13.288
72.0, 21299.625492051306, 17677.704117024437, 47232.61114747657, 29848.0948624724, 35648.28314164676, -2539.6052050119883, 9509.63908548821, 1441.7098691117608, 0.0, 0.0, 15438.886337147516, -13587.468992169976, 1139.5813393093754, -655.4425544074243, -24369.05644763189, -33349.0709482516, 0.06, -0.004, 1.034, 192.0, 0.0, 0.0, 0.0, 0.0, 0.0, 0.0, 0.0, 0.0, 0.0, 1.747688053295757E9, 0.0, 2025-05-19 22:54:13.295
74.0, 21294.104611170842, 17670.35039309864, 47221.90466188248, 29819.171705147233, 35638.15780140851, -2576.3067694076026, 9456.7325063625, 1439.541749899596, 0.0, 0.0, 15431.286744032712, -13602.109384788202, 1147.3597463798221, -682.2869994982481, -24402.069974192378, -33367.667599638415, 0.06, -0.004, 1.034, 192.0, 0.0, 0.0, 0.0, 0.0, 0.0, 0.0, 0.0, 0.0, 0.0, 1.747688053304856E9, 0.0, 2025-05-19 22:54:13.304
76.0, 21313.930608502702, 17681.615672304117, 47245.91043542748, 29846.329074660433, 35665.806909299725, -2582.2746851771694, 9506.554544753379, 1444.7497063576825, 0.0, 0.0, 15444.630735472529, -13595.895599829628, 1144.0516882004367, -675.9838075618514, -24385.641442017728, -33369.99218106177, 0.06, -0.004, 1.034, 192.0, 0.0, 0.0, 0.0, 0.0, 0.0, 0.0, 0.0, 0.0, 0.0, 1.747688053312851E9, 0.0, 2025-05-19 22:54:13.312
78.0, 21304.297006642464, 17668.405791331028, 47238.1990835904, 29837.36602513385, 35662.230630186874, -2564.482696590745, 9472.244617014483, 1429.4611131502527, 0.0, 0.0, 15448.005848885281, -13595.672082385074, 1169.9350082796823, -652.9168072839747, -24370.28579357693, -33349.80855581863, 0.056, 0.002, 1.034, 192.0, 0.5, 96.0, 0.0, 8.0, 16.0, 40.0, 0.0, 0.0, 0.0, 1.747688053319908E9, 0.0, 2025-05-19 22:54:13.319
80.0, 21312.187172435188, 17675.0219076898, 47233.59462423261, 29829.408804107763, 35643.47751658887, -2585.4039294009126, 9482.660529930656, 1441.3745929449312, 0.0, 0.0, 15447.715276207362, -13601.59529466573, 1159.586150596875, -687.3608454896028, -24398.44899159062, -33375.89304159797, 0.056, 0.002, 1.034, 192.0, 0.0, 0.0, 0.0, 0.0, 0.0, 0.0, 0.0, 0.0, 0.0, 1.747688053327883E9, 0.0, 2025-05-19 22:54:13.327
82.0, 21325.017073752533, 17686.756573528837, 47247.87738893955, 29851.693493329705, 35676.33458093817, -2545.841341715019, 9503.872335418742, 1439.318232455043, 0.0, 0.0, 15455.650145488997, -13595.761489362894, 1175.4335374156879, -655.3307956851478, -24369.570537754364, -33356.40232043294, 0.056, 0.002, 1.034, 192.0, 0.0, 0.0, 0.0, 0.0, 0.0, 0.0, 0.0, 0.0, 0.0, 1.747688053336845E9, 0.0, 2025-05-19 22:54:13.336
84.0, 21316.12107945932, 17677.078268179688, 47232.34292654311, 29827.263036640055, 35636.45906882991, -2578.072557219572, 9459.213549997039, 1431.7633428291492, 0.0, 0.0, 15449.190491341413, -13601.796460365827, 1187.749348610562, -674.486240683346, -24393.375145599264, -33362.75021585825, 0.056, 0.002, 1.034, 192.0, 0.0, 0.0, 0.0, 0.0, 0.0, 0.0, 0.0, 0.0, 0.0, 1.747688053343861E9, 0.0, 2025-05-19 22:54:13.343
86.0, 21332.683722100704, 17690.578721830694, 47246.2010081054, 29844.965618248658, 35656.642694073045, -2579.4807171202565, 9542.004411459495, 1459.1218780424451, 0.0, 0.0, 15449.525767508241, -13599.226009753467, 1174.8970955487605, -677.32491222917, -24387.049601918414, -33371.95913457384, 0.056, 0.002, 1.034, 192.0, 0.0, 0.0, 0.0, 0.0, 0.0, 0.0, 0.0, 0.0, 0.0, 1.74768805335188E9, 0.0, 2025-05-19 22:54:13.351
88.0, 21326.7828615645, 17685.616634561615, 47241.48479002533, 29842.52927810303, 35674.00999951482, -2507.68691392981, 9462.007518053952, 1430.0869619950013, 0.0, 0.0, 15459.539349024219, -13592.967521305982, 1205.9436685971818, -647.2618159367819, -24362.574441739853, -33344.84646854955, 0.056, -0.002, 1.032, 192.0, 0.5, 96.0, 127.5, 120.0, 16.0, 32.0, 0.0, 0.0, 0.0, 1.747688053360939E9, 0.0, 2025-05-19 22:54:13.360
90.0, 21318.69153007168, 17673.9713757004, 47224.184539816924, 29815.81894347894, 35643.74573752234, -2584.2192869447813, 9482.079384574818, 1439.7429155996938, 0.0, 0.0, 15448.452883774387, -13607.652617413118, 1185.6929881206738, -692.7476159033318, -24400.371241613775, -33381.54803294516, 0.056, -0.002, 1.032, 192.0, 0.0, 0.0, 0.0, 0.0, 0.0, 0.0, 0.0, 0.0, 0.0, 1.747688053368967E9, 0.0, 2025-05-19 22:54:13.368
92.0, 21322.93836151819, 17681.92859672649, 47234.48869401082, 29842.171650191744, 35653.62520857158, -2548.724716749754, 9511.874259933742, 1426.8906625378922, 0.0, 0.0, 15446.083598862124, -13608.278466257867, 1191.4150347012323, -672.2063627489046, -24385.194407128623, -33375.20013751985, 0.056, -0.002, 1.032, 192.0, 0.0, 0.0, 0.0, 0.0, 0.0, 0.0, 0.0, 0.0, 0.0, 1.747688053376019E9, 0.0, 2025-05-19 22:54:13.376
94.0, 21331.297913944472, 17684.588454316672, 47247.13978137253, 29833.43211810972, 35673.361798925616, -2518.4157512683573, 9446.987145779985, 1433.3056131965654, 0.0, 0.0, 15454.264337332766, -13601.125908032169, 1215.3090495239555, -678.4424994519353, -24393.39749734372, -33373.52375668571, 0.056, -0.002, 1.032, 192.0, 0.0, 0.0, 0.0, 0.0, 0.0, 0.0, 0.0, 0.0, 0.0, 1.747688053384056E9, 0.0, 2025-05-19 22:54:13.384
96.0, 21342.093806516386, 17693.752669543348, 47258.15919138899, 29851.939362518715, 35657.53676385126, -2544.0755539030497, 9504.475832519036, 1436.8595405649592, 0.0, 0.0, 15473.330375353144, -13590.441774182533, 1217.2536512915674, -669.3006359697147, -24369.1011511208, -33371.64621015146, 0.056, -0.002, 1.032, 192.0, 0.0, 0.0, 0.0, 0.0, 0.0, 0.0, 0.0, 0.0, 0.0, 1.747688053393086E9, 0.0, 2025-05-19 22:54:13.393
98.0, 21337.13171924731, 17692.83624802068, 47254.82878146515, 29850.128871217832, 35666.38805465556, -2521.9696786367513, 9464.06387854384, 1427.1141799824454, 0.0, 0.0, 15474.2020933869, -13584.384451435144, 1247.2496923505894, -644.3337374131366, -24363.87084291826, -33341.963093514816, 0.054, -0.004, 1.032, 192.0, 0.5, 88.0, 127.5, 112.0, 16.0, 32.0, 0.0, 0.0, 0.0, 1.747688053400105E9, 0.0, 2025-05-19 22:54:13.400
100.0, 21334.516565146037, 17683.001480460345, 47246.73744997233, 29837.47778385613, 35643.83514450015, -2557.576007554055, 9477.765497894943, 1435.6525463643727, 0.0, 0.0, 15463.897939193004, -13601.148259776624, 1225.6132037178522, -684.3433599881363, -24390.312956608886, -33378.7764166327, 0.054, -0.004, 1.032, 192.0, 0.0, 0.0, 0.0, 0.0, 0.0, 0.0, 0.0, 0.0, 0.0, 1.747688053408121E9, 0.0, 2025-05-19 22:54:13.408
102.0, 21338.22695472562, 17687.248311906853, 47251.67718549695, 29862.71290334617, 35660.33073190817, -2530.1504171073934, 9492.808221913365, 1428.7905608165934, 0.0, 0.0, 15466.088410149625, -13589.570056148776, 1239.2477678355895, -653.3191386841702, -24376.410171557687, -33354.36831168751, 0.054, -0.004, 1.032, 192.0, 0.0, 0.0, 0.0, 0.0, 0.0, 0.0, 0.0, 0.0, 0.0, 1.747688053416142E9, 0.0, 2025-05-19 22:54:13.416
104.0, 21330.716768588634, 17680.051050192244, 47252.39244131952, 29841.411690880264, 35662.40944414252, -2540.7004404902987, 9428.189328693072, 1441.2181307337441, 0.0, 0.0, 15472.190436385923, -13591.939341061037, 1256.5256662995419, -649.2064177043936, -24365.189595841122, -33347.97571277329, 0.054, -0.004, 1.032, 192.0, 0.0, 0.0, 0.0, 0.0, 0.0, 0.0, 0.0, 0.0, 0.0, 1.747688053426188E9, 0.0, 2025-05-19 22:54:13.426
106.0, 21340.037446026497, 17688.276492151796, 47257.42158382197, 29860.745949834105, 35659.21314468541, -2513.9901058662067, 9502.575934240334, 1451.7234506277384, 0.0, 0.0, 15463.987346170825, -13593.191038750534, 1237.5937387458966, -657.2083422193936, -24373.102113378303, -33360.00095129025, 0.054, -0.004, 1.032, 192.0, 0.0, 0.0, 0.0, 0.0, 0.0, 0.0, 0.0, 0.0, 0.0, 1.747688053433223E9, 0.0, 2025-05-19 22:54:13.433
108.0, 21322.60308535136, 17672.0714774217, 47241.3506795586, 29849.659484584274, 35666.72333082239, -2489.1573177763603, 9465.15911402215, 1434.2667382081436, 0.0, 0.0, 15461.081619391636, -13597.057890541302, 1259.2749308675445, -629.9168622394636, -24355.511290491973, -33335.81636378961, 0.056, -0.003, 1.03, 192.0, 0.5, 104.0, 127.5, 120.0, 16.0, 16.0, 0.0, 0.0, 0.0, 1.747688053440252E9, 0.0, 2025-05-19 22:54:13.440
110.0, 21329.9344575327, 17675.82657049019, 47239.96487140237, 29840.495269357598, 35626.445487313926, -2510.1232540754386, 9478.838381628799, 1447.7448401146937, 0.0, 0.0, 15451.649183231495, -13600.589466165242, 1243.5616545154637, -667.579551646656, -24385.708497251097, -33363.1748990029, 0.056, -0.003, 1.03, 192.0, 0.0, 0.0, 0.0, 0.0, 0.0, 0.0, 0.0, 0.0, 0.0, 1.74768805344826E9, 0.0, 2025-05-19 22:54:13.448
112.0, 21322.670140584727, 17668.651660520038, 47237.97556614585, 29840.562324590963, 35659.10138596313, -2469.3760239334138, 9494.886934147708, 1435.2055114752666, 0.0, 0.0, 15450.173968097446, -13604.948056334026, 1247.5626167729638, -649.1393624710278, -24366.977735397548, -33354.90475355444, 0.056, -0.003, 1.03, 192.0, 0.0, 0.0, 0.0, 0.0, 0.0, 0.0, 0.0, 0.0, 0.0, 1.747688053456328E9, 0.0, 2025-05-19 22:54:13.456
114.0, 21310.80136427896, 17657.699305736936, 47217.83664439162, 29814.500190556075, 35624.03149891275, -2539.35933582298, 9463.929768077109, 1440.1899504888, 0.0, 0.0, 15435.086540590113, -13628.529146734376, 1244.6568899937738, -675.7155866283878, -24395.275043877966, -33373.63551540799, 0.056, -0.003, 1.03, 192.0, 0.0, 0.0, 0.0, 0.0, 0.0, 0.0, 0.0, 0.0, 0.0, 1.747688053464286E9, 0.0, 2025-05-19 22:54:13.464
116.0, 21308.521486344514, 17654.704171979927, 47228.99016487481, 29832.783917520515, 35653.66991206049, -2522.7966931815977, 9490.818916656843, 1437.1277614984228, 0.0, 0.0, 15428.58218295362, -13623.142376320646, 1229.6365177198074, -684.4998221993235, -24393.263386876988, -33387.98533534829, 0.056, -0.003, 1.03, 192.0, 0.0, 0.0, 0.0, 0.0, 0.0, 0.0, 0.0, 0.0, 0.0, 1.747688053472358E9, 0.0, 2025-05-19 22:54:13.472
118.0, 21300.69837578516, 17649.227994588375, 47215.86969087955, 29823.463240082652, 35631.92166470548, -2489.917277087841, 9463.81800935483, 1420.9450985127805, 0.0, 0.0, 15437.120549335546, -13621.421291997587, 1258.2243988781452, -662.9303887999522, -24377.661869247186, -33365.34301821506, 0.059, -0.0025, 1.0310000000000001, 192.0, 0.5, 120.0, 127.5, 120.0, 16.0, 32.0, 0.0, 0.0, 0.0, 1.747688053480374E9, 0.0, 2025-05-19 22:54:13.480
120.0, 21312.813021279933, 17654.435951046464, 47230.3983247755, 29815.461315567652, 35647.567885824195, -2508.044541841095, 9477.296111261381, 1449.0859447820121, 0.0, 0.0, 15437.366418524554, -13626.428082755576, 1247.227340606134, -694.4910519708458, -24397.286700878944, -33391.20398654985, 0.059, -0.0025, 1.0310000000000001, 192.0, 0.0, 0.0, 0.0, 0.0, 0.0, 0.0, 0.0, 0.0, 0.0, 1.747688053488414E9, 0.0, 2025-05-19 22:54:13.488
122.0, 21303.78291651999, 17648.691552721448, 47222.508158982775, 29832.627455309328, 35652.35115913763, -2458.267206939126, 9501.033663872919, 1432.545653885085, 0.0, 0.0, 15433.968953367348, -13631.680742702574, 1251.9882621751144, -667.1772202464605, -24374.242052345522, -33375.3789514755, 0.059, -0.0025, 1.0310000000000001, 192.0, 0.0, 0.0, 0.0, 0.0, 0.0, 0.0, 0.0, 0.0, 0.0, 1.747688053496443E9, 0.0, 2025-05-19 22:54:13.496
124.0, 21289.768372746512, 17636.040465359743, 47207.37602798653, 29804.866588695837, 35615.44842904191, -2536.78888521062, 9450.630480126201, 1427.5835666160067, 0.0, 0.0, 15427.375188753032, -13632.485405502965, 1262.7841547470277, -683.6728076544771, -24394.96211945559, -33380.8774806115, 0.059, -0.0025, 1.0310000000000001, 192.0, 0.0, 0.0, 0.0, 0.0, 0.0, 0.0, 0.0, 0.0, 0.0, 1.74768805350449E9, 0.0, 2025-05-19 22:54:13.504
126.0, 21297.83735249488, 17645.182328841966, 47220.60826070407, 29826.32426337293, 35630.82642922717, -2515.0853413445166, 9506.97922789803, 1434.512607397152, 0.0, 0.0, 15421.295514261188, -13634.161786337112, 1246.3556225723771, -695.7651014047982, -24401.1088491808, -33398.55771047565, 0.059, -0.0025, 1.0310000000000001, 192.0, 0.0, 0.0, 0.0, 0.0, 0.0, 0.0, 0.0, 0.0, 0.0, 1.747688053512492E9, 0.0, 2025-05-19 22:54:13.512
128.0, 21295.646881538258, 17644.176500341477, 47220.63061244853, 29820.266940625545, 35645.75739452331, -2458.244855194671, 9456.710154618044, 1420.6321740904064, 0.0, 0.0, 15438.998095869792, -13623.008265853914, 1285.6276375803516, -658.7953160757204, -24366.843624930814, -33367.242916493764, 0.058499999999999996, 0.00175, 1.0345, 192.0, 0.5, 104.0, 0.0, 24.0, 16.0, 56.0, 0.0, 0.0, 0.0, 1.747688053520501E9, 0.0, 2025-05-19 22:54:13.520
130.0, 21304.028785709, 17650.747913211337, 47221.27881303774, 29814.94722544518, 35622.77980122326, -2473.980483291207, 9484.672186931633, 1427.4271044048196, 0.0, 0.0, 15423.933020106915, -13638.498024761442, 1267.2768553825445, -704.1470055755384, -24408.0602417064, -33407.20783557985, 0.058499999999999996, 0.00175, 1.0345, 192.0, 0.0, 0.0, 0.0, 0.0, 0.0, 0.0, 0.0, 0.0, 0.0, 1.747688053527534E9, 0.0, 2025-05-19 22:54:13.527
132.0, 21298.083221683886, 17642.455416018416, 47222.575214216144, 29828.55943781846, 35635.14031590704, -2477.333244959503, 9489.880143389719, 1419.3357729119984, 0.0, 0.0, 15439.020447614248, -13623.321190276289, 1287.4157771367761, -663.9138655559857, -24364.429636529643, -33380.92218410041, 0.058499999999999996, 0.00175, 1.0345, 192.0, 0.0, 0.0, 0.0, 0.0, 0.0, 0.0, 0.0, 0.0, 0.0, 1.747688053536539E9, 0.0, 2025-05-19 22:54:13.536
134.0, 21302.195942663664, 17643.43889277445, 47226.7996939182, 29816.511847557053, 35634.134487406554, -2485.4692799412346, 9436.861805541732, 1413.3231536535209, 0.0, 0.0, 15426.212898041356, -13638.27450731689, 1291.193221949723, -686.6232379225777, -24396.63850028974, -33394.08736158459, 0.058499999999999996, 0.00175, 1.0345, 192.0, 0.0, 0.0, 0.0, 0.0, 0.0, 0.0, 0.0, 0.0, 0.0, 1.747688053544598E9, 0.0, 2025-05-19 22:54:13.544
136.0, 21308.27561715551, 17652.24548008984, 47230.64419396451, 29834.057966954468, 35639.27538863127, -2485.558686919056, 9501.100719106284, 1424.990764259191, 0.0, 0.0, 15445.189529083913, -13615.207507039013, 1293.87543128436, -679.6271419080665, -24378.377125069754, -33392.79096040618, 0.058499999999999996, 0.00175, 1.0345, 192.0, 0.0, 0.0, 0.0, 0.0, 0.0, 0.0, 0.0, 0.0, 0.0, 1.747688053552607E9, 0.0, 2025-05-19 22:54:13.552
138.0, 21296.473896083106, 17637.716846193893, 47214.30506876768, 29820.311644114456, 35617.974176165364, -2464.3245296865143, 9458.364183707738, 1410.7974065300712, 0.0, 0.0, 15431.331447521621, -13631.837204913762, 1306.6382773683404, -668.7641941027873, -24387.139008896236, -33383.60439343505, 0.057249999999999995, 8.75E-4, 1.03125, 192.0, 0.5, 96.0, 0.0, 0.0, 16.0, 16.0, 0.0, 0.0, 0.0, 1.747688053559624E9, 0.0, 2025-05-19 22:54:13.559
140.0, 21297.010337950032, 17638.186232827455, 47214.14860655649, 29812.75675448856, 35608.49703651632, -2474.4051664358576, 9456.464285429036, 1413.4349123757975, 0.0, 0.0, 15427.2410782863, -13635.07820785978, 1295.3506464184102, -699.3413805176474, -24404.863942249292, -33406.85020766857, 0.057249999999999995, 8.75E-4, 1.03125, 192.0, 0.0, 0.0, 0.0, 0.0, 0.0, 0.0, 0.0, 0.0, 0.0, 1.74768805356869E9, 0.0, 2025-05-19 22:54:13.568
142.0, 21306.64393981027, 17648.266869576797, 47230.24186256431, 29834.817926265947, 35649.69130154745, -2427.913537968819, 9484.180448553616, 1414.5524995985627, 0.0, 0.0, 15439.601592970086, -13629.51262349041, 1310.7286466036614, -669.099470269617, -24377.90773843619, -33388.27590802621, 0.057249999999999995, 8.75E-4, 1.03125, 192.0, 0.0, 0.0, 0.0, 0.0, 0.0, 0.0, 0.0, 0.0, 0.0, 1.747688053576691E9, 0.0, 2025-05-19 22:54:13.576
144.0, 21314.69056781418, 17652.11136962311, 47235.06983936666, 29830.81696400845, 35638.94011246444, -2415.1283401403834, 9440.080456743295, 1422.3979619023755, 0.0, 0.0, 15448.229366329833, -13620.370760008189, 1335.4049724823205, -674.9332755724521, -24385.1050001508, -33386.08543706959, 0.057249999999999995, 8.75E-4, 1.03125, 192.0, 0.0, 0.0, 0.0, 0.0, 0.0, 0.0, 0.0, 0.0, 0.0, 1.747688053583714E9, 0.0, 2025-05-19 22:54:13.583
146.0, 21313.684739313692, 17653.988916157356, 47232.54409224321, 29843.423347881242, 35622.35511807861, -2453.372174903414, 9511.717797722555, 1433.6185376189396, 0.0, 0.0, 15453.839654188116, -13612.45824247101, 1331.001678824625, -671.8263830931644, -24376.030191901948, -33389.79582664917, 0.057249999999999995, 8.75E-4, 1.03125, 192.0, 0.0, 0.0, 0.0, 0.0, 0.0, 0.0, 0.0, 0.0, 0.0, 1.747688053591736E9, 0.0, 2025-05-19 22:54:13.591
148.0, 21302.9782537196, 17645.517605008794, 47228.029039863235, 29844.18330719272, 35632.50281006131, -2428.494683324657, 9448.641174869677, 1402.862537248437, 0.0, 0.0, 15445.591860484108, -13610.26777151439, 1352.5711122239964, -656.8954177970193, -24376.700744235604, -33368.60637290554, 0.054625, -0.0015625, 1.0306250000000001, 192.0, 0.5, 80.0, 127.5, 112.0, 16.0, 24.0, 0.0, 0.0, 0.0, 1.747688053600747E9, 0.0, 2025-05-19 22:54:13.600
150.0, 21305.12402118731, 17644.601183486127, 47223.64809795, 29828.827658751925, 35609.97225165037, -2446.6666515668217, 9468.489523945991, 1422.8897002803924, 0.0, 0.0, 15436.137072579513, -13619.431986741065, 1337.0142980831026, -696.5027089718234, -24408.68609055115, -33400.2340913098, 0.054625, -0.0015625, 1.0306250000000001, 192.0, 0.0, 0.0, 0.0, 0.0, 0.0, 0.0, 0.0, 0.0, 0.0, 1.747688053607779E9, 0.0, 2025-05-19 22:54:13.607
152.0, 21312.45539336865, 17651.619631245092, 47241.596548747606, 29851.022940996045, 35639.56596130919, -2446.0184509776177, 9462.946291321075, 1412.3843803863979, 0.0, 0.0, 15460.63458450253, -13605.864477856694, 1360.3942227833538, -654.615539862578, -24360.83100567234, -33374.529585186196, 0.054625, -0.0015625, 1.0306250000000001, 192.0, 0.0, 0.0, 0.0, 0.0, 0.0, 0.0, 0.0, 0.0, 0.0, 1.747688053615859E9, 0.0, 2025-05-19 22:54:13.615
154.0, 21303.961730475632, 17643.617706730092, 47223.78220841673, 29827.419498851243, 35616.029574397755, -2403.885412679364, 9437.82293055331, 1415.9830112437023, 0.0, 0.0, 15446.620040729053, -13618.604972196219, 1362.6964524622504, -681.1470605310275, -24396.370279356277, -33392.209815050344, 0.054625, -0.0015625, 1.0306250000000001, 192.0, 0.0, 0.0, 0.0, 0.0, 0.0, 0.0, 0.0, 0.0, 0.0, 1.747688053624852E9, 0.0, 2025-05-19 22:54:13.624
156.0, 21311.583675334892, 17648.445683532438, 47229.79482767521, 29845.90439151578, 35617.19186510943, -2422.7055815107324, 9486.057995087862, 1422.1744444578226, 0.0, 0.0, 15449.972802397348, -13614.872230872183, 1354.4263070137868, -676.5202494287788, -24382.713363494084, -33394.936727873894, 0.054625, -0.0015625, 1.0306250000000001, 192.0, 0.0, 0.0, 0.0, 0.0, 0.0, 0.0, 0.0, 0.0, 0.0, 1.747688053632864E9, 0.0, 2025-05-19 22:54:13.632
158.0, 21313.952960247156, 17651.68668647846, 47234.600452733095, 29850.128871217832, 35631.65344377201, -2427.980593202185, 9454.96671855053, 1411.5573658415517, 0.0, 0.0, 15451.448017531398, -13608.792556380338, 1382.4553945607418, -649.4969903823127, -24371.73865696653, -33367.91346882743, 0.0583125, -0.00178125, 1.0283125000000002, 192.0, 0.5, 120.0, 127.5, 120.0, 16.0, 8.0, 0.0, 0.0, 0.0, 1.747688053639883E9, 0.0, 2025-05-19 22:54:13.639
160.0, 21308.946169489165, 17646.97046839839, 47228.520778241254, 29834.013263465557, 35604.965460892374, -2382.5171449800905, 9469.741221635488, 1421.3250781685208, 0.0, 0.0, 15453.549081510197, -13613.084091315759, 1374.4311183012867, -681.0129500642956, -24392.0563926764, -33394.444989495874, 0.0583125, -0.00178125, 1.0283125000000002, 192.0, 0.0, 0.0, 0.0, 0.0, 0.0, 0.0, 0.0, 0.0, 0.0, 1.747688053647911E9, 0.0, 2025-05-19 22:54:13.647
162.0, 21304.74404153157, 17640.086131106156, 47233.99695563281, 29848.631304339327, 35643.8127927557, -2404.0418748905513, 9470.501180946969, 1407.4669966062304, 0.0, 0.0, 15445.457750017376, -13615.699245417029, 1375.1463741238565, -660.3152346986813, -24374.934956423636, -33382.06212306763, 0.0583125, -0.00178125, 1.0283125000000002, 192.0, 0.0, 0.0, 0.0, 0.0, 0.0, 0.0, 0.0, 0.0, 0.0, 1.747688053656952E9, 0.0, 2025-05-19 22:54:13.656
164.0, 21297.21150365013, 17630.49723273483, 47225.70445843988, 29824.312606371954, 35617.16951336498, -2436.2730903951037, 9439.432256154092, 1417.480578122208, 0.0, 0.0, 15446.396523284498, -13622.091844331248, 1387.864516718926, -668.0489382802175, -24378.578290769852, -33384.520814957716, 0.0583125, -0.00178125, 1.0283125000000002, 192.0, 0.0, 0.0, 0.0, 0.0, 0.0, 0.0, 0.0, 0.0, 0.0, 1.747688053663993E9, 0.0, 2025-05-19 22:54:13.663
166.0, 21307.515657844026, 17643.282430563264, 47230.77830443124, 29841.501097858087, 35605.390144037025, -2376.012787343596, 9503.000617384985, 1426.130703226412, 0.0, 0.0, 15445.189529083913, -13627.188042067057, 1372.9111996783256, -679.7165488858877, -24387.608395529795, -33401.79871342167, 0.0583125, -0.00178125, 1.0283125000000002, 192.0, 0.0, 0.0, 0.0, 0.0, 0.0, 0.0, 0.0, 0.0, 0.0, 1.747688053671956E9, 0.0, 2025-05-19 22:54:13.671
168.0, 21286.348555844852, 17623.076453575668, 47213.63451643402, 29827.195981406687, 35606.50773125979, -2418.1011221529393, 9453.49150341648, 1409.031618718102, 0.0, 0.0, 15439.668648203451, -13623.254135042924, 1395.8440894894707, -656.6719003524662, -24377.86303494728, -33375.714227642326, 0.05915625, 0.0011093750000000001, 1.0291562500000002, 192.0, 0.5, 112.0, 0.0, 16.0, 16.0, 24.0, 0.0, 0.0, 0.0, 1.747688053680046E9, 0.0, 2025-05-19 22:54:13.680
170.0, 21298.753774017547, 17633.559421725204, 47227.78317067423, 29833.65563555427, 35604.76429519228, -2415.7988924740425, 9452.977413294007, 1420.0510287345683, 0.0, 0.0, 15437.321715035645, -13630.898431646638, 1383.3271125944989, -687.8078803787089, -24396.124410167267, -33405.50910300125, 0.05915625, 0.0011093750000000001, 1.0291562500000002, 192.0, 0.0, 0.0, 0.0, 0.0, 0.0, 0.0, 0.0, 0.0, 0.0, 1.747688053689033E9, 0.0, 2025-05-19 22:54:13.689
172.0, 21298.41849785072, 17632.620648458083, 47232.00765037628, 29848.631304339327, 35615.76135346429, -2382.919476380286, 9480.224189785027, 1406.5729268280181, 0.0, 0.0, 15446.173005839946, -13616.772129150884, 1401.2308599031999, -652.8274003061534, -24365.97190689706, -33379.5810794331, 0.05915625, 0.0011093750000000001, 1.0291562500000002, 192.0, 0.0, 0.0, 0.0, 0.0, 0.0, 0.0, 0.0, 0.0, 0.0, 1.747688053696098E9, 0.0, 2025-05-19 22:54:13.696
174.0, 21301.16776241872, 17633.78293916976, 47232.074705609644, 29828.827658751925, 35610.24047258383, -2385.4452235037356, 9428.010514737429, 1408.383418128898, 0.0, 0.0, 15446.687095962418, -13624.014094354403, 1414.4407408762863, -671.2452377373264, -24383.741543739026, -33392.74625691727, 0.05915625, 0.0011093750000000001, 1.0291562500000002, 192.0, 0.0, 0.0, 0.0, 0.0, 0.0, 0.0, 0.0, 0.0, 0.0, 1.747688053704125E9, 0.0, 2025-05-19 22:54:13.704
176.0, 21299.89371298477, 17633.425311258474, 47228.05139160769, 29838.01422572306, 35615.962519164386, -2372.570618697479, 9482.839343886299, 1417.2347089331997, 0.0, 0.0, 15451.380962298032, -13623.432948998565, 1405.9247262388142, -675.0897377836392, -24379.472360548065, -33401.441085510385, 0.05915625, 0.0011093750000000001, 1.0291562500000002, 192.0, 0.0, 0.0, 0.0, 0.0, 0.0, 0.0, 0.0, 0.0, 0.0, 1.747688053712166E9, 0.0, 2025-05-19 22:54:13.712
178.0, 21296.16097166073, 17630.027846101268, 47230.84535966461, 29847.066682227458, 35604.27255681426, -2393.04481661854, 9462.029869798407, 1396.6040488009512, 0.0, 0.0, 15448.430532029932, -13618.068530329292, 1430.1093137394564, -650.2345979493377, -24367.58123249784, -33374.239012508275, 0.059578124999999996, -4.4531249999999996E-4, 1.0305781250000001, 192.0, 0.5, 112.0, 127.5, 120.0, 16.0, 32.0, 0.0, 0.0, 0.0, 1.747688053720207E9, 0.0, 2025-05-19 22:54:13.720
180.0, 21299.580788562394, 17627.502098977817, 47224.877443895035, 29830.81696400845, 35589.83332989614, -2401.4490725337355, 9464.242692499482, 1413.3231536535209, 0.0, 0.0, 15442.954354638381, -13623.477652487476, 1416.5865083439958, -691.741787402843, -24404.03692770445, -33408.347774547074, 0.059578124999999996, -4.4531249999999996E-4, 1.0305781250000001, 192.0, 0.0, 0.0, 0.0, 0.0, 0.0, 0.0, 0.0, 0.0, 0.0, 1.747688053728242E9, 0.0, 2025-05-19 22:54:13.728
182.0, 21304.60993106484, 17632.68770369145, 47244.34581331561, 29854.398054408797, 35633.59804553963, -2379.9243426232747, 9464.197989010572, 1408.1375489398897, 0.0, 0.0, 15464.233215359835, -13611.564172692797, 1437.217168476244, -647.12770547005, -24351.242107301012, -33376.60829742054, 0.059578124999999996, -4.4531249999999996E-4, 1.0305781250000001, 192.0, 0.0, 0.0, 0.0, 0.0, 0.0, 0.0, 0.0, 0.0, 0.0, 1.747688053736224E9, 0.0, 2025-05-19 22:54:13.736
184.0, 21293.0764309259, 17623.143508809033, 47221.27881303774, 29824.938455216703, 35615.113152875085, -2364.0322523155514, 9432.436160139581, 1411.1997379302668, 0.0, 0.0, 15445.703619206384, -13630.160824079612, 1437.9547760432692, -670.999368548318, -24382.556901282896, -33392.83566389509, 0.059578124999999996, -4.4531249999999996E-4, 1.0305781250000001, 192.0, 0.0, 0.0, 0.0, 0.0, 0.0, 0.0, 0.0, 0.0, 0.0, 1.747688053745271E9, 0.0, 2025-05-19 22:54:13.745
186.0, 21312.857724768844, 17643.170671840988, 47247.92209242846, 29855.09095848691, 35629.19475188193, -2363.6746244042665, 9480.87239037423, 1414.8877757653925, 0.0, 0.0, 15450.017505886259, -13624.394074010144, 1432.836226563004, -675.6485313950219, -24377.125427380255, -33404.14564658948, 0.059578124999999996, -4.4531249999999996E-4, 1.0305781250000001, 192.0, 0.0, 0.0, 0.0, 0.0, 0.0, 0.0, 0.0, 0.0, 0.0, 1.747688053752285E9, 0.0, 2025-05-19 22:54:13.752
188.0, 21295.73628851608, 17627.34563676663, 47227.760818929775, 29844.13860370381, 35601.411533523984, -2341.948728793708, 9472.937521092597, 1400.1132726804344, 0.0, 0.0, 15465.797837471706, -13606.155050534613, 1472.6223316934504, -642.6350048345333, -24356.49476724801, -33367.73465487178, 0.0597890625, -0.00222265625, 1.0312890625, 192.0, 0.5, 112.0, 127.5, 112.0, 16.0, 32.0, 0.0, 0.0, 0.0, 1.747688053760347E9, 0.0, 2025-05-19 22:54:13.760
190.0, 21303.134715930788, 17629.044369345233, 47237.886159168025, 29838.841240267902, 35615.13550461954, -2356.343252222926, 9447.098904502262, 1410.9538687412582, 0.0, 0.0, 15451.358610553576, -13623.589411209752, 1448.3036337260764, -684.7009878994213, -24388.63657577474, -33405.50910300125, 0.0597890625, -0.00222265625, 1.0312890625, 192.0, 0.0, 0.0, 0.0, 0.0, 0.0, 0.0, 0.0, 0.0, 0.0, 1.747688053768354E9, 0.0, 2025-05-19 22:54:13.768
192.0, 21292.987023948077, 17623.143508809033, 47218.954231614385, 29843.892734514804, 35589.587460707124, -2382.1595170688056, 9493.679939947122, 1398.3921883573757, 0.0, 0.0, 15459.785218213228, -13607.071472057281, 1465.223904278744, -649.5640456156785, -24353.20906081308, -33379.93870734438, 0.0597890625, -0.00222265625, 1.0312890625, 192.0, 0.0, 0.0, 0.0, 0.0, 0.0, 0.0, 0.0, 0.0, 0.0, 1.747688053777364E9, 0.0, 2025-05-19 22:54:13.777
194.0, 21294.998680949055, 17624.126985565064, 47228.6995921969, 29837.1425076893, 35602.462065513384, -2348.0507550300067, 9430.133930460684, 1403.1084064374456, 0.0, 0.0, 15436.785273168716, -13630.585507224263, 1460.3065204985762, -686.1538512890162, -24398.44899159062, -33406.76080069075, 0.0597890625, -0.00222265625, 1.0312890625, 192.0, 0.0, 0.0, 0.0, 0.0, 0.0, 0.0, 0.0, 0.0, 0.0, 1.7476880537844E9, 0.0, 2025-05-19 22:54:13.784
196.0, 21304.16289617573, 17630.54193622374, 47239.987223146825, 29854.018074753058, 35628.52419954827, -2321.4521791281913, 9477.40786998366, 1409.0986739514678, 0.0, 0.0, 15458.95820366838, -13612.771166893384, 1466.0956223125008, -666.8419440796309, -24363.96024989608, -33394.91437612943, 0.0597890625, -0.00222265625, 1.0312890625, 192.0, 0.0, 0.0, 0.0, 0.0, 0.0, 0.0, 0.0, 0.0, 0.0, 1.747688053792436E9, 0.0, 2025-05-19 22:54:13.792
198.0, 21287.421439578706, 17618.807270384703, 47221.92701362694, 29843.62451358134, 35607.982946393844, -2386.607514215412, 9460.398192453169, 1400.8508802474596, 0.0, 0.0, 15457.840616445616, -13611.497117459432, 1491.2413348247212, -644.1102199685836, -24355.198366069602, -33376.74240788727, 0.05789453125, -1.1132812499999988E-4, 1.03164453125, 192.0, 0.5, 96.0, 0.0, 8.0, 16.0, 32.0, 0.0, 0.0, 0.0, 1.74768805380041E9, 0.0, 2025-05-19 22:54:13.800
200.0, 21289.611910535325, 17621.333017508154, 47229.88423465303, 29841.031711224525, 35596.36003927708, -2356.857342345398, 9453.826779583309, 1406.8634995059372, 0.0, 0.0, 15436.137072579513, -13632.59716422524, 1464.3968897338975, -691.7641391472982, -24401.35471836981, -33417.33317581811, 0.05789453125, -1.1132812499999988E-4, 1.03164453125, 192.0, 0.0, 0.0, 0.0, 0.0, 0.0, 0.0, 0.0, 0.0, 0.0, 1.747688053807482E9, 0.0, 2025-05-19 22:54:13.807
202.0, 21297.83735249488, 17624.238744287344, 47237.3497173011, 29859.20367946669, 35611.87214992907, -2303.011989952563, 9467.617805912234, 1399.7779965136049, 0.0, 0.0, 15463.808532215184, -13612.033559326359, 1494.571744748562, -644.3113856686814, -24349.811595655872, -33381.83860562308, 0.05789453125, -1.1132812499999988E-4, 1.03164453125, 192.0, 0.0, 0.0, 0.0, 0.0, 0.0, 0.0, 0.0, 0.0, 0.0, 1.747688053816518E9, 0.0, 2025-05-19 22:54:13.816
204.0, 21291.69062276967, 17620.550706452217, 47227.87257765205, 29841.27758041353, 35591.93439387493, -2320.915737261264, 9429.038694982373, 1395.4641098337306, 0.0, 0.0, 15453.10204662109, -13615.855707628216, 1503.668904741872, -663.578589389156, -24376.186654113135, -33386.89009986998, 0.05789453125, -1.1132812499999988E-4, 1.03164453125, 192.0, 0.0, 0.0, 0.0, 0.0, 0.0, 0.0, 0.0, 0.0, 0.0, 1.747688053824547E9, 0.0, 2025-05-19 22:54:13.824
206.0, 21301.97242521911, 17629.781976912258, 47244.63638599353, 29858.734292833127, 35617.214216853885, -2308.398760366292, 9482.682881675111, 1407.288182650588, 0.0, 0.0, 15463.540311281718, -13610.69245465904, 1496.7175122162716, -665.7020051124102, -24367.849453431303, -33398.3341930311, 0.05789453125, -1.1132812499999988E-4, 1.03164453125, 192.0, 0.0, 0.0, 0.0, 0.0, 0.0, 0.0, 0.0, 0.0, 0.0, 1.747688053832557E9, 0.0, 2025-05-19 22:54:13.832
208.0, 21294.909273971232, 17623.769357653782, 47239.11550511307, 29854.375702664343, 35619.874074444066, -2345.793228840021, 9446.718924846522, 1400.4038453583535, 0.0, 0.0, 15467.876549706049, -13607.74202439094, 1526.735905019749, -639.9304437554412, -24347.934049121624, -33377.9270503434, 0.056947265625, 9.443359375000001E-4, 1.030822265625, 192.0, 0.5, 96.0, 0.0, 8.0, 16.0, 24.0, 0.0, 0.0, 0.0, 1.747688053839528E9, 0.0, 2025-05-19 22:54:13.839
210.0, 21297.21150365013, 17627.882078633556, 47234.466342266365, 29845.882039771324, 35580.46794896936, -2305.403626609281, 9473.92099784863, 1419.0675519785348, 0.0, 0.0, 15459.29347983521, -13616.392149495143, 1511.469663556774, -680.4094529640023, -24387.4072298297, -33408.95127164737, 0.056947265625, 9.443359375000001E-4, 1.030822265625, 192.0, 0.0, 0.0, 0.0, 0.0, 0.0, 0.0, 0.0, 0.0, 0.0, 1.747688053848613E9, 0.0, 2025-05-19 22:54:13.848
212.0, 21294.73046001559, 17627.077415833166, 47241.328327814146, 29859.58365912243, 35624.545589035224, -2323.6426500848115, 9469.383593724204, 1399.9121069803366, 0.0, 0.0, 15465.619023516063, -13612.212373282002, 1523.316088118087, -645.8313042916423, -24352.113825334767, -33386.51012021424, 0.056947265625, 9.443359375000001E-4, 1.030822265625, 192.0, 0.0, 0.0, 0.0, 0.0, 0.0, 0.0, 0.0, 0.0, 0.0, 1.747688053856644E9, 0.0, 2025-05-19 22:54:13.856
214.0, 21288.53902680147, 17619.52252620727, 47227.55965322968, 29838.95299899018, 35595.01893460977, -2294.697141015189, 9416.901697743142, 1383.3718160834094, 0.0, 0.0, 15456.588918756119, -13616.45920472851, 1532.770876022682, -666.998406290818, -24376.0525436464, -33400.36820177653, 0.056947265625, 9.443359375000001E-4, 1.030822265625, 192.0, 0.0, 0.0, 0.0, 0.0, 0.0, 0.0, 0.0, 0.0, 0.0, 1.747688053863637E9, 0.0, 2025-05-19 22:54:13.863
216.0, 21299.983119962588, 17627.122119322077, 47240.79188594722, 29853.883964286324, 35593.923699131454, -2285.041187410496, 9490.885971890208, 1413.0102292311465, 0.0, 0.0, 15463.562663026174, -13616.280390772867, 1521.4385415838412, -669.3676912030807, -24374.666735490173, -33409.822989681124, 0.056947265625, 9.443359375000001E-4, 1.030822265625, 192.0, 0.0, 0.0, 0.0, 0.0, 0.0, 0.0, 0.0, 0.0, 0.0, 1.747688053871714E9, 0.0, 2025-05-19 22:54:13.871
218.0, 21289.678965768693, 17620.237782029842, 47234.28752831072, 29858.13079573283, 35600.31629804568, -2287.254010111572, 9464.130933777205, 1389.1385661528786, 0.0, 0.0, 15469.15059914, -13613.59818143823, 1551.054602987123, -639.2822431662373, -24356.360656781275, -33379.42461722191, 0.0574736328125, -5.2783203125E-4, 1.0314111328125, 192.0, 0.5, 104.0, 127.5, 120.0, 16.0, 32.0, 0.0, 0.0, 0.0, 1.747688053880719E9, 0.0, 2025-05-19 22:54:13.880
220.0, 21294.372832104305, 17621.802404141716, 47237.01444113427, 29844.228010681632, 35599.77985617875, -2328.0906472314177, 9429.306915915837, 1403.8460140044706, 0.0, 0.0, 15454.353744310589, -13621.309533275311, 1532.1003236890226, -682.1528890315162, -24389.530645552954, -33413.91335891645, 0.0574736328125, -5.2783203125E-4, 1.0314111328125, 192.0, 0.0, 0.0, 0.0, 0.0, 0.0, 0.0, 0.0, 0.0, 0.0, 1.747688053887747E9, 0.0, 2025-05-19 22:54:13.887
222.0, 21289.12017215731, 17621.221258785878, 47235.91920565596, 29861.52826089004, 35609.12288536107, -2276.4134140507476, 9479.620692684734, 1400.8508802474596, 0.0, 0.0, 15466.803665972195, -13609.17253603608, 1550.764030309204, -646.0324699917401, -24355.220717814056, -33386.59952719206, 0.0574736328125, -5.2783203125E-4, 1.0314111328125, 192.0, 0.0, 0.0, 0.0, 0.0, 0.0, 0.0, 0.0, 0.0, 0.0, 1.747688053895733E9, 0.0, 2025-05-19 22:54:13.895
224.0, 21279.799494719446, 17609.844220858125, 47227.51494974076, 29836.986045478112, 35594.504844487295, -2322.145083206306, 9435.096017729762, 1404.7177320382277, 0.0, 0.0, 15457.684154234428, -13623.254135042924, 1555.3014344336314, -665.0761562676616, -24378.622994258763, -33399.02709710921, 0.0574736328125, -5.2783203125E-4, 1.0314111328125, 192.0, 0.0, 0.0, 0.0, 0.0, 0.0, 0.0, 0.0, 0.0, 0.0, 1.747688053903885E9, 0.0, 2025-05-19 22:54:13.903
226.0, 21296.697413527658, 17622.517659964284, 47241.08245862513, 29858.801348066492, 35604.42901902545, -2263.203533077661, 9479.307768262359, 1408.1151971954343, 0.0, 0.0, 15459.360535068578, -13620.951905364027, 1542.4491813718298, -668.6747871249661, -24373.57150001186, -33409.57712049212, 0.0574736328125, -5.2783203125E-4, 1.0314111328125, 192.0, 0.0, 0.0, 0.0, 0.0, 0.0, 0.0, 0.0, 0.0, 0.0, 1.747688053912833E9, 0.0, 2025-05-19 22:54:13.912
228.0, 21284.247491866052, 17613.711072648894, 47227.49259799631, 29846.61964733835, 35610.1063621171, -2274.915847172242, 9437.979392764497, 1377.158031124834, 0.0, 0.0, 15463.67442174845, -13615.252210527922, 1573.1157747645111, -645.5407316137233, -24357.72411319305, -33388.74529465977, 0.0574736328125, -5.2783203125E-4, 1.0314111328125, 192.0, 0.0, 0.0, 0.0, 0.0, 0.0, 0.0, 0.0, 0.0, 0.0, 1.747688053919843E9, 0.0, 2025-05-19 22:54:13.919
230.0, 21290.103648913344, 17615.141584294033, 47234.10871435508, 29846.396129893797, 35581.13850130302, -2316.60185058139, 9454.095000516772, 1394.8829644778925, 0.0, 0.0, 15447.67057271845, -13624.394074010144, 1553.8485710440364, -689.0595780682062, -24402.517009081486, -33420.84239969759, 0.062, -0.006, 1.03, 192.0, 0.5, 120.0, 127.5, 104.0, 16.0, 24.0, 0.0, 0.0, 0.0, 1.747688053927833E9, 0.0, 2025-05-19 22:54:13.927
232.0, 21289.701317513147, 17617.846145373125, 47247.63151975054, 29866.803272581492, 35611.201597595405, -2255.961567874142, 9469.562407679845, 1400.605011058451, 0.0, 0.0, 15467.988308428325, -13614.983989594459, 1575.5521149101396, -639.8633885220753, -24345.788281653917, -33388.34296325957, 0.062, -0.006, 1.03, 192.0, 0.0, 0.0, 0.0, 0.0, 0.0, 0.0, 0.0, 0.0, 0.0, 1.747688053936877E9, 0.0, 2025-05-19 22:54:13.936
234.0, 21280.98413717558, 17610.224200513865, 47230.30891779768, 29845.703225815683, 35590.302716529695, -2250.6865561826894, 9432.838491539776, 1394.5923917999735, 0.0, 0.0, 15463.517959537265, -13616.190983795046, 1586.213897015321, -655.7554788297986, -24368.274136575954, -33388.8794051265, 0.062, -0.006, 1.03, 192.0, 0.0, 0.0, 0.0, 0.0, 0.0, 0.0, 0.0, 0.0, 0.0, 1.747688053943888E9, 0.0, 2025-05-19 22:54:13.943
236.0, 21286.907349456233, 17613.420499970973, 47243.29528132621, 29859.650714355794, 35603.69141145842, -2268.277379069016, 9485.812125898854, 1400.9179354808255, 0.0, 0.0, 15455.627793744541, -13621.98008560897, 1565.0467950161453, -668.0042347913069, -24370.039924387926, -33408.146608846975, 0.062, -0.006, 1.03, 192.0, 0.0, 0.0, 0.0, 0.0, 0.0, 0.0, 0.0, 0.0, 0.0, 1.747688053951998E9, 0.0, 2025-05-19 22:54:13.951
238.0, 21276.69260224016, 17602.691662632427, 47230.80065617569, 29853.213411952667, 35600.67392595696, -2269.2161523361387, 9443.209700967038, 1387.0151504296246, 0.0, 0.0, 15464.255567104288, -13615.095748316735, 1597.2556587762426, -640.7351065558322, -24354.326648035843, -33381.592736434075, 0.062, -0.006, 1.03, 192.0, 0.0, 0.0, 0.0, 0.0, 0.0, 0.0, 0.0, 0.0, 0.0, 1.747688053960004E9, 0.0, 2025-05-19 22:54:13.960
240.0, 21278.860721452325, 17605.463278944884, 47229.75012418629, 29842.10459495838, 35588.80514965119, -2288.5504112899794, 9446.830683568798, 1395.0394266890796, 0.0, 0.0, 15449.39165704151, -13632.820681669795, 1575.8203358436033, -684.2316012658598, -24390.089439164334, -33421.95998692036, 0.064, -0.002, 1.038, 192.0, 1.0, 0.0, 127.5, 120.0, 16.0, 56.0, 0.0, 0.0, 0.0, 1.747688053968998E9, 0.0, 2025-05-19 22:54:13.968
242.0, 21278.413686563217, 17607.05025280121, 47236.276833567244, 29858.95781027768, 35602.596175980114, -2255.983919618597, 9483.509896219957, 1387.059853918535, 0.0, 0.0, 15467.29540435021, -13620.415463497098, 1593.5452691966618, -648.9605485153853, -24352.940839879615, -33398.17773081991, 0.064, -0.002, 1.038, 192.0, 0.0, 0.0, 0.0, 0.0, 0.0, 0.0, 0.0, 0.0, 0.0, 1.747688053976065E9, 0.0, 2025-05-19 22:54:13.976
244.0, 21278.704259241138, 17602.11051727659, 47224.25159505029, 29835.62258906634, 35581.22790828084, -2228.7147913831227, 9430.223337438505, 1387.551592296552, 0.0, 0.0, 15453.191453598913, -13634.139434592658, 1598.596763443561, -676.0732145396727, -24386.848436218315, -33416.57321650663, 0.064, -0.002, 1.038, 192.0, 0.0, 0.0, 0.0, 0.0, 0.0, 0.0, 0.0, 0.0, 0.0, 1.747688053984109E9, 0.0, 2025-05-19 22:54:13.984
246.0, 21293.724631515102, 17619.433119229452, 47249.19614186241, 29870.826586583447, 35607.066524871174, -2252.832323650399, 9460.01821279743, 1393.452452832753, 0.0, 0.0, 15468.480046806342, -13616.727425661973, 1600.69782742236, -666.8419440796309, -24368.475302276052, -33410.02415538122, 0.064, -0.002, 1.038, 192.0, 0.0, 0.0, 0.0, 0.0, 0.0, 0.0, 0.0, 0.0, 0.0, 1.747688053992133E9, 0.0, 2025-05-19 22:54:13.992
248.0, 21274.904462683735, 17601.596427154116, 47224.36335377257, 29852.028769496534, 35585.63120193854, -2262.577684232913, 9453.469151672025, 1382.2095253717334, 0.0, 0.0, 15467.96595668387, -13607.451451713021, 1626.6482027349714, -640.869217022564, -24352.02441835695, -33385.0796085691, 0.064, -0.002, 1.038, 192.0, 0.0, 0.0, 0.0, 0.0, 0.0, 0.0, 0.0, 0.0, 0.0, 1.747688054000164E9, 0.0, 2025-05-19 22:54:14.000
250.0, 21282.9734424321, 17605.686796389436, 47235.360412044574, 29843.423347881242, 35598.483455000336, -2246.1715038027173, 9441.376857921703, 1401.3649703699316, 0.0, 0.0, 15449.279898319233, -13636.061684615814, 1598.6638186769271, -687.6067146786112, -24395.297395622423, -33428.218475367845, 0.064, -0.004, 1.032, 192.0, 1.0, 0.0, 127.5, 112.0, 16.0, 32.0, 0.0, 0.0, 0.0, 1.74768805400817E9, 0.0, 2025-05-19 22:54:14.008
252.0, 21291.64591928076, 17615.320398249674, 47249.93374942944, 29872.368856950863, 35618.890597688034, -2216.980125544086, 9456.285471473393, 1384.13177539489, 0.0, 0.0, 15473.710355008883, -13612.033559326359, 1626.402333545963, -641.4950658673127, -24343.75427290848, -33394.9814313628, 0.064, -0.004, 1.032, 192.0, 0.0, 0.0, 0.0, 0.0, 0.0, 0.0, 0.0, 0.0, 0.0, 1.747688054016169E9, 0.0, 2025-05-19 22:54:14.016
254.0, 21278.368983074306, 17603.317511477177, 47225.503292739784, 29838.57301933444, 35581.697294914404, -2239.309518254938, 9422.735503045977, 1371.6595019888284, 0.0, 0.0, 15461.551006025196, -13621.868326886693, 1633.2196156048317, -661.5222288992678, -24369.168206354167, -33406.42552452392, 0.064, -0.004, 1.032, 192.0, 0.0, 0.0, 0.0, 0.0, 0.0, 0.0, 0.0, 0.0, 0.0, 1.747688054025184E9, 0.0, 2025-05-19 22:54:14.025
0.0, 21279.620680763805, 17604.39039521103, 47234.399287033, 29853.749853819594, 35588.17930080644, -2239.8459601218656, 9489.142535822695, 1402.7731302706159, 0.0, 0.0, 15452.00681114278, -13630.719617690995, 1609.9290978824017, -678.8001273632202, -24381.059334404392, -33427.659681756464, 0.064, -0.004, 1.032, 192.0, 0.0, 0.0, 0.0, 0.0, 0.0, 0.0, 0.0, 0.0, 0.0, 1.747688054031248E9, 0.0, 2025-05-19 22:54:14.031
2.0, 21283.487532554573, 17606.066776045176, 47241.12716211405, 29866.020961525555, 35602.64087946903, -2230.1676547727175, 9447.434180669092, 1389.2279731306999, 0.0, 0.0, 15471.318718352166, -13613.397015738132, 1650.8327902356136, -635.84007452012, -24345.87768863174, -33386.42071323642, 0.064, -0.004, 1.032, 192.0, 0.0, 0.0, 0.0, 0.0, 0.0, 0.0, 0.0, 0.0, 0.0, 1.74768805404025E9, 0.0, 2025-05-19 22:54:14.040
4.0, 21281.185302875674, 17603.96571206638, 47229.370144530556, 29845.278542671032, 35575.148233789, -2230.413523961726, 9451.636308626688, 1398.638057546384, 0.0, 0.0, 15457.661802489973, -13624.014094354403, 1631.6996969818708, -680.6329704085554, -24387.4072298297, -33423.92694043242, 0.064, -0.006, 1.03, 192.0, 1.0, 0.0, 127.5, 104.0, 16.0, 24.0, 0.0, 0.0, 0.0, 1.74768805404829E9, 0.0, 2025-05-19 22:54:14.048
6.0, 21294.35048035985, 17616.974427339366, 47250.49254304082, 29885.265813501577, 35613.2579580853, -2185.2630001620055, 9463.460381443547, 1386.0540254180462, 0.0, 0.0, 15473.68800326443, -13605.238629011945, 1654.3867176040076, -635.7953710312094, -24338.43455772812, -33387.02421033671, 0.064, -0.006, 1.03, 192.0, 0.0, 0.0, 0.0, 0.0, 0.0, 0.0, 0.0, 0.0, 0.0, 1.747688054056316E9, 0.0, 2025-05-19 22:54:14.056
8.0, 21283.889863954766, 17603.496325432818, 47231.806484676184, 29849.368911906353, 35582.121978059055, -2194.114290966307, 9415.426482609091, 1386.6351707738843, 0.0, 0.0, 15461.327488580644, -13617.733254162462, 1661.2263514073315, -658.2141707198824, -24373.77266571196, -33398.49065524228, 0.064, -0.006, 1.03, 192.0, 0.0, 0.0, 0.0, 0.0, 0.0, 0.0, 0.0, 0.0, 0.0, 1.747688054064358E9, 0.0, 2025-05-19 22:54:14.064
10.0, 21298.083221683886, 17614.940418593935, 47249.19614186241, 29874.33581046293, 35612.83327494065, -2205.0889974938627, 9474.613901926745, 1395.3747028559094, 0.0, 0.0, 15478.381869600044, -13612.100614559724, 1656.666595538449, -653.2073799618936, -24351.644438701205, -33401.46343725484, 0.064, -0.006, 1.03, 192.0, 0.0, 0.0, 0.0, 0.0, 0.0, 0.0, 0.0, 0.0, 0.0, 1.747688054072411E9, 0.0, 2025-05-19 22:54:14.072
12.0, 21271.842273693357, 17592.119287505066, 47224.34100202811, 29852.900487530293, 35580.24443152481, -2206.3630469278155, 9444.371991678714, 1376.8451067024598, 0.0, 0.0, 15467.116590394568, -13615.341617505745, 1672.2457614237978, -640.5786443446451, -24351.264459045466, -33389.37114350452, 0.064, -0.006, 1.03, 192.0, 0.0, 0.0, 0.0, 0.0, 0.0, 0.0, 0.0, 0.0, 0.0, 1.747688054080423E9, 0.0, 2025-05-19 22:54:14.080
14.0, 21276.334974328875, 17596.634339885037, 47231.51591199826, 29845.122080459845, 35587.352286261594, -2222.9480413136534, 9446.853035313254, 1401.4767290922082, 0.0, 0.0, 15446.396523284498, -13635.748760193439, 1644.7531157437702, -685.5280024442676, -24392.905758965702, -33429.336062590606, 0.058, -0.004, 1.036, 192.0, 0.5, 104.0, 127.5, 112.0, 16.0, 48.0, 0.0, 0.0, 0.0, 1.747688054087484E9, 0.0, 2025-05-19 22:54:14.087
16.0, 21279.06188715242, 17601.28350273174, 47233.30405155469, 29870.848938327905, 35590.41447525197, -2188.302837407927, 9480.581817696311, 1373.7829177120827, 0.0, 0.0, 15468.323584595155, -13618.962600107503, 1667.6860055549153, -644.1325717130389, -24350.236278800523, -33398.155379075455, 0.058, -0.004, 1.036, 192.0, 0.0, 0.0, 0.0, 0.0, 0.0, 0.0, 0.0, 0.0, 0.0, 1.747688054096482E9, 0.0, 2025-05-19 22:54:14.096
18.0, 21281.721744742605, 17598.154258508, 47232.94642364341, 29848.318379916953, 35590.25801304079, -2205.1337009827735, 9410.129119173183, 1379.8402404594708, 0.0, 0.0, 15468.97178518436, -13615.3639692502, 1685.6791598414375, -661.0528422657064, -24369.324668565354, -33404.12329484502, 0.058, -0.004, 1.036, 192.0, 0.0, 0.0, 0.0, 0.0, 0.0, 0.0, 0.0, 0.0, 0.0, 1.747688054104626E9, 0.0, 2025-05-19 22:54:14.104
20.0, 21285.49918955555, 17601.976406809856, 47237.70734521239, 29860.63419111183, 35588.04519033971, -2196.572982856391, 9461.135800020194, 1381.5389730380743, 0.0, 0.0, 15468.815322973172, -13619.320228018789, 1670.8376015231136, -672.3404732156364, -24369.615241243275, -33420.95415841987, 0.058, -0.004, 1.036, 192.0, 0.0, 0.0, 0.0, 0.0, 0.0, 0.0, 0.0, 0.0, 0.0, 1.747688054112496E9, 0.0, 2025-05-19 22:54:14.112
22.0, 21271.082314381878, 17586.933682791434, 47231.739429442816, 29854.06277824197, 35599.601042223105, -2191.4097298872152, 9438.851110798254, 1375.772222968605, 0.0, 0.0, 15467.58597702813, -13620.147242563635, 1693.725787845348, -648.7370310708321, -24359.914584149672, -33399.31766978713, 0.058, -0.004, 1.036, 192.0, 0.0, 0.0, 0.0, 0.0, 0.0, 0.0, 0.0, 0.0, 0.0, 1.747688054119544E9, 0.0, 2025-05-19 22:54:14.119
24.0, 21272.199901604643, 17586.978386280345, 47221.50233048229, 29835.75669953307, 35560.91017257097, -2168.387433098249, 9460.331137219804, 1396.358179611943, 0.0, 0.0, 15456.186587355924, -13636.4193125271, 1672.9610172463676, -687.8078803787089, -24397.711384023594, -33434.20874288186, 0.068, 0.0, 1.034, 192.0, 1.0, 16.0, 0.0, 0.0, 16.0, 40.0, 0.0, 0.0, 0.0, 1.747688054128572E9, 0.0, 2025-05-19 22:54:14.128
26.0, 21286.63912852277, 17598.645996886014, 47247.07272613916, 29869.463130171673, 35605.07721961466, -2192.952000254631, 9441.175692221606, 1366.5409525085631, 0.0, 0.0, 15474.537369553731, -13618.381454751667, 1696.6985698579037, -640.2433681778155, -24338.792185639406, -33400.547015732176, 0.068, 0.0, 1.034, 192.0, 0.0, 0.0, 0.0, 0.0, 0.0, 0.0, 0.0, 0.0, 0.0, 1.747688054136707E9, 0.0, 2025-05-19 22:54:14.136
28.0, 21274.92681442819, 17590.308796204186, 47230.30891779768, 29844.518583359553, 35589.85568164059, -2165.9734446970756, 9423.383703635182, 1383.5282782945965, 0.0, 0.0, 15465.86489270507, -13625.93634437756, 1701.2136222378758, -665.3667289455807, -24374.174997112157, -33414.24863508328, 0.068, 0.0, 1.034, 192.0, 0.0, 0.0, 0.0, 0.0, 0.0, 0.0, 0.0, 0.0, 0.0, 1.747688054143646E9, 0.0, 2025-05-19 22:54:14.143
30.0, 21288.60608203484, 17601.954055065402, 47245.59751100511, 29864.38928418032, 35593.40960900898, -2195.187174700162, 9471.484657703002, 1395.0841301779903, 0.0, 0.0, 15468.860026462082, -13622.672989687086, 1693.435215167429, -660.0246620207622, -24358.506424248986, -33417.04260314019, 0.068, 0.0, 1.034, 192.0, 0.0, 0.0, 0.0, 0.0, 0.0, 0.0, 0.0, 0.0, 0.0, 1.747688054151764E9, 0.0, 2025-05-19 22:54:14.151
32.0, 21273.138674871767, 17583.983252523336, 47221.97171711585, 29848.206621194677, 35573.67301865495, -2150.2378166005396, 9444.01436376743, 1376.0851473909793, 0.0, 0.0, 15469.44117181792, -13626.606896711219, 1715.3622764780853, -643.6855368239328, -24355.757159680983, -33401.642251210484, 0.068, 0.0, 1.034, 192.0, 0.0, 0.0, 0.0, 0.0, 0.0, 0.0, 0.0, 0.0, 0.0, 1.747688054160692E9, 0.0, 2025-05-19 22:54:14.160
34.0, 21279.955956930633, 17588.788877581224, 47229.437199763925, 29841.791670536004, 35581.31731525866, -2190.225087431084, 9448.238843469482, 1383.5506300390518, 0.0, 0.0, 15452.230328587333, -13643.437760286066, 1692.630552367038, -689.2830955127592, -24397.39845960122, -33440.13195516252, 0.064, -0.004, 1.034, 192.0, 1.0, 0.0, 127.5, 112.0, 16.0, 40.0, 0.0, 0.0, 0.0, 1.747688054167751E9, 0.0, 2025-05-19 22:54:14.167
36.0, 21288.762544246023, 17597.640168385526, 47243.67526098195, 29871.743008106114, 35592.33672527513, -2147.7567729660004, 9452.262157471438, 1376.4651270467195, 0.0, 0.0, 15465.77548572725, -13627.769187422895, 1712.6800671434485, -652.2686066947707, -24356.047732358904, -33415.94736766188, 0.064, -0.004, 1.034, 192.0, 0.0, 0.0, 0.0, 0.0, 0.0, 0.0, 0.0, 0.0, 0.0, 1.747688054175752E9, 0.0, 2025-05-19 22:54:14.175
38.0, 21280.78297147548, 17588.028918269745, 47238.8472841796, 29851.402920651784, 35593.923699131454, -2149.5896160113357, 9409.14564241715, 1373.8946764343593, 0.0, 0.0, 15482.516942324275, -13615.855707628216, 1740.753858179314, -651.4862956388349, -24356.15949108118, -33405.57615823462, 0.064, -0.004, 1.034, 192.0, 0.0, 0.0, 0.0, 0.0, 0.0, 0.0, 0.0, 0.0, 0.0, 1.747688054183833E9, 0.0, 2025-05-19 22:54:14.183
40.0, 21287.77906748999, 17595.404993939996, 47245.239883093825, 29868.367894693365, 35591.5991177081, -2196.2600584340166, 9474.077460059818, 1388.065682419024, 0.0, 0.0, 15473.308023608688, -13624.25996354341, 1717.1280642900545, -666.998406290818, -24367.111845864278, -33423.09992588758, 0.064, -0.004, 1.034, 192.0, 0.0, 0.0, 0.0, 0.0, 0.0, 0.0, 0.0, 0.0, 0.0, 1.747688054192798E9, 0.0, 2025-05-19 22:54:14.192
42.0, 21281.721744742605, 17593.259226472288, 47235.360412044574, 29864.657505113784, 35589.34159151812, -2134.0104501259866, 9436.124197974706, 1371.100708377446, 0.0, 0.0, 15476.593730043618, -13618.806137896318, 1746.6547187155152, -638.097600710106, -24350.10216833379, -33395.987259863294, 0.064, -0.004, 1.034, 192.0, 0.0, 0.0, 0.0, 0.0, 0.0, 0.0, 0.0, 0.0, 0.0, 1.747688054199792E9, 0.0, 2025-05-19 22:54:14.199
44.0, 21277.45256155164, 17590.889941560024, 47228.16315032997, 29850.75472006258, 35560.28432372622, -2143.5993484973133, 9457.984204051996, 1387.2163161297221, 0.0, 0.0, 15465.663727004974, -13622.471823986987, 1733.556596464705, -673.7039296274102, -24379.58411927034, -33426.7879637227, 0.052000000000000005, -0.004, 1.038, 192.0, 0.5, 80.0, 127.5, 112.0, 16.0, 56.0, 0.0, 0.0, 0.0, 1.74768805420789E9, 0.0, 2025-05-19 22:54:14.207
46.0, 21279.620680763805, 17591.42638342695, 47241.462438280876, 29871.54184240602, 35595.28715554323, -2125.382676766238, 9447.59064288028, 1377.2027346137447, 0.0, 0.0, 15463.450904303898, -13623.768225165395, 1740.7985616682247, -649.2958246822149, -24359.266383560465, -33413.04164088269, 0.052000000000000005, -0.004, 1.038, 192.0, 0.0, 0.0, 0.0, 0.0, 0.0, 0.0, 0.0, 0.0, 0.0, 1.747688054216904E9, 0.0, 2025-05-19 22:54:14.216
48.0, 21267.8189596914, 17577.031859997733, 47228.520778241254, 29847.08903397191, 35578.2998297572, -2153.2329503575506, 9418.421616366102, 1378.4991357921524, 0.0, 0.0, 15458.667630990461, -13639.682667217574, 1746.274739059775, -667.2889789687371, -24376.097247135313, -33428.75491723477, 0.052000000000000005, -0.004, 1.038, 192.0, 0.0, 0.0, 0.0, 0.0, 0.0, 0.0, 0.0, 0.0, 0.0, 1.747688054223949E9, 0.0, 2025-05-19 22:54:14.223
50.0, 21281.051192408944, 17588.744174092313, 47239.78605744673, 29871.11715926137, 35581.96551584786, -2126.187339566629, 9473.675128659623, 1384.1094236504346, 0.0, 0.0, 15470.335241596133, -13617.442681484543, 1746.1629803374983, -654.9508160294075, -24355.31012479188, -33414.449800783375, 0.052000000000000005, -0.004, 1.038, 192.0, 0.0, 0.0, 0.0, 0.0, 0.0, 0.0, 0.0, 0.0, 0.0, 1.747688054231984E9, 0.0, 2025-05-19 22:54:14.231
52.0, 21275.57501501739, 17584.2514734568, 47243.004708648295, 29867.295010959508, 35589.36394326257, -2118.4536359850927, 9421.39439837866, 1369.513734521119, 0.0, 0.0, 15469.86585496257, -13624.79640541034, 1766.4136608140066, -635.3036326531926, -24346.81646189886, -33399.29531804268, 0.052000000000000005, -0.004, 1.038, 192.0, 0.0, 0.0, 0.0, 0.0, 0.0, 0.0, 0.0, 0.0, 0.0, 1.747688054240052E9, 0.0, 2025-05-19 22:54:14.240
54.0, 21270.523520770494, 17577.702412331393, 47226.53147298473, 29845.90439151578, 35546.64975960848, -2155.2222556140728, 9459.861750586242, 1381.740138738172, 0.0, 0.0, 15463.540311281718, -13641.001420140437, 1748.1969890829314, -677.0790430401615, -24381.416962315674, -33438.701443517384, 0.048, -0.006, 1.036, 192.0, 0.5, 64.0, 127.5, 104.0, 16.0, 48.0, 0.0, 0.0, 0.0, 1.747688054249018E9, 0.0, 2025-05-19 22:54:14.249
56.0, 21291.042422180464, 17600.38943295353, 47258.13683964453, 29888.39505772532, 35602.21619632438, -2093.0620542838637, 9439.208738709538, 1372.642978744862, 0.0, 0.0, 15476.996061443813, -13616.056873328314, 1771.3086928497187, -641.2044931893937, -24353.499633490996, -33405.352640790064, 0.048, -0.006, 1.036, 192.0, 0.0, 0.0, 0.0, 0.0, 0.0, 0.0, 0.0, 0.0, 0.0, 1.747688054256087E9, 0.0, 2025-05-19 22:54:14.256
58.0, 21277.63137550728, 17587.91715954747, 47246.290415083226, 29863.629324868838, 35583.57484144865, -2118.2077667960843, 9427.228203681494, 1385.2717143621105, 0.0, 0.0, 15485.690890036929, -13613.955809349514, 1792.788719271269, -642.4785426233462, -24347.66582818816, -33402.37985877751, 0.048, -0.006, 1.036, 192.0, 0.0, 0.0, 0.0, 0.0, 0.0, 0.0, 0.0, 0.0, 0.0, 1.747688054264118E9, 0.0, 2025-05-19 22:54:14.264
60.0, 21279.50892204153, 17590.644072371015, 47239.11550511307, 29874.067589529466, 35573.82948086614, -2114.5867841943245, 9490.930675379119, 1391.9548859542474, 0.0, 0.0, 15471.162256140979, -13615.945114606038, 1770.3252160936852, -655.8225340631645, -24360.093398105313, -33416.08147812861, 0.048, -0.006, 1.036, 192.0, 0.0, 0.0, 0.0, 0.0, 0.0, 0.0, 0.0, 0.0, 0.0, 1.747688054272193E9, 0.0, 2025-05-19 22:54:14.272
62.0, 21275.418552806208, 17586.888979302523, 47244.97166216036, 29872.9500023067, 35599.466931756375, -2101.4886619435147, 9416.789939020866, 1365.0880891189681, 0.0, 0.0, 15466.937776438926, -13621.108367575212, 1788.430129102484, -640.5786443446451, -24351.77854916794, -33402.44691401088, 0.048, -0.006, 1.036, 192.0, 0.0, 0.0, 0.0, 0.0, 0.0, 0.0, 0.0, 0.0, 0.0, 1.747688054280165E9, 0.0, 2025-05-19 22:54:14.280
64.0, 21279.955956930633, 17587.805400825193, 47245.73162147184, 29867.20560398169, 35582.92664085944, -2100.996923565498, 9434.269003184916, 1383.5729817835072, 0.0, 0.0, 15475.54319805422, -13615.587486694752, 1785.6138093011152, -665.2102667343935, -24364.67550571865, -33419.61305375255, 0.06, -0.004, 1.034, 192.0, 0.5, 112.0, 127.5, 112.0, 16.0, 40.0, 0.0, 0.0, 0.0, 1.747688054288257E9, 0.0, 2025-05-19 22:54:14.288
66.0, 21277.564320273916, 17589.615892126072, 47240.56836850267, 29880.43783669923, 35572.42132096545, -2078.5334203879142, 9470.165904780139, 1378.7003014922502, 0.0, 0.0, 15479.521808567264, -13612.860573871205, 1796.2532396618415, -633.1578651854832, -24339.596848439796, -33400.90464364346, 0.06, -0.004, 1.034, 192.0, 0.0, 0.0, 0.0, 0.0, 0.0, 0.0, 0.0, 0.0, 0.0, 1.747688054296236E9, 0.0, 2025-05-19 22:54:14.296
68.0, 21265.024991634487, 17575.13196171903, 47231.381801531534, 29854.48746138662, 35568.062730796664, -2128.668383201168, 9434.023133995906, 1374.7887462125716, 0.0, 0.0, 15460.366363569066, -13629.982010123971, 1795.269762905808, -660.002310276307, -24379.4053053147, -33418.74133571879, 0.06, -0.004, 1.034, 192.0, 0.0, 0.0, 0.0, 0.0, 0.0, 0.0, 0.0, 0.0, 0.0, 1.747688054304309E9, 0.0, 2025-05-19 22:54:14.304
70.0, 21281.475875553595, 17584.989081023825, 47258.91915070047, 29881.130740777346, 35589.27453628475, -2065.278835925917, 9452.284509215893, 1383.3941678278647, 0.0, 0.0, 15476.750192254805, -13621.51069897541, 1791.4699663484057, -645.1831037024384, -24342.703740919085, -33414.40509729446, 0.06, -0.004, 1.034, 192.0, 0.0, 0.0, 0.0, 0.0, 0.0, 0.0, 0.0, 0.0, 0.0, 1.747688054311291E9, 0.0, 2025-05-19 22:54:14.311
72.0, 21273.16102661622, 17578.976461765345, 47240.38955454702, 29872.592374395415, 35584.96064960488, -2057.388670133194, 9425.641229825167, 1368.12792636489, 0.0, 0.0, 15481.086430679135, -13617.576791951275, 1819.4543504064502, -622.5407865692123, -24333.76304313696, -33391.3828005055, 0.06, -0.004, 1.034, 192.0, 0.0, 0.0, 0.0, 0.0, 0.0, 0.0, 0.0, 0.0, 0.0, 1.747688054320327E9, 0.0, 2025-05-19 22:54:14.320
74.0, 21281.073544153398, 17587.738345591824, 47246.51393252778, 29871.54184240602, 35563.92765807243, -2090.245734482495, 9446.920090546619, 1386.2775428625994, 0.0, 0.0, 15467.563625283674, -13628.775015923384, 1797.2814199067857, -665.7690603457762, -24371.850415688805, -33423.43520205441, 0.06, -0.002, 1.034, 192.0, 0.5, 112.0, 127.5, 120.0, 16.0, 40.0, 0.0, 0.0, 0.0, 1.747688054328457E9, 0.0, 2025-05-19 22:54:14.328
76.0, 21278.167817374208, 17582.843313556114, 47245.642214494015, 29883.76824662307, 35586.81584439467, -2073.481926141015, 9457.715983118533, 1375.0793188904904, 0.0, 0.0, 15477.174875399456, -13614.045216327337, 1814.5369666262827, -633.0461064632067, -24342.547278707898, -33399.09415234258, 0.06, -0.002, 1.034, 192.0, 0.0, 0.0, 0.0, 0.0, 0.0, 0.0, 0.0, 0.0, 0.0, 1.747688054336411E9, 0.0, 2025-05-19 22:54:14.336
78.0, 21268.891843425256, 17567.71118255987, 47232.432333520934, 29846.172612449245, 35563.21240224986, -2102.092159043808, 9418.063988454818, 1372.285350833577, 0.0, 0.0, 15476.571378299162, -13627.836242656262, 1826.137521998587, -649.8769700380528, -24355.511290491973, -33413.33221356061, 0.06, -0.002, 1.034, 192.0, 0.0, 0.0, 0.0, 0.0, 0.0, 0.0, 0.0, 0.0, 0.0, 1.747688054343433E9, 0.0, 2025-05-19 22:54:14.343
80.0, 21277.02787840699, 17577.791819309215, 47240.0989818691, 29871.58654589493, 35584.73713216033, -2082.288513456406, 9472.691651903588, 1373.514696778619, 0.0, 0.0, 15467.429514816942, -13638.98976313946, 1803.9869432433777, -668.9206563139745, -24369.369372054265, -33438.25440862828, 0.06, -0.002, 1.034, 192.0, 0.0, 0.0, 0.0, 0.0, 0.0, 0.0, 0.0, 0.0, 0.0, 1.747688054352478E9, 0.0, 2025-05-19 22:54:14.352
82.0, 21274.055096394433, 17573.165008206965, 47241.50714176978, 29867.00443828159, 35584.55831820468, -2043.7541060154565, 9416.924049487598, 1352.034670357069, 0.0, 0.0, 15473.017450930769, -13623.432948998565, 1836.8440075926792, -637.8293797766423, -24346.90586887668, -33407.029021624214, 0.06, -0.002, 1.034, 192.0, 0.0, 0.0, 0.0, 0.0, 0.0, 0.0, 0.0, 0.0, 0.0, 1.747688054360452E9, 0.0, 2025-05-19 22:54:14.360
84.0, 21275.84323595086, 17571.555682606184, 47238.69082196842, 29855.023903253546, 35566.47575694034, -2101.1310340322298, 9428.882232771186, 1377.515659036119, 0.0, 0.0, 15473.553892797698, -13638.162748594612, 1821.1754347295089, -671.804031348709, -24371.470436033065, -33438.81320223966, 0.054, -0.002, 1.032, 192.0, 0.5, 88.0, 127.5, 120.0, 16.0, 32.0, 0.0, 0.0, 0.0, 1.747688054367451E9, 0.0, 2025-05-19 22:54:14.367
86.0, 21276.983174918078, 17577.61300535357, 47253.420621564466, 29889.333830992444, 35589.52040547376, -2044.871693238222, 9458.475942430014, 1364.3281298074878, 0.0, 0.0, 15484.953282469904, -13621.555402464319, 1839.3250512272182, -632.3755541295474, -24335.886458860215, -33410.09121061459, 0.054, -0.002, 1.032, 192.0, 0.0, 0.0, 0.0, 0.0, 0.0, 0.0, 0.0, 0.0, 0.0, 1.747688054375525E9, 0.0, 2025-05-19 22:54:14.375
88.0, 21269.16006435872, 17570.035763983222, 47240.83658943613, 29865.439816169717, 35573.00246632129, -2080.4109669221602, 9393.14179338715, 1368.9772926541916, 0.0, 0.0, 15472.793933486217, -13621.398940253132, 1846.4776094529163, -648.8040863041981, -24357.925278893148, -33414.874483928026, 0.054, -0.002, 1.032, 192.0, 0.0, 0.0, 0.0, 0.0, 0.0, 0.0, 0.0, 0.0, 0.0, 1.747688054384551E9, 0.0, 2025-05-19 22:54:14.384
90.0, 21280.827674964392, 17582.128057733546, 47250.80546746319, 29881.53307217754, 35564.397044706, -2068.4974871274817, 9496.205687070571, 1396.805214501049, 0.0, 0.0, 15481.019375445769, -13619.879021630171, 1841.0237838058215, -648.6476240930109, -24349.498671233498, -33420.462420041855, 0.054, -0.002, 1.032, 192.0, 0.0, 0.0, 0.0, 0.0, 0.0, 0.0, 0.0, 0.0, 0.0, 1.747688054391581E9, 0.0, 2025-05-19 22:54:14.391
92.0, 21272.06579113791, 17572.740325062314, 47238.6014149906, 29879.34260122092, 35562.02775979373, -2029.2925273528729, 9439.879291043198, 1366.9656356532141, 0.0, 0.0, 15481.175837656956, -13617.152108806624, 1868.2482085523854, -628.5534058276899, -24344.76010140897, -33397.9318616309, 0.054, -0.002, 1.032, 192.0, 0.0, 0.0, 0.0, 0.0, 0.0, 0.0, 0.0, 0.0, 0.0, 1.747688054399626E9, 0.0, 2025-05-19 22:54:14.399
94.0, 21283.26401511002, 17580.67519434395, 47254.15822913149, 29875.34163896342, 35579.17154779095, -2027.2361668629846, 9425.082436213785, 1378.3650253254207, 0.0, 0.0, 15480.147657412012, -13622.002437353425, 1855.46301072395, -662.3045399552036, -24366.083665619335, -33426.72090848934, 0.057999999999999996, -0.001, 1.032, 192.0, 0.5, 120.0, 0.0, 0.0, 16.0, 32.0, 0.0, 0.0, 0.0, 1.747688054408587E9, 0.0, 2025-05-19 22:54:14.408
96.0, 21283.84516046586, 17582.597444367104, 47248.61499650658, 29885.06464780148, 35584.67007692696, -2045.0058037049537, 9460.800523853364, 1373.3358828229766, 0.0, 0.0, 15496.106802953102, -13610.088957558746, 1874.2161243219525, -625.3124028816704, -24330.61144716876, -33400.97169887683, 0.057999999999999996, -0.001, 1.032, 192.0, 0.0, 0.0, 0.0, 0.0, 0.0, 0.0, 0.0, 0.0, 0.0, 1.747688054416693E9, 0.0, 2025-05-19 22:54:14.416
98.0, 21273.74217197206, 17572.740325062314, 47232.63349922103, 29855.2474206981, 35560.77606210423, -2010.8299864327894, 9412.43134885208, 1365.8256966859933, 0.0, 0.0, 15472.25749161929, -13633.64769621464, 1871.8691911541453, -658.3929846755249, -24370.889290677227, -33426.56444627815, 0.057999999999999996, -0.001, 1.032, 192.0, 0.0, 0.0, 0.0, 0.0, 0.0, 0.0, 0.0, 0.0, 0.0, 1.747688054423707E9, 0.0, 2025-05-19 22:54:14.423
100.0, 21281.78879997597, 17579.46820014336, 47240.411906291476, 29875.475749430152, 35570.40966396447, -2086.4012344361827, 9467.483695445502, 1368.8208304430045, 0.0, 0.0, 15474.515017809275, -13626.986876366958, 1859.9557113594667, -667.1325167575499, -24373.16916861167, -33436.82389698314, 0.057999999999999996, -0.001, 1.032, 192.0, 0.0, 0.0, 0.0, 0.0, 0.0, 0.0, 0.0, 0.0, 0.0, 1.747688054431726E9, 0.0, 2025-05-19 22:54:14.431
102.0, 21280.715916242116, 17576.607176853082, 47252.705365741895, 29877.465054686672, 35594.1025130871, -2029.6948587530685, 9411.604334307234, 1365.3339583079767, 0.0, 0.0, 15490.563570328186, -13612.949980849025, 1897.4172350665613, -629.2463099058044, -24335.99821758249, -33406.49257975729, 0.057999999999999996, -0.001, 1.032, 192.0, 0.0, 0.0, 0.0, 0.0, 0.0, 0.0, 0.0, 0.0, 0.0, 1.747688054440761E9, 0.0, 2025-05-19 22:54:14.440
104.0, 21277.363154573817, 17567.979403493333, 47228.54312998571, 29855.180365464734, 35541.642968850494, -2037.0709344233198, 9440.281622443394, 1369.3125688210214, 0.0, 0.0, 15476.72784051035, -13628.238574056457, 1876.6971679564915, -667.5124964132901, -24370.330497065843, -33435.70630976037, 0.061, -0.0025, 1.032, 192.0, 1.0, 0.0, 127.5, 112.0, 16.0, 32.0, 0.0, 0.0, 0.0, 1.747688054447808E9, 0.0, 2025-05-19 22:54:14.447
106.0, 21273.764523716512, 17564.693697058403, 47240.45660978039, 29875.609859896882, 35584.17833854894, -2015.1885766015741, 9452.150398749161, 1357.8237721709934, 0.0, 0.0, 15463.272090348255, -13639.503853261931, 1869.6116649641592, -654.3249671846589, -24366.173072597157, -33429.51487654625, 0.061, -0.0025, 1.032, 192.0, 0.0, 0.0, 0.0, 0.0, 0.0, 0.0, 0.0, 0.0, 0.0, 1.747688054455823E9, 0.0, 2025-05-19 22:54:14.455
108.0, 21263.907404411722, 17556.021220209746, 47234.71221145537, 29847.33490316092, 35573.56125993267, -1996.3684077702055, 9400.160241146117, 1360.5283332500856, 0.0, 0.0, 15476.191398643423, -13631.278411302377, 1892.4327960530277, -649.7205078268657, -24351.979714868037, -33422.831704954115, 0.061, -0.0025, 1.032, 192.0, 0.0, 0.0, 0.0, 0.0, 0.0, 0.0, 0.0, 0.0, 0.0, 1.747688054463864E9, 0.0, 2025-05-19 22:54:14.463
110.0, 21279.866549952814, 17572.785028551225, 47238.310842312676, 29874.313458718476, 35565.64874239549, -2044.2905478823839, 9470.903512347164, 1360.1260018498901, 0.0, 0.0, 15464.63554676003, -13637.268678816401, 1872.3162260432514, -667.8924760690303, -24367.804749942396, -33444.98228370932, 0.061, -0.0025, 1.032, 192.0, 0.0, 0.0, 0.0, 0.0, 0.0, 0.0, 0.0, 0.0, 0.0, 1.747688054471874E9, 0.0, 2025-05-19 22:54:14.471
112.0, 21276.44673305115, 17569.924005260946, 47241.7530109588, 29872.9500023067, 35585.60885019408, -2039.999012946965, 9421.640267567667, 1355.9909291256583, 0.0, 0.0, 15474.87264572056, -13620.773091408384, 1907.2520026268965, -635.6612605644775, -24347.10703457678, -33411.164094348445, 0.061, -0.0025, 1.032, 192.0, 0.0, 0.0, 0.0, 0.0, 0.0, 0.0, 0.0, 0.0, 0.0, 1.747688054479893E9, 0.0, 2025-05-19 22:54:14.479
114.0, 21284.113381399322, 17573.209711695876, 47237.84145567912, 29863.629324868838, 35554.87520156804, -2030.5889285312808, 9435.364238663225, 1368.0385193870688, 0.0, 0.0, 15472.950395697404, -13631.591335724752, 1897.5066420443825, -667.7807173467538, -24369.1011511208, -33442.30007437469, 0.0605, -0.00125, 1.0310000000000001, 192.0, 0.5, 112.0, 0.0, 0.0, 16.0, 24.0, 0.0, 0.0, 0.0, 1.747688054487944E9, 0.0, 2025-05-19 22:54:14.487
116.0, 21290.796552991458, 17580.13875247702, 47246.11160112758, 29888.506816447596, 35571.86252735407, -2004.3703322852054, 9463.035698298896, 1360.5059815056302, 0.0, 0.0, 15487.590788315629, -13613.866402371694, 1918.0478951988096, -632.4426093629133, -24340.222697284546, -33410.381783292505, 0.0605, -0.00125, 1.0310000000000001, 192.0, 0.0, 0.0, 0.0, 0.0, 0.0, 0.0, 0.0, 0.0, 0.0, 1.747688054495972E9, 0.0, 2025-05-19 22:54:14.495
118.0, 21277.69843074065, 17569.901653516492, 47239.27196732425, 29865.57392663645, 35551.81301257766, -1982.4209192300941, 9416.454662854036, 1367.8597054314264, 0.0, 0.0, 15480.661747534485, -13625.444605999543, 1925.2228051689633, -650.7486880718099, -24364.09436036281, -33423.92694043242, 0.0605, -0.00125, 1.0310000000000001, 192.0, 0.0, 0.0, 0.0, 0.0, 0.0, 0.0, 0.0, 0.0, 0.0, 1.747688054502999E9, 0.0, 2025-05-19 22:54:14.502
120.0, 21285.186265133176, 17572.494455873308, 47245.39634530501, 29882.136569277834, 35566.0957772846, -1988.522945466393, 9455.436105184092, 1362.0259001285913, 0.0, 0.0, 15483.187494657934, -13625.891640888649, 1912.3705521071618, -656.515438141279, -24361.121578350256, -33433.13585914801, 0.0605, -0.00125, 1.0310000000000001, 192.0, 0.0, 0.0, 0.0, 0.0, 0.0, 0.0, 0.0, 0.0, 0.0, 1.747688054512017E9, 0.0, 2025-05-19 22:54:14.512
122.0, 21279.48657029707, 17567.33120290413, 47251.811295963686, 29884.125874534355, 35587.37463800605, -2003.7668351849122, 9411.157299418128, 1360.1260018498901, 0.0, 0.0, 15488.35074762711, -13613.911105860605, 1941.8525030437117, -624.3959813590028, -24331.639627413708, -33405.55380649016, 0.0605, -0.00125, 1.0310000000000001, 192.0, 0.0, 0.0, 0.0, 0.0, 0.0, 0.0, 0.0, 0.0, 0.0, 1.747688054520048E9, 0.0, 2025-05-19 22:54:14.520
124.0, 21277.787837718468, 17566.3477261481, 47246.268063338764, 29870.938345305723, 35557.40094869148, -2017.3119923248282, 9430.402151394148, 1373.9617316677252, 0.0, 0.0, 15479.454753333897, -13624.215260054501, 1924.2169766684744, -662.6174643775779, -24360.741598694516, -33435.907475460466, 0.057249999999999995, -0.002625, 1.0315, 192.0, 0.5, 88.0, 127.5, 112.0, 16.0, 32.0, 0.0, 0.0, 0.0, 1.747688054529091E9, 0.0, 2025-05-19 22:54:14.529
126.0, 21265.449674779138, 17552.891975986004, 47231.381801531534, 29874.4028656963, 35562.27362898274, -2004.839718918767, 9464.913244833142, 1360.6624437168175, 0.0, 0.0, 15480.237064389834, -13620.303704774822, 1932.8000465393122, -632.9343477409301, -24336.936990849616, -33416.08147812861, 0.057249999999999995, -0.002625, 1.0315, 192.0, 0.0, 0.0, 0.0, 0.0, 0.0, 0.0, 0.0, 0.0, 0.0, 1.747688054535111E9, 0.0, 2025-05-19 22:54:14.535
128.0, 21261.806340432926, 17548.019295694747, 47222.642269449505, 29848.407786894775, 35552.64002712251, -1991.3169135233063, 9414.443005853058, 1361.2659408171107, 0.0, 0.0, 15450.375133797543, -13652.087885390269, 1920.260717899885, -672.385176704547, -24385.842607717826, -33447.1951064104, 0.057249999999999995, -0.002625, 1.0315, 192.0, 0.0, 0.0, 0.0, 0.0, 0.0, 0.0, 0.0, 0.0, 0.0, 1.747688054544145E9, 0.0, 2025-05-19 22:54:14.544
130.0, 21281.900558698246, 17568.269976171254, 47254.82878146515, 29875.2522319856, 35575.37175123355, -1964.3830614546612, 9448.48471265849, 1364.8422199299598, 0.0, 0.0, 15480.01354694528, -13629.467920001498, 1929.1567121930973, -656.4707346523684, -24352.20323231259, -33440.26606562926, 0.057249999999999995, -0.002625, 1.0315, 192.0, 0.0, 0.0, 0.0, 0.0, 0.0, 0.0, 0.0, 0.0, 0.0, 1.747688054552178E9, 0.0, 2025-05-19 22:54:14.552
132.0, 21288.673137268204, 17574.372002407552, 47240.65777548048, 29873.3523337069, 35575.50586170028, -1979.8951721066444, 9418.131043688183, 1336.1872835382562, 0.0, 0.0, 15485.579131314653, -13625.779882166373, 1955.9117503060997, -636.7788477872429, -24345.944743865104, -33421.62471075353, 0.057249999999999995, -0.002625, 1.0315, 192.0, 0.0, 0.0, 0.0, 0.0, 0.0, 0.0, 0.0, 0.0, 0.0, 1.747688054559194E9, 0.0, 2025-05-19 22:54:14.559
134.0, 21273.943337672157, 17560.223348167343, 47246.78215346124, 29868.792577838016, 35557.82563183613, -2006.9184311531105, 9430.156282205138, 1366.7644699531163, 0.0, 0.0, 15481.332299868143, -13624.88581238816, 1944.6017676117144, -666.3055022127036, -24369.838758687827, -33443.596475553095, 0.056624999999999995, -0.0043125, 1.0317500000000002, 192.0, 0.5, 96.0, 127.5, 104.0, 16.0, 32.0, 0.0, 0.0, 0.0, 1.747688054568228E9, 0.0, 2025-05-19 22:54:14.568
136.0, 21260.085256109865, 17554.076618442134, 47236.32153705616, 29880.415484954774, 35562.11716677155, -1988.5005937219375, 9461.426372698113, 1360.193057083256, 0.0, 0.0, 15480.997023701315, -13622.538879220354, 1951.1061252482089, -636.6000338316004, -24343.10607231928, -33423.725774732324, 0.056624999999999995, -0.0043125, 1.0317500000000002, 192.0, 0.0, 0.0, 0.0, 0.0, 0.0, 0.0, 0.0, 0.0, 0.0, 1.747688054576253E9, 0.0, 2025-05-19 22:54:14.576
138.0, 21239.67811342217, 17535.52467054423, 47224.318650283654, 29852.520507874553, 35530.33298615611, -1983.7620238974125, 9406.552840060334, 1362.3388245509655, 0.0, 0.0, 15469.083543906636, -13634.65352471513, 1953.3189479492842, -658.9741300313628, -24375.046715145912, -33433.47113531484, 0.056624999999999995, -0.0043125, 1.0317500000000002, 192.0, 0.0, 0.0, 0.0, 0.0, 0.0, 0.0, 0.0, 0.0, 0.0, 1.747688054583304E9, 0.0, 2025-05-19 22:54:14.583
140.0, 21259.79468343195, 17546.85700498307, 47256.147534388016, 29888.59622342542, 35576.71285590087, -1922.4064853675945, 9448.574119636312, 1372.9782549116917, 0.0, 0.0, 15475.610253287585, -13630.853728157726, 1944.937043778544, -658.6612056089886, -24361.188633583624, -33439.84138248461, 0.056624999999999995, -0.0043125, 1.0317500000000002, 192.0, 0.0, 0.0, 0.0, 0.0, 0.0, 0.0, 0.0, 0.0, 0.0, 1.747688054591314E9, 0.0, 2025-05-19 22:54:14.591
142.0, 21252.239793806053, 17544.107740415067, 47255.96872043237, 29890.473769959663, 35572.51072794327, -1943.5735873667704, 9438.001744508952, 1368.2843885760772, 0.0, 0.0, 15489.244817405322, -13619.074358829781, 1980.7668901404013, -619.4115423454693, -24324.53177267692, -33402.93865238889, 0.056624999999999995, -0.0043125, 1.0317500000000002, 192.0, 0.0, 0.0, 0.0, 0.0, 0.0, 0.0, 0.0, 0.0, 0.0, 1.747688054600344E9, 0.0, 2025-05-19 22:54:14.600
144.0, 21245.847194891834, 17535.502318799772, 47236.36624054507, 29865.618630125362, 35539.45249789387, -1972.9661313254992, 9425.82004378081, 1364.4622402742195, 0.0, 0.0, 15477.77837249975, -13621.845975142238, 1965.6347591441584, -660.6505108655108, -24367.089494119824, -33435.30397836018, 0.0543125, -0.00315625, 1.029875, 192.0, 0.5, 80.0, 127.5, 120.0, 16.0, 16.0, 0.0, 0.0, 0.0, 1.747688054608362E9, 0.0, 2025-05-19 22:54:14.608
146.0, 21253.64795370674, 17548.131054417023, 47251.47601979686, 29893.58066243895, 35559.77023360375, -1962.1255352646751, 9458.140666263183, 1356.5050192481303, 0.0, 0.0, 15480.214712645378, -13621.845975142238, 1972.3179307362952, -634.2083971748826, -24338.970999595047, -33425.13393463301, 0.0543125, -0.00315625, 1.029875, 192.0, 0.0, 0.0, 0.0, 0.0, 0.0, 0.0, 0.0, 0.0, 0.0, 1.747688054615383E9, 0.0, 2025-05-19 22:54:14.615
148.0, 21256.35251478583, 17550.679153284927, 47253.062993653184, 29882.069514044466, 35555.03166377922, -1954.972977038977, 9393.119441642695, 1361.355347794932, 0.0, 0.0, 15482.293424879721, -13614.291085516345, 1993.1721083130967, -646.3006909252038, -24361.92624115065, -33422.89876018748, 0.0543125, -0.00315625, 1.029875, 192.0, 0.0, 0.0, 0.0, 0.0, 0.0, 0.0, 0.0, 0.0, 0.0, 1.747688054623425E9, 0.0, 2025-05-19 22:54:14.623
150.0, 21260.420532276694, 17550.813263751657, 47258.6062262781, 29891.2560810156, 35564.24058249481, -1954.4365351720496, 9453.647965627666, 1379.9519991817474, 0.0, 0.0, 15496.330320397654, -13607.965541835492, 1987.5394687103594, -636.3988681315027, -24333.830098370327, -33422.18350436491, 0.0543125, -0.00315625, 1.029875, 192.0, 0.0, 0.0, 0.0, 0.0, 0.0, 0.0, 0.0, 0.0, 0.0, 1.747688054632456E9, 0.0, 2025-05-19 22:54:14.632
152.0, 21244.416683246694, 17533.580068776617, 47240.0989818691, 29873.91112731828, 35563.7935476057, -1900.5464792903042, 9421.528508845391, 1360.863609416915, 0.0, 0.0, 15481.131134168047, -13627.098635089236, 1992.9932943574543, -629.067495950162, -24340.177993795634, -33417.51198977375, 0.0543125, -0.00315625, 1.029875, 192.0, 0.0, 0.0, 0.0, 0.0, 0.0, 0.0, 0.0, 0.0, 0.0, 1.747688054639471E9, 0.0, 2025-05-19 22:54:14.639
154.0, 21255.950183385634, 17546.320563116144, 47240.903644669495, 29868.68081911574, 35554.60698063457, -1940.332584420751, 9437.510006130935, 1368.1726298538006, 0.0, 0.0, 15474.380907342544, -13632.84303341425, 1979.1352127951639, -665.1655632454829, -24368.341191809322, -33446.97158896585, 0.05215625, -0.001578125, 1.0309375, 192.0, 0.5, 72.0, 0.0, 0.0, 16.0, 32.0, 0.0, 0.0, 0.0, 1.74768805464746E9, 0.0, 2025-05-19 22:54:14.647
156.0, 21259.325296798386, 17552.13201667452, 47243.16117085948, 29885.10935129039, 35568.46506219686, -1931.324831405262, 9442.449741655559, 1353.5322372355745, 0.0, 0.0, 15481.846389990616, -13624.729350176973, 1991.7863001568676, -639.6175193330669, -24342.1449473077, -33429.693690501896, 0.05215625, -0.001578125, 1.0309375, 192.0, 0.0, 0.0, 0.0, 0.0, 0.0, 0.0, 0.0, 0.0, 0.0, 1.747688054655539E9, 0.0, 2025-05-19 22:54:14.655
158.0, 21245.735436169558, 17539.168004890445, 47228.56548173016, 29860.67889460074, 35543.29699794018, -1960.5385614083484, 9397.947418445041, 1347.0502313435354, 0.0, 0.0, 15473.598596286607, -13630.540803735354, 2001.352846783739, -659.9799585318516, -24371.313973821878, -33442.09890867459, 0.05215625, -0.001578125, 1.0309375, 192.0, 0.0, 0.0, 0.0, 0.0, 0.0, 0.0, 0.0, 0.0, 0.0, 1.747688054664532E9, 0.0, 2025-05-19 22:54:14.664
160.0, 21269.20476784763, 17561.22917666783, 47259.18737163393, 29897.045182829523, 35555.85867832407, -1915.0080579528878, 9446.473055657514, 1363.098783862446, 0.0, 0.0, 15487.143753426524, -13617.50973671791, 2001.352846783739, -662.9974440333181, -24367.06714237537, -33449.743205278304, 0.05215625, -0.001578125, 1.0309375, 192.0, 0.0, 0.0, 0.0, 0.0, 0.0, 0.0, 0.0, 0.0, 0.0, 1.747688054671605E9, 0.0, 2025-05-19 22:54:14.671
162.0, 21262.25337532203, 17554.43424635342, 47254.58291227614, 29893.53595895004, 35565.93931507341, -1904.033351425332, 9406.105805171228, 1348.4136877553092, 0.0, 0.0, 15502.25353267831, -13606.087995301246, 2038.0767629238087, -623.2113389028715, -24330.879668102225, -33415.32151881713, 0.05215625, -0.001578125, 1.0309375, 192.0, 0.0, 0.0, 0.0, 0.0, 0.0, 0.0, 0.0, 0.0, 0.0, 1.74768805467962E9, 0.0, 2025-05-19 22:54:14.679
164.0, 21258.095950853345, 17546.633487538515, 47244.882255182536, 29876.72744711965, 35538.64783509348, -1917.869081243167, 9432.302049672848, 1372.4865165336748, 0.0, 0.0, 15483.54512256922, -13622.494175731443, 2013.5121957674262, -661.969263788374, -24371.693953477617, -33443.887048231016, 0.056078125, -7.890625E-4, 1.03346875, 192.0, 0.5, 112.0, 0.0, 0.0, 16.0, 48.0, 0.0, 0.0, 0.0, 1.747688054687671E9, 0.0, 2025-05-19 22:54:14.687
166.0, 21266.9695934021, 17556.132978932023, 47261.84722922411, 29907.997537612624, 35564.17352726144, -1910.1353776616309, 9451.569253393323, 1373.6711589898061, 0.0, 0.0, 15496.822058775671, -13610.156012792113, 2030.9465564425657, -612.5272050532348, -24317.0886417733, -33411.499370515274, 0.056078125, -7.890625E-4, 1.03346875, 192.0, 0.0, 0.0, 0.0, 0.0, 0.0, 0.0, 0.0, 0.0, 0.0, 1.747688054695687E9, 0.0, 2025-05-19 22:54:14.695
168.0, 21252.753883928526, 17544.15244390398, 47251.96775817487, 29885.176406523755, 35548.1920299759, -1926.1168749471756, 9417.035808209874, 1372.352406066943, 0.0, 0.0, 15491.457640106397, -13610.915972103594, 2042.4577048370488, -629.0004407167961, -24347.017627598958, -33414.36039380555, 0.056078125, -7.890625E-4, 1.03346875, 192.0, 0.0, 0.0, 0.0, 0.0, 0.0, 0.0, 0.0, 0.0, 0.0, 1.747688054703739E9, 0.0, 2025-05-19 22:54:14.703
170.0, 21258.408875275716, 17544.37596134853, 47253.152400631, 29891.524301949063, 35564.37469296154, -1917.8914329876225, 9471.775230380921, 1384.802327728549, 0.0, 0.0, 15497.44790762042, -13610.22306802548, 2030.4995215534595, -627.9499087273966, -24329.225639012533, -33420.596530508585, 0.056078125, -7.890625E-4, 1.03346875, 192.0, 0.0, 0.0, 0.0, 0.0, 0.0, 0.0, 0.0, 0.0, 0.0, 1.747688054711751E9, 0.0, 2025-05-19 22:54:14.711
172.0, 21225.39534871523, 17509.55194348716, 47214.23801353431, 29855.739159076114, 35522.062840707644, -1912.3482003627064, 9454.899663317165, 1373.4476415452532, 0.0, 0.0, 15459.628756002041, -13648.623364999696, 2018.2731173364066, -640.1092577110836, -24356.137139336723, -33433.80641148167, 0.056078125, -7.890625E-4, 1.03346875, 192.0, 0.0, 0.0, 0.0, 0.0, 0.0, 0.0, 0.0, 0.0, 0.0, 1.747688054720781E9, 0.0, 2025-05-19 22:54:14.720
174.0, 21247.098892581333, 17530.048493152677, 47242.378859803546, 29870.178385994244, 35549.0413962652, -1916.2821073868404, 9425.775340291899, 1380.8907724488704, 0.0, 0.0, 15465.931947938438, -13643.057780630324, 2013.8921754231662, -662.9080370554968, -24361.00981962798, -33449.02794945573, 0.060039062500000004, -3.9453125E-4, 1.032734375, 192.0, 1.0, 0.0, 0.0, 0.0, 16.0, 32.0, 0.0, 0.0, 0.0, 1.747688054726853E9, 0.0, 2025-05-19 22:54:14.726
176.0, 21236.14653779823, 17520.41489129244, 47231.02417362025, 29873.464092429174, 35549.331968943115, -1907.6766857715472, 9465.15911402215, 1365.1998478412447, 0.0, 0.0, 15471.095200907614, -13641.247289329445, 2021.5364720268813, -645.4736763803573, -24352.493804990507, -33440.48958307381, 0.060039062500000004, -3.9453125E-4, 1.032734375, 192.0, 0.0, 0.0, 0.0, 0.0, 0.0, 0.0, 0.0, 0.0, 0.0, 1.747688054735862E9, 0.0, 2025-05-19 22:54:14.735
178.0, 21236.705331409616, 17518.380882547008, 47232.87936841004, 29858.15314747729, 35543.36405317355, -1916.550328320304, 9405.7705290044, 1356.4603157592196, 0.0, 0.0, 15483.187494657934, -13635.860518915715, 2045.095210682775, -647.3735746590585, -24345.58711595382, -33435.840420227105, 0.060039062500000004, -3.9453125E-4, 1.032734375, 192.0, 0.0, 0.0, 0.0, 0.0, 0.0, 0.0, 0.0, 0.0, 0.0, 1.747688054743871E9, 0.0, 2025-05-19 22:54:14.743
180.0, 21246.9647821146, 17525.309923328154, 47240.76953420276, 29875.900432574803, 35555.25518122377, -1882.5756767482374, 9456.39723019567, 1369.0219961431023, 0.0, 0.0, 15467.317756094666, -13645.963507409515, 2019.837739448278, -667.6689586244772, -24364.831967929837, -33459.48856586082, 0.060039062500000004, -3.9453125E-4, 1.032734375, 192.0, 0.0, 0.0, 0.0, 0.0, 0.0, 0.0, 0.0, 0.0, 0.0, 1.747688054751903E9, 0.0, 2025-05-19 22:54:14.751
182.0, 21229.753938884012, 17514.08934761159, 47228.520778241254, 29870.11133076088, 35563.61473365006, -1915.7233137754577, 9414.420654108602, 1341.9316818632701, 0.0, 0.0, 15480.125305667558, -13630.563155479807, 2054.8182195208337, -633.0908099521173, -24337.898115861193, -33424.61984451054, 0.060039062500000004, -3.9453125E-4, 1.032734375, 192.0, 0.0, 0.0, 0.0, 0.0, 0.0, 0.0, 0.0, 0.0, 0.0, 1.747688054759946E9, 0.0, 2025-05-19 22:54:14.759
184.0, 21237.085311065355, 17520.32548431462, 47224.36335377257, 29854.822737553448, 35519.626500562015, -1907.006133437888, 9417.86282275472, 1353.4428302577533, 0.0, 0.0, 15456.253642589289, -13651.596147012253, 2028.5325680413926, -689.7971856352312, -24395.051526433414, -33472.69844683391, 0.06301953125000001, -0.002197265625, 1.0363671875, 192.0, 1.0, 8.0, 127.5, 112.0, 16.0, 64.0, 0.0, 0.0, 0.0, 1.747688054767942E9, 0.0, 2025-05-19 22:54:14.767
186.0, 21259.615869476303, 17539.36917059054, 47251.00663316329, 29892.53013044955, 35561.357207460074, -1891.650484997092, 9447.903567302654, 1354.4039552693314, 0.0, 0.0, 15487.233160404345, -13625.913992633104, 2061.6578533241577, -637.6505658209999, -24337.562839694365, -33434.70048125988, 0.06301953125000001, -0.002197265625, 1.0363671875, 192.0, 0.0, 0.0, 0.0, 0.0, 0.0, 0.0, 0.0, 0.0, 0.0, 1.747688054775979E9, 0.0, 2025-05-19 22:54:14.775
188.0, 21252.418607761694, 17536.418740322442, 47239.11550511307, 29873.19587149571, 35538.46902113784, -1873.7020341994805, 9400.495517312947, 1346.513789476608, 0.0, 0.0, 15482.360480113088, -13626.003399610925, 2076.9464465315878, -651.12866772755, -24360.406322527688, -33440.82485924064, 0.06301953125000001, -0.002197265625, 1.0363671875, 192.0, 0.0, 0.0, 0.0, 0.0, 0.0, 0.0, 0.0, 0.0, 0.0, 1.747688054782957E9, 0.0, 2025-05-19 22:54:14.782
190.0, 21260.64404972125, 17540.732627002315, 47264.88706647004, 29897.738086907637, 35561.893649327, -1884.0955953711982, 9453.066820271828, 1351.74409767915, 0.0, 0.0, 15495.190381430433, -13615.3639692502, 2074.0854232413085, -647.7982578037092, -24347.1964415546, -33443.01533019725, 0.06301953125000001, -0.002197265625, 1.0363671875, 192.0, 0.0, 0.0, 0.0, 0.0, 0.0, 0.0, 0.0, 0.0, 0.0, 1.747688054792029E9, 0.0, 2025-05-19 22:54:14.792
192.0, 21258.408875275716, 17535.547022288683, 47249.24084535132, 29885.556386179494, 35550.18133523242, -1890.8011187077905, 9418.6227820662, 1341.7975713965384, 0.0, 0.0, 15499.772489043771, -13618.560268707308, 2099.1417287757076, -622.5631383136677, -24329.24799075699, -33424.53043753272, 0.06301953125000001, -0.002197265625, 1.0363671875, 192.0, 0.0, 0.0, 0.0, 0.0, 0.0, 0.0, 0.0, 0.0, 0.0, 1.747688054800032E9, 0.0, 2025-05-19 22:54:14.800
194.0, 21272.043439393456, 17548.46633058385, 47257.68980475543, 29882.650659400304, 35541.710024083855, -1861.9897201048996, 9431.698552572556, 1354.7168796917058, 0.0, 0.0, 15495.279788408256, -13624.863460643704, 2086.6918071141013, -661.2540079658041, -24362.66384871767, -33454.05709195818, 0.062509765625, -0.0060986328125, 1.0361835937500001, 192.0, 0.5, 120.0, 127.5, 88.0, 16.0, 48.0, 0.0, 0.0, 0.0, 1.747688054807102E9, 0.0, 2025-05-19 22:54:14.807
196.0, 21266.053171879434, 17546.1417491605, 47255.00759542079, 29896.419333984773, 35556.328064957626, -1842.007260561855, 9439.34284917627, 1347.9443011217477, 0.0, 0.0, 15504.756928057306, -13612.480594215465, 2101.868641599255, -625.4241616039469, -24331.416109969156, -33429.55958003516, 0.062509765625, -0.0060986328125, 1.0361835937500001, 192.0, 0.0, 0.0, 0.0, 0.0, 0.0, 0.0, 0.0, 0.0, 0.0, 1.747688054815142E9, 0.0, 2025-05-19 22:54:14.815
198.0, 21258.028895619977, 17535.03293216621, 47249.39730756251, 29875.118121518866, 35538.26785543774, -1884.0732436267429, 9406.396377849147, 1351.230007556678, 0.0, 0.0, 15489.803611016705, -13632.239536313957, 2101.6898276436123, -647.8429612926199, -24356.11478759227, -33446.05516744318, 0.062509765625, -0.0060986328125, 1.0361835937500001, 192.0, 0.0, 0.0, 0.0, 0.0, 0.0, 0.0, 0.0, 0.0, 0.0, 1.74768805482417E9, 0.0, 2025-05-19 22:54:14.824
200.0, 21266.34374455735, 17541.984324691814, 47259.902627456504, 29902.946043365726, 35552.975303289335, -1850.0315368213103, 9458.900625574664, 1355.1862663252673, 0.0, 0.0, 15490.407108116999, -13624.617591454697, 2089.1728507486405, -646.7253740698545, -24348.58224971083, -33444.42349009794, 0.062509765625, -0.0060986328125, 1.0361835937500001, 192.0, 0.0, 0.0, 0.0, 0.0, 0.0, 0.0, 0.0, 0.0, 0.0, 1.747688054832215E9, 0.0, 2025-05-19 22:54:14.832
202.0, 21262.02985787748, 17535.23409786631, 47263.03187168025, 29904.19774105522, 35570.76729187576, -1864.493115483894, 9406.306970871326, 1338.198940539234, 0.0, 0.0, 15506.2097914469, -13610.200716281024, 2125.13680757723, -606.6933997503996, -24316.06046152836, -33406.62669022402, 0.062509765625, -0.0060986328125, 1.0361835937500001, 192.0, 0.0, 0.0, 0.0, 0.0, 0.0, 0.0, 0.0, 0.0, 0.0, 1.747688054839269E9, 0.0, 2025-05-19 22:54:14.839
204.0, 21263.43801777816, 17534.965876932845, 47255.0522989097, 29885.86931060187, 35546.51564914175, -1861.5650369602488, 9420.790901278366, 1348.1231150773901, 0.0, 0.0, 15491.748212784316, -13622.672989687086, 2104.7296648895344, -652.581531117145, -24359.1993283271, -33446.30103663219, 0.062509765625, -0.0060986328125, 1.0361835937500001, 192.0, 0.0, 0.0, 0.0, 0.0, 0.0, 0.0, 0.0, 0.0, 0.0, 1.747688054847207E9, 0.0, 2025-05-19 22:54:14.847
206.0, 21266.902538168735, 17538.18452813441, 47258.76268848928, 29901.67199393177, 35567.63804765201, -1880.742833702902, 9451.502198159957, 1353.6663477023064, 0.0, 0.0, 15505.02514899077, -13616.682722173062, 2118.028952840442, -616.1928911439051, -24317.602731895775, -33423.546960776686, 0.068, -0.006, 1.036, 192.0, 1.0, 16.0, 127.5, 104.0, 16.0, 48.0, 0.0, 0.0, 0.0, 1.747688054856272E9, 0.0, 2025-05-19 22:54:14.856
208.0, 21246.473043736583, 17521.107795370557, 47237.52853125674, 29866.557403392486, 35541.75472757277, -1840.1297140276092, 9385.85512469472, 1335.8967108603372, 0.0, 0.0, 15482.82986674665, -13632.686571203063, 2117.1572348066848, -647.2618159367819, -24358.77464518245, -33445.89870523199, 0.068, -0.006, 1.036, 192.0, 0.0, 0.0, 0.0, 0.0, 0.0, 0.0, 0.0, 0.0, 0.0, 1.747688054863326E9, 0.0, 2025-05-19 22:54:14.863
210.0, 21256.30781129692, 17529.579106519115, 47254.71702274287, 29888.171540280768, 35532.56816060164, -1870.7069004424693, 9451.971584793519, 1360.5283332500856, 0.0, 0.0, 15486.853180748605, -13638.185100339068, 2100.5498886763917, -650.6816328384439, -24345.58711595382, -33457.07457745964, 0.068, -0.006, 1.036, 192.0, 0.0, 0.0, 0.0, 0.0, 0.0, 0.0, 0.0, 0.0, 0.0, 1.747688054871346E9, 0.0, 2025-05-19 22:54:14.871
212.0, 21253.357381028818, 17530.026141408223, 47252.79477271972, 29893.424200227764, 35557.40094869148, -1799.5612978412269, 9420.075645455796, 1348.4360394997645, 0.0, 0.0, 15493.961035485392, -13624.841108899249, 2134.3680780372715, -620.5961848016005, -24329.62797041273, -33426.609149767064, 0.068, -0.006, 1.036, 192.0, 0.0, 0.0, 0.0, 0.0, 0.0, 0.0, 0.0, 0.0, 0.0, 1.747688054880394E9, 0.0, 2025-05-19 22:54:14.880
214.0, 21264.823825934393, 17539.078597912623, 47265.75878450379, 29896.53109270705, 35551.65655036647, -1819.8343300621905, 9409.279752883882, 1350.872379645393, 0.0, 0.0, 15493.134020940546, -13625.98104786647, 2127.2155198115734, -651.5533508722009, -24355.712456192072, -33447.932713977425, 0.068, -0.006, 1.036, 192.0, 0.0, 0.0, 0.0, 0.0, 0.0, 0.0, 0.0, 0.0, 0.0, 1.747688054888413E9, 0.0, 2025-05-19 22:54:14.888
216.0, 21270.67998298168, 17548.0416474392, 47271.30201712871, 29919.73220345166, 35547.07444275313, -1870.103403342176, 9456.039602284385, 1352.9287401352813, 0.0, 0.0, 15516.715111340895, -13599.561285920297, 2156.988043426042, -607.0957311505952, -24313.37825219372, -33413.62278623853, 0.066, -0.008, 1.04, 192.0, 1.0, 8.0, 127.5, 96.0, 16.0, 64.0, 0.0, 0.0, 0.0, 1.747688054895428E9, 0.0, 2025-05-19 22:54:14.895
218.0, 21265.58378524587, 17541.961972947356, 47270.72087177287, 29907.170523067776, 35550.04722476569, -1829.26676622233, 9393.208848620516, 1340.031783584569, 0.0, 0.0, 15506.343901913633, -13612.07826281527, 2161.6819097616567, -624.3736296145474, -24338.121633305745, -33422.56348402065, 0.066, -0.008, 1.04, 192.0, 0.0, 0.0, 0.0, 0.0, 0.0, 0.0, 0.0, 0.0, 0.0, 1.747688054903427E9, 0.0, 2025-05-19 22:54:14.903
220.0, 21279.464218552617, 17553.62958355303, 47283.43901436794, 29925.58836049895, 35553.93642830091, -1829.26676622233, 9460.01821279743, 1362.9199699068035, 0.0, 0.0, 15526.415768434497, -13594.129812017658, 2163.872380718277, -616.1034841660838, -24315.591074894797, -33418.920149674435, 0.066, -0.008, 1.04, 192.0, 0.0, 0.0, 0.0, 0.0, 0.0, 0.0, 0.0, 0.0, 0.0, 1.747688054912503E9, 0.0, 2025-05-19 22:54:14.912
222.0, 21262.700410211135, 17541.760807247258, 47263.121278658065, 29911.68557544775, 35548.05791950916, -1789.748882025347, 9430.446854883057, 1353.8228099134935, 0.0, 0.0, 15517.765643330295, -13599.941265576037, 2183.541915838947, -598.713826979855, -24315.076984772324, -33402.71513494434, 0.066, -0.008, 1.04, 192.0, 0.0, 0.0, 0.0, 0.0, 0.0, 0.0, 0.0, 0.0, 0.0, 1.747688054919557E9, 0.0, 2025-05-19 22:54:14.919
224.0, 21282.995794176557, 17557.89876674399, 47284.3107324017, 29912.087906847944, 35560.28432372622, -1796.364998384118, 9429.709247316034, 1378.4320805587865, 0.0, 0.0, 15511.037768249247, -13608.45728021351, 2166.3534243528156, -634.5213215972569, -24342.56963045235, -33432.53236204772, 0.066, -0.008, 1.04, 192.0, 0.0, 0.0, 0.0, 0.0, 0.0, 0.0, 0.0, 0.0, 0.0, 1.747688054927546E9, 0.0, 2025-05-19 22:54:14.927
226.0, 21276.334974328875, 17553.160196919467, 47273.49248808533, 29921.654453474817, 35575.416454722465, -1818.3144114392296, 9454.452628428058, 1365.93745540827, 0.0, 0.0, 15531.355503959121, -13592.788707350339, 2186.2241251735836, -593.0141321437517, -24299.833095053804, -33405.26323381224, 0.066, -0.01, 1.036, 192.0, 1.0, 8.0, 127.5, 88.0, 16.0, 48.0, 0.0, 0.0, 0.0, 1.747688054935568E9, 0.0, 2025-05-19 22:54:14.935
228.0, 21257.939488642158, 17530.85315595307, 47257.1533628885, 29890.63023217085, 35546.247428208284, -1795.0462454612548, 9391.733633486467, 1346.357327265421, 0.0, 0.0, 15508.422614147976, -13614.514602960899, 2176.5905233133462, -623.1666354139609, -24331.349054735787, -33422.47407704283, 0.066, -0.01, 1.036, 192.0, 0.0, 0.0, 0.0, 0.0, 0.0, 0.0, 0.0, 0.0, 0.0, 1.747688054944624E9, 0.0, 2025-05-19 22:54:14.944
230.0, 21251.79275891695, 17525.354626817065, 47244.21170284888, 29885.846958857415, 35530.55650360066, -1829.5349871557937, 9462.879236087709, 1357.4884960041638, 0.0, 0.0, 15494.698643052418, -13626.584544966763, 2151.0201276564753, -645.6077868470892, -24346.034150842926, -33446.47985058783, 0.066, -0.01, 1.036, 192.0, 0.0, 0.0, 0.0, 0.0, 0.0, 0.0, 0.0, 0.0, 0.0, 1.747688054951627E9, 0.0, 2025-05-19 22:54:14.951
232.0, 21243.67907567967, 17514.37992028951, 47242.6023772481, 29886.808083868993, 35545.062785752154, -1817.241527705375, 9417.527546587891, 1339.8529696289265, 0.0, 0.0, 15488.641320305029, -13640.308516062321, 2165.2358371300506, -629.0451442057067, -24338.546316450396, -33433.82876322613, 0.066, -0.01, 1.036, 192.0, 0.0, 0.0, 0.0, 0.0, 0.0, 0.0, 0.0, 0.0, 0.0, 1.747688054959638E9, 0.0, 2025-05-19 22:54:14.959
234.0, 21253.87147115129, 17522.784176204703, 47254.4040983205, 29885.44462745722, 35555.7916230907, -1819.4096469175397, 9427.764645548421, 1354.5604174805187, 0.0, 0.0, 15488.216637160378, -13635.927574149082, 2156.988043426042, -652.2686066947707, -24350.10216833379, -33450.95019947889, 0.066, -0.01, 1.036, 192.0, 0.0, 0.0, 0.0, 0.0, 0.0, 0.0, 0.0, 0.0, 0.0, 1.747688054967666E9, 0.0, 2025-05-19 22:54:14.967
236.0, 21250.272840293987, 17520.616056992538, 47244.792848204714, 29892.977165338656, 35548.30378869818, -1789.234791902875, 9455.234939483993, 1352.3699465238985, 0.0, 0.0, 15490.094183694624, -13628.551498478831, 2164.9452644521316, -627.1899494159162, -24327.236333756013, -33436.265103371756, 0.064, -0.004, 1.034, 192.0, 1.0, 0.0, 127.5, 112.0, 16.0, 40.0, 0.0, 0.0, 0.0, 1.747688054975707E9, 0.0, 2025-05-19 22:54:14.975
238.0, 21249.28936353795, 17519.99020814779, 47242.423563292454, 29872.167691250765, 35534.17748620242, -1798.2872484072743, 9399.154412645628, 1348.7489639221387, 0.0, 0.0, 15481.175837656956, -13646.36583880971, 2169.125040665274, -651.3074816831925, -24355.578345725342, -33454.54883033619, 0.064, -0.004, 1.034, 192.0, 0.0, 0.0, 0.0, 0.0, 0.0, 0.0, 0.0, 0.0, 0.0, 1.74768805498375E9, 0.0, 2025-05-19 22:54:14.983
240.0, 21269.11536086981, 17543.75011250378, 47254.806429720695, 29900.017964842078, 35550.51661139925, -1805.6409723330705, 9453.558558649846, 1348.480742988675, 0.0, 0.0, 15496.3079686532, -13629.55732697932, 2169.6614825322013, -646.7700775587651, -24339.462737973063, -33454.16885068046, 0.064, -0.004, 1.034, 192.0, 0.0, 0.0, 0.0, 0.0, 0.0, 0.0, 0.0, 0.0, 0.0, 1.747688054991794E9, 0.0, 2025-05-19 22:54:14.991
242.0, 21239.320485510885, 17513.575257489116, 47243.94348191541, 29893.468903716675, 35540.77125081674, -1799.6954083079588, 9424.05425596884, 1332.3651352363986, 0.0, 0.0, 15491.59175057313, -13622.136547820157, 2192.3037996654275, -623.904242980986, -24333.986560581514, -33431.23596086931, 0.064, -0.004, 1.034, 192.0, 0.0, 0.0, 0.0, 0.0, 0.0, 0.0, 0.0, 0.0, 0.0, 1.747688054999831E9, 0.0, 2025-05-19 22:54:14.999
244.0, 21252.552718228428, 17523.99117040529, 47250.67135699646, 29880.32607797695, 35530.19887568938, -1794.778024527791, 9416.074683198296, 1341.9093301188148, 0.0, 0.0, 15492.508172095797, -13629.445568257042, 2181.798479771433, -649.6758043379551, -24344.737749664517, -33457.27574315974, 0.064, -0.004, 1.034, 192.0, 0.0, 0.0, 0.0, 0.0, 0.0, 0.0, 0.0, 0.0, 0.0, 1.747688055006892E9, 0.0, 2025-05-19 22:54:15.006
246.0, 21261.135788099265, 17528.193298362887, 47251.028984907745, 29896.285223518043, 35542.04530025069, -1795.8956117505566, 9464.488561688491, 1346.580844709974, 0.0, 0.0, 15486.383794115043, -13636.262850315912, 2180.85970650431, -633.9625279858742, -24336.2440867715, -33448.80443201118, 0.06, -0.002, 1.036, 192.0, 0.5, 112.0, 127.5, 120.0, 16.0, 48.0, 0.0, 0.0, 0.0, 1.747688055015866E9, 0.0, 2025-05-19 22:54:15.015
248.0, 21261.716933455104, 17530.629638508515, 47249.68788024043, 29887.411580969285, 35536.88204728151, -1761.496277033839, 9415.582944820278, 1347.9890046106584, 0.0, 0.0, 15492.552875584708, -13630.339638035255, 2203.05498874843, -634.9013012529971, -24339.753310650984, -33441.60717029657, 0.06, -0.002, 1.036, 192.0, 0.0, 0.0, 0.0, 0.0, 0.0, 0.0, 0.0, 0.0, 0.0, 1.747688055023907E9, 0.0, 2025-05-19 22:54:15.023
250.0, 21269.383581803275, 17540.553813046674, 47260.21555187888, 29901.649642187316, 35546.381538675014, -1772.4262800724841, 9462.096925031772, 1365.0433856300576, 0.0, 0.0, 15500.286579166244, -13623.857632143216, 2196.2600584340166, -636.8459030206088, -24330.589095424308, -33447.5974378106, 0.06, -0.002, 1.036, 192.0, 0.0, 0.0, 0.0, 0.0, 0.0, 0.0, 0.0, 0.0, 0.0, 1.747688055031966E9, 0.0, 2025-05-19 22:54:15.031
252.0, 21254.07263685139, 17527.187469862398, 47248.43618255093, 29901.29201427603, 35543.27464619573, -1782.6410272885594, 9419.516851844413, 1335.8967108603372, 0.0, 0.0, 15497.291445409233, -13622.047140842336, 2219.0141342895195, -616.3940568440029, -24325.381138966222, -33422.85405669857, 0.06, -0.002, 1.036, 192.0, 0.0, 0.0, 0.0, 0.0, 0.0, 0.0, 0.0, 0.0, 0.0, 1.74768805503894E9, 0.0, 2025-05-19 22:54:15.038
254.0, 21262.990982889056, 17528.50622278526, 47252.77242097526, 29888.864444358882, 35538.5360763712, -1774.3932335845511, 9421.19323267856, 1350.5594552230186, 0.0, 0.0, 15488.283692393745, -13630.831376413273, 2202.049160247941, -652.9615107728853, -24353.544336979907, -33455.30878964768, 0.06, -0.002, 1.036, 192.0, 0.0, 0.0, 0.0, 0.0, 0.0, 0.0, 0.0, 0.0, 0.0, 1.74768805504802E9, 0.0, 2025-05-19 22:54:15.048
0.0, 21260.10760785432, 17531.635467009004, 47252.77242097526, 29900.621461942374, 35558.205611491874, -1767.240675358853, 9444.573157378813, 1344.1221528198903, 0.0, 0.0, 15504.198134445924, -13622.717693175995, 2217.918898811209, -617.0422574332068, -24314.607598138762, -33432.42060332544, 0.06, -0.002, 1.034, 192.0, 0.5, 112.0, 127.5, 120.0, 16.0, 40.0, 0.0, 0.0, 0.0, 1.74768805505605E9, 0.0, 2025-05-19 22:54:15.056
2.0, 21257.715971197602, 17528.32740882962, 47249.33025232914, 29887.52333969156, 35537.239675192795, -1760.401041555529, 9402.730691758477, 1343.093972574946, 0.0, 0.0, 15486.652015048507, -13638.02863812788, 2217.58362264438, -645.4736763803573, -24356.695932948107, -33448.826783755634, 0.06, -0.002, 1.034, 192.0, 0.0, 0.0, 0.0, 0.0, 0.0, 0.0, 0.0, 0.0, 0.0, 1.747688055065039E9, 0.0, 2025-05-19 22:54:15.065
4.0, 21268.757732958526, 17535.70348449987, 47261.22138037937, 29911.260892303097, 35538.11139322655, -1761.3174630781966, 9460.82287559782, 1356.12503959239, 0.0, 0.0, 15507.193268202935, -13621.913030375605, 2220.958736057131, -632.5767198296452, -24329.58326692382, -33444.222324397844, 0.06, -0.002, 1.034, 192.0, 0.0, 0.0, 0.0, 0.0, 0.0, 0.0, 0.0, 0.0, 0.0, 1.74768805507109E9, 0.0, 2025-05-19 22:54:15.071
6.0, 21261.091084610354, 17527.053359395668, 47251.29720584121, 29905.360031766897, 35544.28047469622, -1775.39906208504, 9415.873517498198, 1334.9579375932144, 0.0, 0.0, 15501.962960000392, -13617.777957651373, 2242.6846316676892, -610.649658518989, -24320.553162163873, -33422.29526308719, 0.06, -0.002, 1.034, 192.0, 0.0, 0.0, 0.0, 0.0, 0.0, 0.0, 0.0, 0.0, 0.0, 1.747688055080086E9, 0.0, 2025-05-19 22:54:15.080
8.0, 21261.82869217738, 17524.70642622786, 47246.93861567243, 29887.09865654691, 35507.9812417008, -1738.272814544775, 9427.027037981396, 1349.8889028893595, 0.0, 0.0, 15494.005738974303, -13631.256059557923, 2225.049105292452, -653.9002840400082, -24354.952496880593, -33458.482737360326, 0.06, -0.002, 1.034, 192.0, 0.0, 0.0, 0.0, 0.0, 0.0, 0.0, 0.0, 0.0, 0.0, 1.747688055087166E9, 0.0, 2025-05-19 22:54:15.087
10.0, 21272.199901604643, 17538.631563023515, 47259.567351289676, 29916.73706969465, 35549.8907625545, -1784.1609459115205, 9444.148474234162, 1350.291234289555, 0.0, 0.0, 15507.707358325406, -13618.3143995183, 2241.723506656111, -620.0597429346732, -24326.208153511066, -33437.27093187224, 0.062, -0.006, 1.034, 192.0, 0.5, 120.0, 127.5, 104.0, 16.0, 40.0, 0.0, 0.0, 0.0, 1.74768805509524E9, 0.0, 2025-05-19 22:54:15.095
12.0, 21270.098837625843, 17536.552850789172, 47258.42741232245, 29901.33671776494, 35529.751840800265, -1727.9910120953336, 9387.509153784413, 1334.1532747928234, 0.0, 0.0, 15506.612122847097, -13618.247344284933, 2256.8109341634436, -628.1287226830391, -24334.38889198171, -33435.10281266008, 0.062, -0.006, 1.034, 192.0, 0.0, 0.0, 0.0, 0.0, 0.0, 0.0, 0.0, 0.0, 0.0, 1.747688055104208E9, 0.0, 2025-05-19 22:54:15.104
14.0, 21280.425343564195, 17544.241850881797, 47270.542057817234, 29923.219075586687, 35551.54479164419, -1730.0026690963114, 9450.563424892835, 1359.7683739386052, 0.0, 0.0, 15514.681102595461, -13609.574867436275, 2249.7030794266557, -628.3298883831368, -24328.689197145606, -33439.193181895396, 0.062, -0.006, 1.034, 192.0, 0.0, 0.0, 0.0, 0.0, 0.0, 0.0, 0.0, 0.0, 0.0, 1.74768805511228E9, 0.0, 2025-05-19 22:54:15.112
16.0, 21272.06579113791, 17534.742359488293, 47271.92786597346, 29919.329872051465, 35556.79745159119, -1733.042506342233, 9411.067892440307, 1341.5517022075298, 0.0, 0.0, 15518.637361364052, -13607.697320902029, 2275.340530316893, -598.4903095353019, -24308.393813180188, -33411.74523970428, 0.062, -0.006, 1.034, 192.0, 0.0, 0.0, 0.0, 0.0, 0.0, 0.0, 0.0, 0.0, 0.0, 1.747688055119291E9, 0.0, 2025-05-19 22:54:15.119
18.0, 21271.93168067118, 17530.249658852776, 47258.18154313345, 29896.039354329034, 35530.869428023034, -1739.8374366566466, 9422.91431700162, 1347.676080188284, 0.0, 0.0, 15510.322512426677, -13623.634114698663, 2255.961567874142, -637.6505658209999, -24340.06623507336, -33449.0950046891, 0.062, -0.006, 1.034, 192.0, 0.0, 0.0, 0.0, 0.0, 0.0, 0.0, 0.0, 0.0, 0.0, 1.747688055127301E9, 0.0, 2025-05-19 22:54:15.127
20.0, 21272.579881260383, 17531.210783864353, 47264.28356936974, 29915.820648171983, 35555.7916230907, -1749.0240036277776, 9439.901642787652, 1332.0522108140244, 0.0, 0.0, 15513.83173630616, -13618.247344284933, 2263.2929400554826, -614.6059172875783, -24317.513324917953, -33431.5935887806, 0.062, -0.012, 1.04, 192.0, 0.5, 120.0, 127.5, 80.0, 16.0, 64.0, 0.0, 0.0, 0.0, 1.747688055136349E9, 0.0, 2025-05-19 22:54:15.136
22.0, 21270.814093448414, 17526.628676251017, 47260.193200134425, 29893.848883372415, 35545.53217238571, -1713.015343310278, 9387.084470639762, 1326.9560130782145, 0.0, 0.0, 15511.730672327361, -13627.813890911806, 2275.854620439365, -629.291013394715, -24332.980732081025, -33442.1436121635, 0.062, -0.012, 1.04, 192.0, 0.0, 0.0, 0.0, 0.0, 0.0, 0.0, 0.0, 0.0, 0.0, 1.747688055143327E9, 0.0, 2025-05-19 22:54:15.143
24.0, 21273.451599294138, 17532.440129809398, 47255.20876112089, 29901.001441598113, 35537.35143391507, -1773.0968324061434, 9452.999765038463, 1332.7004114032284, 0.0, 0.0, 15512.937666527949, -13621.130719319668, 2262.9353121441977, -641.1821414449385, -24337.42872922763, -33456.22521117034, 0.062, -0.012, 1.04, 192.0, 0.0, 0.0, 0.0, 0.0, 0.0, 0.0, 0.0, 0.0, 0.0, 1.747688055151341E9, 0.0, 2025-05-19 22:54:15.151
26.0, 21265.002639890034, 17524.61701925004, 47249.82199070716, 29896.173464795767, 35553.06471026716, -1727.5439772062275, 9407.20104064954, 1320.7869316085496, 0.0, 0.0, 15501.11359371109, -13628.663257201108, 2278.6485884962785, -627.681687793933, -24336.266438515955, -33445.71989127635, 0.062, -0.012, 1.04, 192.0, 0.0, 0.0, 0.0, 0.0, 0.0, 0.0, 0.0, 0.0, 0.0, 1.747688055159354E9, 0.0, 2025-05-19 22:54:15.159
28.0, 21275.127980128287, 17527.545097773684, 47249.911397684984, 29879.834339598936, 35529.50597161126, -1731.0308493412554, 9416.946401232053, 1337.5954434389405, 0.0, 0.0, 15499.325454154667, -13633.468882258998, 2266.2657220680385, -655.4872578963349, -24351.689142190116, -33470.95501076639, 0.062, -0.012, 1.04, 192.0, 0.0, 0.0, 0.0, 0.0, 0.0, 0.0, 0.0, 0.0, 0.0, 1.747688055168353E9, 0.0, 2025-05-19 22:54:15.168
30.0, 21276.78200921798, 17533.960048432356, 47260.5061245568, 29912.132610336856, 35538.51372462675, -1672.469278868351, 9442.360334677736, 1326.8666061003933, 0.0, 0.0, 15505.49453562433, -13633.714751448006, 2273.5300390160132, -630.5874145731228, -24332.801918125384, -33456.180507681434, 0.06, -0.006, 1.036, 192.0, 0.5, 112.0, 127.5, 104.0, 16.0, 48.0, 0.0, 0.0, 0.0, 1.747688055175435E9, 0.0, 2025-05-19 22:54:15.175
32.0, 21275.30679408393, 17537.603382778572, 47267.14459266002, 29903.63894744384, 35537.172619959434, -1729.5556342072052, 9395.689892255055, 1333.6615364148065, 0.0, 0.0, 15519.39732067553, -13613.59818143823, 2306.2976963874935, -625.6700307929553, -24330.745557635495, -33441.27189412974, 0.06, -0.006, 1.036, 192.0, 0.0, 0.0, 0.0, 0.0, 0.0, 0.0, 0.0, 0.0, 0.0, 1.747688055183422E9, 0.0, 2025-05-19 22:54:15.183
34.0, 21283.800456976947, 17541.85021422508, 47269.82680199466, 29918.435802273252, 35541.39709966148, -1717.3962852235181, 9446.696573102066, 1346.357327265421, 0.0, 0.0, 15521.431329420964, -13610.714806403495, 2293.2219258811388, -633.2249204188491, -24331.460813458063, -33453.00655996878, 0.06, -0.006, 1.036, 192.0, 0.0, 0.0, 0.0, 0.0, 0.0, 0.0, 0.0, 0.0, 0.0, 1.747688055192508E9, 0.0, 2025-05-19 22:54:15.192
36.0, 21270.88114868178, 17531.099025142077, 47266.22817113736, 29914.524246993573, 35547.94616078689, -1698.5984681366049, 9407.223392393995, 1328.2524142566222, 0.0, 0.0, 15522.079530010169, -13609.485460458454, 2318.6135075823677, -605.776978227732, -24314.62994988322, -33427.54792303418, 0.06, -0.006, 1.036, 192.0, 0.0, 0.0, 0.0, 0.0, 0.0, 0.0, 0.0, 0.0, 0.0, 1.747688055198494E9, 0.0, 2025-05-19 22:54:15.198
38.0, 21268.713029469614, 17524.147632616477, 47253.21945586437, 29895.01117408409, 35504.98610794379, -1734.338907520641, 9432.547918861857, 1343.4739522306863, 0.0, 0.0, 15514.770509573284, -13625.489309488454, 2300.016856195552, -644.2666821797708, -24345.408301998177, -33460.47204261685, 0.06, -0.006, 1.036, 192.0, 0.0, 0.0, 0.0, 0.0, 0.0, 0.0, 0.0, 0.0, 0.0, 1.747688055207513E9, 0.0, 2025-05-19 22:54:15.207
40.0, 21280.134770886278, 17535.792891477693, 47273.78306076325, 29924.35901455391, 35556.97626554683, -1667.6189503215494, 9432.123235717207, 1328.5429869345412, 0.0, 0.0, 15518.07856775267, -13614.581658194264, 2309.091664444407, -619.2550801342821, -24326.85635410027, -33441.853039485584, 0.06, -0.004, 1.032, 192.0, 0.5, 112.0, 127.5, 112.0, 16.0, 32.0, 0.0, 0.0, 0.0, 1.747688055215492E9, 0.0, 2025-05-19 22:54:15.215
