%OpenBCI Raw EXG Data
%Number of channels = 16
%Sample Rate = 125 Hz
%Board = OpenBCI_GUI$BoardCytonSerialDaisy
Sample Index, EXG Channel 0, EXG Channel 1, EXG Channel 2, EXG Channel 3, EXG Channel 4, EXG Channel 5, EXG Channel 6, EXG Channel 7, EXG Channel 8, EXG Channel 9, EXG Channel 10, EXG Channel 11, EXG Channel 12, EXG Channel 13, EXG Channel 14, EXG Channel 15, Accel Channel 0, Accel Channel 1, Accel Channel 2, Not Used, Digital Channel 0 (D11), Digital Channel 1 (D12), Digital Channel 2 (D13), Digital Channel 3 (D17), Not Used, Digital Channel 4 (D18), Analog Channel 0, Analog Channel 1, Analog Channel 2, Timestamp, Marker Channel, Timestamp (Formatted)
192.0, 21927.485993800878, 18497.499048411733, 48454.648072081574, 33744.67447336608, 41817.7222392228, 184.29013303400674, 7159.867246135145, 3977.671739777534, 0.0, 0.0, 8319.296934520833, -25222.71427186898, 16227.634695486391, 4852.116686358057, -10121.920421352437, -31675.34997169375, 0.0, 0.0, 0.0, 192.0, 0.0, 0.0, 0.0, 0.0, 0.0, 0.0, 0.0, 0.0, 0.0, 1.747690946506109E9, 0.0, 2025-05-19 23:42:26.506
0.0, 11352.026325705807, 9479.799506640376, 24237.583486745774, 16899.572837301832, 22128.517583431912, 1189.6045434003524, 4132.994011997463, 3713.1611958934304, 0.0, 0.0, 4168.510933936946, -12601.377082035195, 8121.707513535919, 2433.7026397827435, -5053.6847178560165, -15831.740597693992, 0.056, -0.006, 1.034, 192.0, 0.5, 96.0, 127.5, 104.0, 16.0, 40.0, 0.0, 0.0, 0.0, 1.747690946597006E9, 0.0, 2025-05-19 23:42:26.597
2.0, 22741.089491974057, 19016.350092452776, 48507.442892485014, 33846.50902110446, 44286.36065558918, 2398.297476565537, 8308.433986715554, 7447.020107152475, 0.0, 0.0, 8012.496890127289, -25614.339186470414, 16568.834074596652, 5024.001601219368, -9398.126232400684, -31620.92347394508, 0.056, -0.006, 1.034, 192.0, 0.0, 0.0, 0.0, 0.0, 0.0, 0.0, 0.0, 0.0, 0.0, 1.747690946603101E9, 0.0, 2025-05-19 23:42:26.603
4.0, 22711.853410226515, 18972.205397153546, 48487.5945434087, 33825.721898761025, 44273.08371938273, 2414.7930639735537, 8268.111439718181, 7412.08433056883, 0.0, 0.0, 8037.1061607725815, -25587.58414835741, 16600.19357206745, 5046.196883463488, -9384.916351427597, -31596.738886444437, 0.056, -0.006, 1.034, 192.0, 0.0, 0.0, 0.0, 0.0, 0.0, 0.0, 0.0, 0.0, 0.0, 1.747690946610039E9, 0.0, 2025-05-19 23:42:26.610
6.0, 22724.705663288318, 18992.321967163323, 48499.463319714465, 33830.683986030104, 44287.858222467694, 2423.9125757113193, 8283.981178281449, 7435.419551780171, 0.0, 0.0, 8011.222840693336, -25613.981558559128, 16571.069249042182, 5013.429226092008, -9416.544069831858, -31625.371471091687, 0.056, -0.006, 1.034, 192.0, 0.0, 0.0, 0.0, 0.0, 0.0, 0.0, 0.0, 0.0, 0.0, 1.747690946618058E9, 0.0, 2025-05-19 23:42:26.618
8.0, 22732.59582908104, 18995.741784064983, 48502.324343004744, 33846.01728272644, 44293.20028939251, 2415.664782007311, 8299.158012766602, 7437.18533959214, 0.0, 0.0, 8035.832111338629, -25583.806703544466, 16591.744612663344, 5049.169665476044, -9375.685080967556, -31593.78845617634, 0.058, 0.0, 1.036, 192.0, 0.5, 104.0, 0.0, 0.0, 16.0, 48.0, 0.0, 0.0, 0.0, 1.74769094662616E9, 0.0, 2025-05-19 23:42:26.626
10.0, 22711.49578231523, 18972.71948727602, 48480.821964838746, 33814.59073002228, 44269.10510886969, 2388.7756334275764, 8255.39329712311, 7421.740284173523, 0.0, 0.0, 8018.5542128746765, -25609.712375368166, 16579.674670657478, 5029.924813500025, -9404.228258636984, -31609.792305206338, 0.058, 0.0, 1.036, 192.0, 0.0, 0.0, 0.0, 0.0, 0.0, 0.0, 0.0, 0.0, 0.0, 1.747690946635062E9, 0.0, 2025-05-19 23:42:26.635
12.0, 22730.02537846868, 18994.266568930932, 48488.98035156493, 33828.29234937338, 44290.451024824506, 2384.4617467477024, 8290.843163829228, 7428.736380188034, 0.0, 0.0, 8001.544535344188, -25611.500514924588, 16560.698039614923, 5013.250412136365, -9408.966828461507, -31626.801982736826, 0.058, 0.0, 1.036, 192.0, 0.0, 0.0, 0.0, 0.0, 0.0, 0.0, 0.0, 0.0, 0.0, 1.747690946642097E9, 0.0, 2025-05-19 23:42:26.642
14.0, 22723.45396559882, 18987.628100827707, 48484.75587186288, 33825.230160383006, 44282.62791426515, 2424.069037922506, 8266.099782717203, 7422.23202255154, 0.0, 0.0, 8039.788370107219, -25597.664785106754, 16594.739746420353, 5046.621566608139, -9382.90469442662, -31594.72722944346, 0.058, 0.0, 1.036, 192.0, 0.0, 0.0, 0.0, 0.0, 0.0, 0.0, 0.0, 0.0, 0.0, 1.747690946650137E9, 0.0, 2025-05-19 23:42:26.650
16.0, 22715.966131206293, 18978.687403045584, 48481.581924150225, 33815.17187537812, 44273.866030438665, 2370.46955471868, 8265.988023994925, 7421.270897539962, 0.0, 0.0, 7990.279256138713, -25640.64718969431, 16550.013905765285, 5001.0910631526785, -9427.161148448127, -31636.92732297508, 0.058, 0.0, 1.036, 192.0, 0.0, 0.0, 0.0, 0.0, 0.0, 0.0, 0.0, 0.0, 0.0, 1.747690946658159E9, 0.0, 2025-05-19 23:42:26.658
18.0, 22709.618235780985, 18974.775847765904, 48483.5935811512, 33827.84531448428, 44272.413167049075, 2401.7396452116545, 8284.696434104018, 7411.883164868733, 0.0, 0.0, 8026.422026922945, -25589.01466000255, 16583.027432325773, 5032.137636201101, -9390.95132243053, -31611.40163080712, 0.058, -0.006, 1.034, 192.0, 0.5, 104.0, 127.5, 104.0, 16.0, 40.0, 0.0, 0.0, 0.0, 1.747690946669184E9, 0.0, 2025-05-19 23:42:26.669
20.0, 22713.909770716404, 18979.89439724617, 48487.41572945306, 33824.671366771625, 44260.723204698945, 2407.6405057478555, 8245.133846418124, 7411.503185212992, 0.0, 0.0, 8001.209259177359, -25619.59184641741, 16569.99636530833, 5018.212499405444, -9413.079549441285, -31622.845723968236, 0.058, -0.006, 1.034, 192.0, 0.0, 0.0, 0.0, 0.0, 0.0, 0.0, 0.0, 0.0, 0.0, 1.747690946675207E9, 0.0, 2025-05-19 23:42:26.675
22.0, 22724.72801503277, 18992.411374141142, 48487.50513643088, 33831.98038720851, 44278.02345490736, 2402.209031845216, 8280.963692779982, 7420.734455673034, 0.0, 0.0, 8028.813663579663, -25587.897072779786, 16583.22859802587, 5020.782950017804, -9402.127194658184, -31620.45408731152, 0.058, -0.006, 1.034, 192.0, 0.0, 0.0, 0.0, 0.0, 0.0, 0.0, 0.0, 0.0, 0.0, 1.747690946682237E9, 0.0, 2025-05-19 23:42:26.682
24.0, 22711.29461661513, 18988.14219095018, 48486.23108699693, 33837.03188145541, 44277.375254318154, 2424.5607763005232, 8272.268864186868, 7436.8500634253105, 0.0, 0.0, 8015.693189584397, -25601.621043875344, 16586.536656205255, 5035.646860080584, -9397.209810878017, -31604.517293514884, 0.058, -0.006, 1.034, 192.0, 0.0, 0.0, 0.0, 0.0, 0.0, 0.0, 0.0, 0.0, 0.0, 1.747690946690305E9, 0.0, 2025-05-19 23:42:26.690
26.0, 22721.19643940883, 18993.43955438609, 48492.57898242224, 33828.00177669546, 44271.072062381754, 2408.6463342483444, 8252.644032555108, 7417.046417837909, 0.0, 0.0, 8016.0284657512275, -25608.751250356585, 16577.99828982333, 5015.843214493181, -9415.33707563127, -31623.292758857344, 0.058, -0.006, 1.034, 192.0, 0.0, 0.0, 0.0, 0.0, 0.0, 0.0, 0.0, 0.0, 0.0, 1.747690946697293E9, 0.0, 2025-05-19 23:42:26.697
28.0, 22715.049709683622, 18982.598958325263, 48494.63534291212, 33840.11642219024, 44272.52492577135, 2415.754188985132, 8286.842201571728, 7440.359287304794, 0.0, 0.0, 8015.514375628755, -25589.081715235916, 16584.882627115563, 5033.121112957134, -9394.326435843283, -31607.713592971995, 0.058, 0.002, 1.03, 192.0, 0.5, 104.0, 0.0, 8.0, 16.0, 24.0, 0.0, 0.0, 0.0, 1.747690946706386E9, 0.0, 2025-05-19 23:42:26.706
30.0, 22711.026395681667, 18972.361859364733, 48485.40407245208, 33824.22433188252, 44278.29167584082, 2427.8017792465425, 8268.938454263027, 7442.862682683788, 0.0, 0.0, 8022.823396065641, -25619.79301211751, 16580.23346426886, 5030.193034433489, -9403.110671414217, -31608.40649705011, 0.058, 0.002, 1.03, 192.0, 0.0, 0.0, 0.0, 0.0, 0.0, 0.0, 0.0, 0.0, 0.0, 1.747690946714406E9, 0.0, 2025-05-19 23:42:26.714
32.0, 22705.840790968035, 18989.550350850863, 48477.58096189272, 33835.735480277, 44296.24012663843, 2382.427738002269, 8295.447623187021, 7430.949202889109, 0.0, 0.0, 8011.580468604621, -25592.412125159757, 16574.846693855132, 5020.671191295528, -9404.161203403617, -31615.961386676, 0.058, 0.002, 1.03, 192.0, 0.0, 0.0, 0.0, 0.0, 0.0, 0.0, 0.0, 0.0, 0.0, 1.747690946721437E9, 0.0, 2025-05-19 23:42:26.721
34.0, 22718.87185798548, 18984.52120834842, 48491.55080217729, 33835.95899772156, 44269.73095771443, 2421.6326977768776, 8270.190151952524, 7432.513825000981, 0.0, 0.0, 8010.686398826409, -25606.001985788585, 16582.781563136767, 5032.718781556939, -9397.902714956132, -31607.959462161, 0.058, 0.002, 1.03, 192.0, 0.0, 0.0, 0.0, 0.0, 0.0, 0.0, 0.0, 0.0, 0.0, 1.74769094672946E9, 0.0, 2025-05-19 23:42:26.729
36.0, 22716.659035284407, 18976.4298768556, 48487.32632247524, 33805.69473572907, 44277.19644036251, 2393.42479627428, 8272.224160697957, 7440.627508238257, 0.0, 0.0, 8020.655276853476, -25627.079680809937, 16572.47740894287, 5013.8315574922035, -9414.152433175139, -31624.58916003575, 0.058, 0.002, 1.03, 192.0, 0.0, 0.0, 0.0, 0.0, 0.0, 0.0, 0.0, 0.0, 0.0, 1.747690946738526E9, 0.0, 2025-05-19 23:42:26.738
38.0, 22688.406430292896, 18962.84001622677, 48442.46637135343, 33810.54506427587, 44279.09633864121, 2395.168232341794, 8269.653710085597, 7410.027970078942, 0.0, 0.0, 7990.4357183499005, -25623.68221565273, 16555.065400012183, 5005.069673665724, -9418.667485555112, -31637.77668926438, 0.056, -0.006, 1.032, 192.0, 0.5, 96.0, 127.5, 104.0, 16.0, 32.0, 0.0, 0.0, 0.0, 1.747690946746541E9, 0.0, 2025-05-19 23:42:26.746
40.0, 22716.703738773318, 18977.592167567276, 48494.90356384558, 33823.84435222678, 44274.17895486104, 2399.280953321571, 8248.10662843068, 7421.337952773328, 0.0, 0.0, 8006.663084824453, -25606.896055566795, 16576.47837120037, 5019.4641970949415, -9413.370122119204, -31619.135334388655, 0.056, -0.006, 1.032, 192.0, 0.0, 0.0, 0.0, 0.0, 0.0, 0.0, 0.0, 0.0, 0.0, 1.747690946753571E9, 0.0, 2025-05-19 23:42:26.753
42.0, 22696.54246527463, 18959.308440602832, 48469.199057721984, 33789.89205239917, 44261.88549541062, 2385.1322990813615, 8261.092991959214, 7385.8433825782995, 0.0, 0.0, 8006.797195291186, -25650.705474699196, 16547.979897019854, 5004.667342265528, -9412.43134885208, -31645.063357956813, 0.056, -0.006, 1.032, 192.0, 0.0, 0.0, 0.0, 0.0, 0.0, 0.0, 0.0, 0.0, 0.0, 1.747690946762584E9, 0.0, 2025-05-19 23:42:26.762
44.0, 22707.83009622456, 18979.00032746796, 48474.80934558027, 33828.717032518034, 44270.35680655918, 2414.1895668732604, 8248.86658774216, 7422.61200220728, 0.0, 0.0, 7994.235514907303, -25611.03112829103, 16571.89626358703, 5019.911231984047, -9411.604334307234, -31622.912779201604, 0.056, -0.006, 1.032, 192.0, 0.0, 0.0, 0.0, 0.0, 0.0, 0.0, 0.0, 0.0, 0.0, 1.747690946770628E9, 0.0, 2025-05-19 23:42:26.770
46.0, 22691.714488472284, 18975.066420443825, 48478.16210724856, 33826.839485983786, 44279.185745619034, 2404.466558035202, 8296.788727854339, 7451.602214765813, 0.0, 0.0, 8004.517317356744, -25624.620988919854, 16567.068286784684, 5012.624563291617, -9415.471186098002, -31628.59012229325, 0.056, -0.006, 1.032, 192.0, 0.0, 0.0, 0.0, 0.0, 0.0, 0.0, 0.0, 0.0, 0.0, 1.747690946777657E9, 0.0, 2025-05-19 23:42:26.777
48.0, 22731.031206969168, 18994.579493353307, 48516.4506455005, 33865.1950794691, 44293.75908300389, 2443.4480003652575, 8313.50783270691, 7451.892787443732, 0.0, 0.0, 8016.296686684691, -25585.751305312075, 16587.363670750103, 5049.661403854061, -9377.920255413086, -31593.073200353767, 0.056, -0.008, 1.032, 192.0, 0.5, 96.0, 127.5, 96.0, 16.0, 32.0, 0.0, 0.0, 0.0, 1.747690946785654E9, 0.0, 2025-05-19 23:42:26.785
50.0, 22713.798011994128, 18983.783600781393, 48494.63534291212, 33841.88221000221, 44269.28392282533, 2417.855252963931, 8264.110477460681, 7436.8053599364, 0.0, 0.0, 8032.658163625975, -25578.464636619647, 16600.260627300817, 5052.812999822259, -9385.251627594427, -31585.093627583225, 0.056, -0.008, 1.032, 192.0, 0.0, 0.0, 0.0, 0.0, 0.0, 0.0, 0.0, 0.0, 0.0, 1.747690946794679E9, 0.0, 2025-05-19 23:42:26.794
52.0, 22701.549256032617, 18965.119894161213, 48490.232049254424, 33811.953224176556, 44266.66876872406, 2407.484043536668, 8298.912143577594, 7438.548796003914, 0.0, 0.0, 8006.663084824453, -25629.87364886685, 16561.681516370954, 5023.8674907526365, -9399.087357412262, -31621.415212323096, 0.056, -0.008, 1.032, 192.0, 0.0, 0.0, 0.0, 0.0, 0.0, 0.0, 0.0, 0.0, 0.0, 1.747690946802704E9, 0.0, 2025-05-19 23:42:26.802
54.0, 22690.552197760608, 18978.79916176786, 48478.430328182025, 33845.41378562615, 44287.657056767595, 2432.227424648693, 8253.403991866588, 7424.176624319151, 0.0, 0.0, 8017.458977396367, -25599.654090363278, 16590.649377185033, 5046.375697419131, -9387.889133440154, -31598.30350855631, 0.056, -0.008, 1.032, 192.0, 0.0, 0.0, 0.0, 0.0, 0.0, 0.0, 0.0, 0.0, 0.0, 1.747690946809736E9, 0.0, 2025-05-19 23:42:26.809
56.0, 22718.98361670776, 18983.269510658924, 48514.3495815217, 33841.54693383538, 44268.769832702856, 2402.0302178895736, 8272.201808953501, 7425.294211541916, 0.0, 0.0, 8015.15674771747, -25577.86113951935, 16585.70964166041, 5025.99090647589, -9407.402206349636, -31612.49686628543, 0.056, -0.008, 1.032, 192.0, 0.0, 0.0, 0.0, 0.0, 0.0, 0.0, 0.0, 0.0, 0.0, 1.747690946817792E9, 0.0, 2025-05-19 23:42:26.817
58.0, 22709.12649740297, 18979.112086190235, 48497.518717946856, 33846.86664901575, 44273.62016124966, 2442.4868753536794, 8292.005454540904, 7434.413723279682, 0.0, 0.0, 8028.5901461351095, -25608.55008465649, 16580.546388691233, 5039.692525826994, -9386.972711917486, -31608.182979605554, 0.054, 0.0, 1.026, 192.0, 0.5, 88.0, 0.0, 0.0, 16.0, 8.0, 0.0, 0.0, 0.0, 1.747690946826751E9, 0.0, 2025-05-19 23:42:26.826
60.0, 22693.547331517617, 18967.33271686229, 48485.38172070763, 33835.78018376591, 44258.39862327559, 2406.2994010805373, 8252.599329066197, 7436.894766914221, 0.0, 0.0, 8017.1460529739925, -25582.957337255164, 16594.024490597785, 5043.402915406575, -9396.695720755544, -31592.49205499793, 0.054, 0.0, 1.026, 192.0, 0.0, 0.0, 0.0, 0.0, 0.0, 0.0, 0.0, 0.0, 0.0, 1.74769094683383E9, 0.0, 2025-05-19 23:42:26.833
62.0, 22703.024471166667, 18974.1276471767, 48491.37198822165, 33835.33314887681, 44274.71539672797, 2405.3829795578695, 8279.466125901476, 7431.731513945046, 0.0, 0.0, 8005.63490457951, -25599.944663041195, 16574.243196754836, 5024.873319253125, -9403.37889234768, -31613.189770363544, 0.054, 0.0, 1.026, 192.0, 0.0, 0.0, 0.0, 0.0, 0.0, 0.0, 0.0, 0.0, 0.0, 1.747690946841859E9, 0.0, 2025-05-19 23:42:26.841
64.0, 22689.702831471306, 18958.07909465779, 48474.094089757695, 33826.146581905676, 44268.25574258039, 2420.7162762542102, 8254.58863432272, 7417.247583538006, 0.0, 0.0, 8013.390959905501, -25611.858142835874, 16581.015775324795, 5033.456389123963, -9399.512040556912, -31608.071220883277, 0.054, 0.0, 1.026, 192.0, 0.0, 0.0, 0.0, 0.0, 0.0, 0.0, 0.0, 0.0, 0.0, 1.747690946849816E9, 0.0, 2025-05-19 23:42:26.849
66.0, 22714.58032305006, 18979.80499026835, 48489.22622075394, 33822.97263419302, 44281.5997340202, 2389.5802962279677, 8261.562378592775, 7416.398217248705, 0.0, 0.0, 7994.816660263141, -25610.472334679645, 16570.443400197437, 5012.758673758349, -9418.667485555112, -31626.533761803363, 0.054, 0.0, 1.026, 192.0, 0.0, 0.0, 0.0, 0.0, 0.0, 0.0, 0.0, 0.0, 0.0, 1.747690946858879E9, 0.0, 2025-05-19 23:42:26.858
68.0, 22708.59005553604, 18979.64852805716, 48495.909392346075, 33845.12321294823, 44265.059443123275, 2412.8931656948525, 8272.11240197568, 7413.55954570288, 0.0, 0.0, 8030.557099647177, -25602.53746539801, 16586.447249227436, 5034.573976346729, -9391.107784641717, -31611.602796507217, 0.058, 0.002, 1.03, 192.0, 0.5, 104.0, 0.0, 8.0, 16.0, 24.0, 0.0, 0.0, 0.0, 1.747690946865874E9, 0.0, 2025-05-19 23:42:26.865
70.0, 22703.53856128914, 18968.338545362778, 48491.77431962184, 33832.31566337534, 44264.05361462279, 2403.1254533678834, 8264.87043677216, 7433.407894779193, 0.0, 0.0, 8011.468709882344, -25598.000061273582, 16585.597882938135, 5035.110418213656, -9402.14954640264, -31602.63974698064, 0.058, 0.002, 1.03, 192.0, 0.0, 0.0, 0.0, 0.0, 0.0, 0.0, 0.0, 0.0, 0.0, 1.747690946873933E9, 0.0, 2025-05-19 23:42:26.873
72.0, 22719.721224274785, 18992.2325601855, 48502.95019184949, 33845.05615771486, 44272.79314670481, 2407.9757819146853, 8314.536012951852, 7439.152293104207, 0.0, 0.0, 8031.048838025194, -25595.49666589459, 16586.201380038427, 5032.450560623474, -9390.839563708254, -31610.664023240093, 0.058, 0.002, 1.03, 192.0, 0.0, 0.0, 0.0, 0.0, 0.0, 0.0, 0.0, 0.0, 0.0, 1.747690946881986E9, 0.0, 2025-05-19 23:42:26.881
74.0, 22697.704755986306, 18968.115027918226, 48486.00756955237, 33832.22625639752, 44266.4452512795, 2422.817340233009, 8258.254320413389, 7423.32725802985, 0.0, 0.0, 8023.1363204880145, -25602.716279353655, 16595.298540031738, 5046.778028819326, -9387.28563633986, -31595.755409688405, 0.058, 0.002, 1.03, 192.0, 0.0, 0.0, 0.0, 0.0, 0.0, 0.0, 0.0, 0.0, 0.0, 1.747690946890103E9, 0.0, 2025-05-19 23:42:26.890
76.0, 22693.68144198435, 18965.209301139035, 48484.59940965169, 33824.604311538256, 44257.169277330555, 2383.500621736124, 8266.837390284229, 7429.473987755059, 0.0, 0.0, 8003.310323156157, -25611.142887013306, 16569.571682163678, 5016.692580782483, -9414.688875042066, -31623.046889668334, 0.058, 0.002, 1.03, 192.0, 0.0, 0.0, 0.0, 0.0, 0.0, 0.0, 0.0, 0.0, 0.0, 1.747690946898082E9, 0.0, 2025-05-19 23:42:26.898
78.0, 22706.243122368232, 18980.363783879733, 48493.249534755894, 33842.37394838023, 44277.06232989578, 2415.463616307213, 8265.004547238892, 7411.4361299796265, 0.0, 0.0, 8010.596991848588, -25610.427631190734, 16575.51724618879, 5033.679906568516, -9395.131098643673, -31609.747601717427, 0.062, -0.002, 1.032, 192.0, 0.5, 120.0, 127.5, 120.0, 16.0, 32.0, 0.0, 0.0, 0.0, 1.747690946906082E9, 0.0, 2025-05-19 23:42:26.906
80.0, 22710.199381136823, 18983.604786825752, 48497.42931096903, 33840.831678012815, 44268.18868734702, 2407.6852092367662, 8247.659593541573, 7426.322391786861, 0.0, 0.0, 8029.327753702135, -25594.98257577212, 16600.03710985626, 5041.257147938865, -9399.444985323547, -31596.940052144535, 0.062, -0.002, 1.032, 192.0, 0.0, 0.0, 0.0, 0.0, 0.0, 0.0, 0.0, 0.0, 0.0, 1.747690946915121E9, 0.0, 2025-05-19 23:42:26.915
82.0, 22721.77758476467, 18991.874932274215, 48490.90260158809, 33839.66938730114, 44272.23435309343, 2419.822206475998, 8280.851934057706, 7420.868566139766, 0.0, 0.0, 8005.67960806842, -25601.68809910871, 16575.22667351087, 5020.648839551072, -9407.871592983198, -31620.007052422414, 0.062, -0.002, 1.032, 192.0, 0.0, 0.0, 0.0, 0.0, 0.0, 0.0, 0.0, 0.0, 0.0, 1.747690946922146E9, 0.0, 2025-05-19 23:42:26.922
84.0, 22717.575456807073, 18980.542597835374, 48498.636305169624, 33837.59067506679, 44282.80672822079, 2419.7775029870872, 8245.558529562775, 7413.648952680702, 0.0, 0.0, 8045.510416687777, -25587.628851846323, 16610.743595450353, 5048.8120375647595, -9385.00575840542, -31595.129560843656, 0.062, -0.002, 1.032, 192.0, 0.0, 0.0, 0.0, 0.0, 0.0, 0.0, 0.0, 0.0, 0.0, 1.747690946930181E9, 0.0, 2025-05-19 23:42:26.930
86.0, 22708.478296813762, 18978.79916176786, 48492.333113233224, 33825.1854568941, 44267.0487483798, 2391.301380551026, 8285.746966093417, 7428.177586576651, 0.0, 0.0, 8011.289895926702, -25620.5976749179, 16573.304423487716, 5017.206670904955, -9411.96196221852, -31626.042023425347, 0.062, -0.002, 1.032, 192.0, 0.0, 0.0, 0.0, 0.0, 0.0, 0.0, 0.0, 0.0, 0.0, 1.747690946938195E9, 0.0, 2025-05-19 23:42:26.938
88.0, 22712.032224182156, 18980.72141179102, 48492.08724404422, 33844.07268095883, 44276.97292291796, 2417.0282384190846, 8286.529277149353, 7425.115397586274, 0.0, 0.0, 8022.331657687624, -25593.082677493418, 16587.788353894754, 5042.218272950444, -9385.385738061159, -31601.25393882441, 0.06, 0.0, 1.032, 192.0, 0.5, 112.0, 0.0, 0.0, 16.0, 32.0, 0.0, 0.0, 0.0, 1.747690946946245E9, 0.0, 2025-05-19 23:42:26.946
90.0, 22705.77373573467, 18974.50762683244, 48483.21360149546, 33820.55864579185, 44267.585190246726, 2408.109892381417, 8237.288384114312, 7409.759749145478, 0.0, 0.0, 8010.798157548686, -25617.088451038417, 16578.490028201348, 5027.75669428786, -9409.972656961996, -31611.558093018306, 0.06, 0.0, 1.032, 192.0, 0.0, 0.0, 0.0, 0.0, 0.0, 0.0, 0.0, 0.0, 0.0, 1.747690946954254E9, 0.0, 2025-05-19 23:42:26.954
92.0, 22726.98554122276, 18992.94781600807, 48496.602296424186, 33841.166954179644, 44290.316914357776, 2410.367418571403, 8275.487515388431, 7434.7937029354225, 0.0, 0.0, 8010.239363937303, -25608.192456745204, 16572.455057198415, 5019.844176750681, -9404.563534803812, -31621.50461930092, 0.06, 0.0, 1.032, 192.0, 0.0, 0.0, 0.0, 0.0, 0.0, 0.0, 0.0, 0.0, 0.0, 1.747690946962293E9, 0.0, 2025-05-19 23:42:26.962
94.0, 22731.21002092481, 19004.235446958, 48496.75875863538, 33848.83360252781, 44274.69304498351, 2442.889206753875, 8242.429285339033, 7418.7675021609675, 0.0, 0.0, 8037.083809028127, -25587.36063091286, 16605.848563414642, 5050.3990114210865, -9384.424613049581, -31588.468740995973, 0.06, 0.0, 1.032, 192.0, 0.0, 0.0, 0.0, 0.0, 0.0, 0.0, 0.0, 0.0, 0.0, 1.747690946970348E9, 0.0, 2025-05-19 23:42:26.970
96.0, 22710.35584334801, 18979.402658868155, 48488.68977888701, 33826.05717492785, 44261.84079192171, 2400.2867818220598, 8257.96374773547, 7430.479816255548, 0.0, 0.0, 8007.847727280585, -25608.393622445303, 16574.064382799195, 5016.580822060207, -9414.375950619693, -31621.191694878544, 0.06, 0.0, 1.032, 192.0, 0.0, 0.0, 0.0, 0.0, 0.0, 0.0, 0.0, 0.0, 0.0, 1.747690946977384E9, 0.0, 2025-05-19 23:42:26.977
98.0, 22705.416107823385, 18978.083905945292, 48486.25343874138, 33841.68104430212, 44267.786355946824, 2421.3421250989586, 8278.147372978614, 7427.797606920912, 0.0, 0.0, 8017.771901818741, -25601.174008986236, 16581.261644513805, 5039.7148775714495, -9390.772508474887, -31600.40457253511, 0.054, -0.004, 1.028, 192.0, 0.5, 88.0, 127.5, 112.0, 16.0, 16.0, 0.0, 0.0, 0.0, 1.74769094698641E9, 0.0, 2025-05-19 23:42:26.986
100.0, 22710.087622414547, 18981.593129824774, 48478.20681073747, 33821.98915743699, 44263.02543437784, 2418.1905291307603, 8249.045401697804, 7417.7169701715675, 0.0, 0.0, 8002.148032444482, -25611.567570157957, 16577.104220045116, 5032.651726323572, -9403.758872003422, -31604.45023828152, 0.054, -0.004, 1.028, 192.0, 0.0, 0.0, 0.0, 0.0, 0.0, 0.0, 0.0, 0.0, 0.0, 1.747690946994444E9, 0.0, 2025-05-19 23:42:26.994
102.0, 22703.449154311318, 18977.43570535609, 48486.45460444148, 33833.768526764936, 44260.11970759866, 2411.105026138428, 8275.040480499325, 7417.269935282462, 0.0, 0.0, 7995.978950974817, -25617.379023716334, 16560.496873914824, 5015.798511004271, -9409.167994161606, -31624.052718168823, 0.054, -0.004, 1.028, 192.0, 0.0, 0.0, 0.0, 0.0, 0.0, 0.0, 0.0, 0.0, 0.0, 1.747690947001509E9, 0.0, 2025-05-19 23:42:27.001
104.0, 22716.234352139756, 18989.840923528784, 48492.57898242224, 33843.22331466953, 44258.085698853225, 2419.196357631249, 8262.92583500455, 7428.155234832197, 0.0, 0.0, 8015.313209928658, -25598.290633951503, 16592.213999296906, 5046.733325330416, -9388.827906707276, -31594.369601532177, 0.054, -0.004, 1.028, 192.0, 0.0, 0.0, 0.0, 0.0, 0.0, 0.0, 0.0, 0.0, 0.0, 1.747690947009552E9, 0.0, 2025-05-19 23:42:27.009
106.0, 22711.227561381766, 18986.957548494047, 48477.0445200258, 33812.95905267704, 44250.57551271624, 2378.85145888942, 8271.195980453012, 7417.985191105032, 0.0, 0.0, 8008.026541236227, -25612.46163993617, 16572.52211243178, 5019.799473261771, -9410.665561040112, -31619.224741366477, 0.054, -0.004, 1.028, 192.0, 0.0, 0.0, 0.0, 0.0, 0.0, 0.0, 0.0, 0.0, 0.0, 1.747690947018614E9, 0.0, 2025-05-19 23:42:27.018
108.0, 22757.36156193752, 19026.1401565242, 48502.59256393821, 33855.98616075351, 44276.92821942904, 2426.661840279322, 8292.206620241, 7444.248490840017, 0.0, 0.0, 8011.44635813789, -25602.53746539801, 16581.28399625826, 5042.128865972622, -9386.615084006202, -31597.856473667205, 0.053000000000000005, -0.004, 1.0270000000000001, 192.0, 0.5, 80.0, 127.5, 112.0, 16.0, 8.0, 0.0, 0.0, 0.0, 1.747690947026575E9, 0.0, 2025-05-19 23:42:27.026
110.0, 22728.527811590175, 18998.736917821996, 48481.17959275003, 33821.72093650352, 44249.61438770466, 2406.724084225188, 8250.542968576308, 7431.239775567028, 0.0, 0.0, 8013.927401772428, -25606.672538122242, 16588.056574828217, 5037.23383393691, -9402.529526058379, -31599.085819612246, 0.053000000000000005, -0.004, 1.0270000000000001, 192.0, 0.0, 0.0, 0.0, 0.0, 0.0, 0.0, 0.0, 0.0, 0.0, 1.747690947033632E9, 0.0, 2025-05-19 23:42:27.033
112.0, 22768.850358587548, 19038.880650863728, 48502.614915682665, 33845.97257923753, 44269.61919899216, 2403.013694645607, 8289.122079506169, 7429.384580777238, 0.0, 0.0, 8012.742759316297, -25605.73376485512, 16578.646490412535, 5024.046304708279, -9402.730691758477, -31615.98373842046, 0.053000000000000005, -0.004, 1.0270000000000001, 192.0, 0.0, 0.0, 0.0, 0.0, 0.0, 0.0, 0.0, 0.0, 0.0, 1.747690947041664E9, 0.0, 2025-05-19 23:42:27.041
114.0, 22768.760951609725, 19042.792206143404, 48507.82287214075, 33862.13289047872, 44270.155640859084, 2440.9669567307183, 8294.97823655346, 7444.449656540115, 0.0, 0.0, 8046.337431232623, -25566.886432991796, 16627.082720647184, 5072.035500053823, -9366.543217485336, -31568.10630179719, 0.053000000000000005, -0.004, 1.0270000000000001, 192.0, 0.0, 0.0, 0.0, 0.0, 0.0, 0.0, 0.0, 0.0, 0.0, 1.747690947051686E9, 0.0, 2025-05-19 23:42:27.051
116.0, 22746.07393098759, 19019.211115743055, 48489.472089942945, 33826.347747605774, 44256.02933836333, 2386.8980868933304, 8256.15325643459, 7440.113418115786, 0.0, 0.0, 8002.662122566953, -25612.104012024884, 16576.94775783393, 5016.714932526938, -9415.024151208896, -31619.40355532212, 0.053000000000000005, -0.004, 1.0270000000000001, 192.0, 0.0, 0.0, 0.0, 0.0, 0.0, 0.0, 0.0, 0.0, 0.0, 1.747690947058683E9, 0.0, 2025-05-19 23:42:27.058
118.0, 22777.70164939185, 19046.659057934172, 48520.384552524636, 33869.687780104614, 44283.879611954646, 2432.8979769823527, 8305.036521558348, 7461.213464881595, 0.0, 0.0, 8038.626079395543, -25574.866005762342, 16613.068176873705, 5060.300834214787, -9364.196284317528, -31580.57857520325, 0.052500000000000005, -0.003, 1.0275, 192.0, 0.5, 80.0, 127.5, 120.0, 16.0, 16.0, 0.0, 0.0, 0.0, 1.747690947065683E9, 0.0, 2025-05-19 23:42:27.065
120.0, 22754.657000858428, 19018.27234247593, 48495.26119175687, 33830.99691045248, 44261.23729482142, 2430.1934159032603, 8254.700393044996, 7428.624621465758, 0.0, 0.0, 8039.296631729202, -25588.3888111578, 16613.515211762813, 5052.7459445888935, -9382.591770004246, -31586.21121480599, 0.052500000000000005, -0.003, 1.0275, 192.0, 0.0, 0.0, 0.0, 0.0, 0.0, 0.0, 0.0, 0.0, 0.0, 1.747690947076763E9, 0.0, 2025-05-19 23:42:27.076
122.0, 22751.1701287234, 19023.301484978376, 48491.282581243824, 33832.47212558653, 44266.04291987931, 2385.3781682703698, 8279.957864279493, 7425.94241213112, 0.0, 0.0, 7998.661160309453, -25629.6501314223, 16565.101333272618, 5009.785891745793, -9412.878383741187, -31632.747546761937, 0.052500000000000005, -0.003, 1.0275, 192.0, 0.0, 0.0, 0.0, 0.0, 0.0, 0.0, 0.0, 0.0, 0.0, 1.747690947083906E9, 0.0, 2025-05-19 23:42:27.083
124.0, 22795.694803678372, 19063.33345929783, 48519.87046240216, 33867.63141961473, 44278.58224851874, 2441.883378253386, 8288.49623066142, 7441.52157801647, 0.0, 0.0, 8051.098352801604, -25562.594898056377, 16631.374255582603, 5063.474781927441, -9372.868761166186, -31574.141272800123, 0.052500000000000005, -0.003, 1.0275, 192.0, 0.0, 0.0, 0.0, 0.0, 0.0, 0.0, 0.0, 0.0, 0.0, 1.747690947089797E9, 0.0, 2025-05-19 23:42:27.089
126.0, 22766.50342541974, 19035.416130473153, 48502.92784010504, 33834.662596543145, 44269.57449550325, 2394.2518108191266, 8254.454523855988, 7423.595478963313, 0.0, 0.0, 8040.59303290761, -25581.079790720916, 16612.531735006778, 5031.7353048009045, -9397.790956233854, -31606.752467960414, 0.052500000000000005, -0.003, 1.0275, 192.0, 0.0, 0.0, 0.0, 0.0, 0.0, 0.0, 0.0, 0.0, 0.0, 1.747690947097802E9, 0.0, 2025-05-19 23:42:27.097
128.0, 22783.758972139236, 19046.68140967863, 48513.947250121506, 33858.0425212434, 44287.96998118997, 2431.936851970774, 8288.987969039437, 7434.860758168788, 0.0, 0.0, 8042.4482276974, -25581.660936076754, 16611.503554761835, 5043.805246806771, -9380.647168236634, -31598.705839956507, 0.051250000000000004, -0.0025, 1.02975, 192.0, 0.5, 72.0, 127.5, 120.0, 16.0, 32.0, 0.0, 0.0, 0.0, 1.747690947106809E9, 0.0, 2025-05-19 23:42:27.106
130.0, 22764.93880330787, 19030.319932737344, 48499.329209247735, 33831.35453836376, 44268.7474809584, 2411.2838400940705, 8239.031820181826, 7422.7014091851015, 0.0, 0.0, 8028.277221712736, -25602.336299697912, 16603.613388969112, 5027.5108250988515, -9406.28461912687, -31612.608625007706, 0.051250000000000004, -0.0025, 1.02975, 192.0, 0.0, 0.0, 0.0, 0.0, 0.0, 0.0, 0.0, 0.0, 0.0, 1.747690947113833E9, 0.0, 2025-05-19 23:42:27.113
132.0, 22787.089382063077, 19056.605584216784, 48507.97933435194, 33846.553724593374, 44286.58417303374, 2403.3489708124366, 8281.813059069284, 7430.971554633565, 0.0, 0.0, 8028.143111246003, -25594.893168794297, 16597.667824944, 5028.293136154787, -9395.935761444063, -31612.385107563154, 0.051250000000000004, -0.0025, 1.02975, 192.0, 0.0, 0.0, 0.0, 0.0, 0.0, 0.0, 0.0, 0.0, 0.0, 1.747690947121854E9, 0.0, 2025-05-19 23:42:27.121
134.0, 22775.26530924622, 19047.28490677892, 48507.509947718376, 33853.77333805244, 44279.16339387457, 2440.8104945195314, 8256.488532601421, 7430.837444166833, 0.0, 0.0, 8052.327698746646, -25574.77659878452, 16626.09924389115, 5049.303775942776, -9386.682139239567, -31591.754447430903, 0.051250000000000004, -0.0025, 1.02975, 192.0, 0.0, 0.0, 0.0, 0.0, 0.0, 0.0, 0.0, 0.0, 0.0, 1.747690947129888E9, 0.0, 2025-05-19 23:42:27.129
136.0, 22765.36348645252, 19030.923429837636, 48490.32145623225, 33817.87643645721, 44279.94570493051, 2400.532651011068, 8271.039518241825, 7424.176624319151, 0.0, 0.0, 8024.320962944146, -25603.76681134305, 16593.95743536442, 5020.760598273349, -9410.978485462485, -31619.470610555487, 0.051250000000000004, -0.0025, 1.02975, 192.0, 0.0, 0.0, 0.0, 0.0, 0.0, 0.0, 0.0, 0.0, 0.0, 1.747690947138904E9, 0.0, 2025-05-19 23:42:27.138
138.0, 22777.74635288076, 19047.821348645848, 48511.1979855535, 33854.35448340827, 44288.37231259016, 2427.354744357436, 8282.014224769382, 7422.299077784905, 0.0, 0.0, 8028.724256601841, -25599.02824151853, 16595.38794700956, 5036.563281603251, -9389.43140380757, -31609.54643601733, 0.053625000000000006, -0.00525, 1.030875, 192.0, 0.5, 96.0, 127.5, 96.0, 16.0, 32.0, 0.0, 0.0, 0.0, 1.747690947145934E9, 0.0, 2025-05-19 23:42:27.145
140.0, 22771.42080919991, 19038.455967719077, 48499.35156099219, 33837.23304715551, 44269.261571080875, 2411.0603226495177, 8246.094971429702, 7422.7014091851015, 0.0, 0.0, 8018.688323341409, -25603.096259009395, 16598.04780459974, 5033.791665290793, -9405.636418537668, -31607.043040638335, 0.053625000000000006, -0.00525, 1.030875, 192.0, 0.0, 0.0, 0.0, 0.0, 0.0, 0.0, 0.0, 0.0, 0.0, 1.747690947153961E9, 0.0, 2025-05-19 23:42:27.153
142.0, 22791.64913793196, 19062.081761608337, 48514.88602338863, 33855.98616075351, 44287.32178060076, 2414.971877929196, 8300.677931389562, 7450.641089754235, 0.0, 0.0, 8049.444323711911, -25573.904880750764, 16614.990426896864, 5048.119133486644, -9379.216656591494, -31593.29671779832, 0.053625000000000006, -0.00525, 1.030875, 192.0, 0.0, 0.0, 0.0, 0.0, 0.0, 0.0, 0.0, 0.0, 0.0, 1.747690947162032E9, 0.0, 2025-05-19 23:42:27.162
144.0, 22752.555936879628, 19025.76017686846, 48480.106709016174, 33831.60040755277, 44263.71833845596, 2417.8329012194754, 8255.080372700737, 7420.7121039285785, 0.0, 0.0, 8024.455073410878, -25595.384907172313, 16604.105127347128, 5045.7051450854715, -9387.464450295503, -31594.168435832078, 0.053625000000000006, -0.00525, 1.030875, 192.0, 0.0, 0.0, 0.0, 0.0, 0.0, 0.0, 0.0, 0.0, 0.0, 1.7476909471701E9, 0.0, 2025-05-19 23:42:27.170
146.0, 22783.915434350423, 19057.790226672918, 48506.59352619571, 33839.13294543421, 44282.58321077624, 2412.8931656948525, 8274.459335143487, 7448.09299088633, 0.0, 0.0, 8012.943925016395, -25606.381965444325, 16587.27426377228, 5018.436016849997, -9411.067892440307, -31616.45312505402, 0.053625000000000006, -0.00525, 1.030875, 192.0, 0.0, 0.0, 0.0, 0.0, 0.0, 0.0, 0.0, 0.0, 0.0, 1.74769094717808E9, 0.0, 2025-05-19 23:42:27.178
148.0, 22746.27509668769, 19020.32870296582, 48481.40311019458, 33829.40993659615, 44270.75913795938, 2405.4500347912353, 8258.097858202203, 7410.072673567853, 0.0, 0.0, 8028.433683923922, -25598.06711650695, 16595.432650498467, 5042.620604350639, -9382.457659537515, -31597.744714944925, 0.0538125, -0.002625, 1.0334375, 192.0, 0.5, 88.0, 0.0, 0.0, 16.0, 48.0, 0.0, 0.0, 0.0, 1.74769094718611E9, 0.0, 2025-05-19 23:42:27.186
150.0, 22775.13119877949, 19051.755255669985, 48495.17178477905, 33835.26609364344, 44275.989446161926, 2428.1370554133723, 8259.707183802984, 7434.95016514661, 0.0, 0.0, 7993.855535251562, -25626.811459876473, 16573.639699654545, 5013.876260981115, -9420.612087322723, -31623.270407112886, 0.0538125, -0.002625, 1.0334375, 192.0, 0.0, 0.0, 0.0, 0.0, 0.0, 0.0, 0.0, 0.0, 0.0, 1.747690947194121E9, 0.0, 2025-05-19 23:42:27.194
152.0, 22792.207931543344, 19060.539491240917, 48513.12023557666, 33854.8909252752, 44296.70951327199, 2443.8726835099083, 8308.277524504367, 7459.268863113984, 0.0, 0.0, 8044.415181209467, -25575.38009588481, 16609.603656483134, 5046.375697419131, -9376.400336790126, -31589.29575554082, 0.0538125, -0.002625, 1.0334375, 192.0, 0.0, 0.0, 0.0, 0.0, 0.0, 0.0, 0.0, 0.0, 0.0, 1.747690947201122E9, 0.0, 2025-05-19 23:42:27.201
154.0, 22776.807579613636, 19044.66975267765, 48490.76849112135, 33841.166954179644, 44282.471452053964, 2437.1895119177716, 8267.44088738452, 7441.409819294193, 0.0, 0.0, 8030.959431047372, -25592.769753071043, 16606.407357026026, 5050.935453288013, -9380.736575214456, -31584.199557805012, 0.0538125, -0.002625, 1.0334375, 192.0, 0.0, 0.0, 0.0, 0.0, 0.0, 0.0, 0.0, 0.0, 0.0, 1.747690947210183E9, 0.0, 2025-05-19 23:42:27.210
156.0, 22776.65111740245, 19054.549223726895, 48496.73640689092, 33835.95899772156, 44282.538507287325, 2417.9670116862076, 8276.15806772209, 7456.653709012713, 0.0, 0.0, 8011.379302904524, -25606.538427655512, 16581.775734636278, 5024.85096750867, -9402.931857458576, -31606.506598771408, 0.0538125, -0.002625, 1.0334375, 192.0, 0.0, 0.0, 0.0, 0.0, 0.0, 0.0, 0.0, 0.0, 0.0, 1.747690947218216E9, 0.0, 2025-05-19 23:42:27.218
158.0, 22759.909660805424, 19036.220793273544, 48481.53722066131, 33833.187381409094, 44282.694969498516, 2421.9009187103416, 8273.341747920722, 7425.6965429421125, 0.0, 0.0, 8014.01680875025, -25603.476238665135, 16583.5638741927, 5033.836368779704, -9388.559685773813, -31602.19271209153, 0.05390625, -0.0013125, 1.03371875, 192.0, 0.5, 88.0, 0.0, 0.0, 16.0, 40.0, 0.0, 0.0, 0.0, 1.747690947225253E9, 0.0, 2025-05-19 23:42:27.225
160.0, 22773.65598364544, 19045.787339900417, 48488.82388935374, 33831.801573252866, 44276.81646070677, 2431.3557066149365, 8258.433134369032, 7439.018182637476, 0.0, 0.0, 8005.120814457037, -25608.773602101042, 16583.89915035953, 5025.1862436755, -9404.876459226187, -31605.009031892903, 0.05390625, -0.0013125, 1.03371875, 192.0, 0.0, 0.0, 0.0, 0.0, 0.0, 0.0, 0.0, 0.0, 0.0, 1.747690947233338E9, 0.0, 2025-05-19 23:42:27.233
162.0, 22781.70261164935, 19051.86701439226, 48494.12125278965, 33839.82584951232, 44287.232373622945, 2415.530671540579, 8293.771242352872, 7443.108551872797, 0.0, 0.0, 8016.900183784985, -25595.7425350836, 16582.245121269836, 5026.102665198167, -9392.068909653295, -31605.992508648935, 0.05390625, -0.0013125, 1.03371875, 192.0, 0.0, 0.0, 0.0, 0.0, 0.0, 0.0, 0.0, 0.0, 0.0, 1.747690947242317E9, 0.0, 2025-05-19 23:42:27.242
164.0, 22775.22060575731, 19058.21490981757, 48489.31562773176, 33841.524582090926, 44279.92335318606, 2440.4752183527016, 8259.684832058529, 7424.7577696749895, 0.0, 0.0, 8017.995419263294, -25598.312985695957, 16597.24314179935, 5039.983098504913, -9388.045595651342, -31591.86620615318, 0.05390625, -0.0013125, 1.03371875, 192.0, 0.0, 0.0, 0.0, 0.0, 0.0, 0.0, 0.0, 0.0, 0.0, 1.747690947249387E9, 0.0, 2025-05-19 23:42:27.249
166.0, 22787.625823930004, 19064.78632268743, 48499.463319714465, 33837.09893668877, 44283.20905962099, 2423.532596055579, 8263.618739082664, 7436.134807602741, 0.0, 0.0, 8016.386093662512, -25599.430572918725, 16589.531789962268, 5018.368961616631, -9407.782186005377, -31611.803962207316, 0.05390625, -0.0013125, 1.03371875, 192.0, 0.0, 0.0, 0.0, 0.0, 0.0, 0.0, 0.0, 0.0, 0.0, 1.747690947257398E9, 0.0, 2025-05-19 23:42:27.257
168.0, 22783.490751205773, 19060.539491240917, 48491.30493298828, 33844.519715847935, 44285.3548270887, 2455.8532185379527, 8271.598311853208, 7426.791778420423, 0.0, 0.0, 8026.846710067596, -25586.600671601376, 16600.215923811906, 5036.6079850921615, -9385.18457236106, -31596.649479466618, 0.057953125, -6.5625E-4, 1.034859375, 192.0, 0.5, 120.0, 0.0, 0.0, 16.0, 48.0, 0.0, 0.0, 0.0, 1.74769094726543E9, 0.0, 2025-05-19 23:42:27.265
170.0, 22778.618070914516, 19048.469549235055, 48492.08724404422, 33831.75686976396, 44278.17991711854, 2422.7726367440982, 8247.950166219493, 7433.18437733464, 0.0, 0.0, 8017.056645996171, -25600.25758746357, 16596.75140342133, 5027.264955909844, -9405.345845859749, -31601.58921499124, 0.057953125, -6.5625E-4, 1.034859375, 192.0, 0.0, 0.0, 0.0, 0.0, 0.0, 0.0, 0.0, 0.0, 0.0, 1.747690947274463E9, 0.0, 2025-05-19 23:42:27.274
172.0, 22786.55294019615, 19058.95251738459, 48505.341828506214, 33843.64799781418, 44287.76881548987, 2409.9203836822967, 8289.189134739534, 7433.765522690478, 0.0, 0.0, 8019.135358230515, -25602.895093309296, 16584.368536993094, 5018.145444172078, -9398.372101589692, -31615.648462253626, 0.057953125, -6.5625E-4, 1.034859375, 192.0, 0.0, 0.0, 0.0, 0.0, 0.0, 0.0, 0.0, 0.0, 0.0, 1.747690947281431E9, 0.0, 2025-05-19 23:42:27.281
174.0, 22784.183655283887, 19059.44425576261, 48496.93757259102, 33845.436137370605, 44285.757158488894, 2433.210901404727, 8258.075506457748, 7418.901612627699, 0.0, 0.0, 8031.473521169844, -25583.359668655357, 16611.81647918421, 5047.962671275458, -9378.166124602094, -31587.21704330648, 0.057953125, -6.5625E-4, 1.034859375, 192.0, 0.0, 0.0, 0.0, 0.0, 0.0, 0.0, 0.0, 0.0, 0.0, 1.747690947289512E9, 0.0, 2025-05-19 23:42:27.289
176.0, 22783.26723376122, 19054.3480580268, 48496.959924335475, 33832.18155290861, 44284.7513299884, 2414.9048226958303, 8264.82573328325, 7431.239775567028, 0.0, 0.0, 8018.598916363588, -25600.794029330496, 16589.978824851372, 5018.413665105541, -9405.52465981539, -31614.0614883973, 0.057953125, -6.5625E-4, 1.034859375, 192.0, 0.0, 0.0, 0.0, 0.0, 0.0, 0.0, 0.0, 0.0, 0.0, 1.74769094729852E9, 0.0, 2025-05-19 23:42:27.298
178.0, 22779.020402314713, 19052.82813940384, 48496.669351657554, 33844.85499201477, 44289.601658535204, 2428.561738558023, 8272.49238163142, 7424.198976063607, 0.0, 0.0, 8022.0187332652495, -25594.73670658311, 16594.85150514263, 5037.077371725723, -9384.581075260769, -31599.91283415709, 0.0579765625, -0.002328125, 1.0344296874999999, 192.0, 0.5, 104.0, 127.5, 112.0, 16.0, 40.0, 0.0, 0.0, 0.0, 1.747690947306584E9, 0.0, 2025-05-19 23:42:27.306
180.0, 22771.711381877827, 19042.90396486568, 48493.60716266718, 33829.96873020753, 44271.206172848484, 2424.6054797894335, 8257.673175057553, 7435.777179691456, 0.0, 0.0, 8019.403579163979, -25604.482067165623, 16596.52788597678, 5034.350458902176, -9396.919238200098, -31599.085819612246, 0.0579765625, -0.002328125, 1.0344296874999999, 192.0, 0.0, 0.0, 0.0, 0.0, 0.0, 0.0, 0.0, 0.0, 0.0, 1.74769094731361E9, 0.0, 2025-05-19 23:42:27.313
182.0, 22777.254614502745, 19047.039037589915, 48497.67518015805, 33835.847238999275, 44288.19349863452, 2410.412122060314, 8293.614780141686, 7438.302926814906, 0.0, 0.0, 8016.073169240138, -25604.21384623216, 16582.37923173657, 5023.263993652344, -9393.924104443086, -31613.34623257473, 0.0579765625, -0.002328125, 1.0344296874999999, 192.0, 0.0, 0.0, 0.0, 0.0, 0.0, 0.0, 0.0, 0.0, 0.0, 1.747690947321658E9, 0.0, 2025-05-19 23:42:27.321
184.0, 22776.382896468986, 19049.251860290988, 48491.77431962184, 33839.02118671193, 44278.02345490736, 2449.1253434569053, 8268.558474607287, 7427.618792965269, 0.0, 0.0, 8023.069265254649, -25598.737668840608, 16601.624083712588, 5038.7761043043265, -9385.989235161453, -31598.34821204522, 0.0579765625, -0.002328125, 1.0344296874999999, 192.0, 0.0, 0.0, 0.0, 0.0, 0.0, 0.0, 0.0, 0.0, 0.0, 1.747690947330679E9, 0.0, 2025-05-19 23:42:27.330
186.0, 22768.64919288745, 19041.115825309258, 48484.21942999595, 33818.30111960186, 44276.30237058429, 2402.365494056403, 8262.568207093263, 7426.322391786861, 0.0, 0.0, 8011.982800004816, -25607.231331733627, 16585.754345149322, 5012.043417935779, -9409.749139517444, -31622.35398559022, 0.0579765625, -0.002328125, 1.0344296874999999, 192.0, 0.0, 0.0, 0.0, 0.0, 0.0, 0.0, 0.0, 0.0, 0.0, 1.747690947337715E9, 0.0, 2025-05-19 23:42:27.337
188.0, 22779.668602903916, 19049.564784713362, 48499.485671458926, 33846.08433795981, 44291.23333588044, 2418.8387297199642, 8285.54580039332, 7430.435112766638, 0.0, 0.0, 8011.8039860491745, -25603.520942154046, 16585.016737582297, 5025.968554731436, -9391.554819530824, -31611.44633429603, 0.058988281249999996, -0.0031640625, 1.03421484375, 192.0, 0.5, 112.0, 127.5, 112.0, 16.0, 40.0, 0.0, 0.0, 0.0, 1.747690947345733E9, 0.0, 2025-05-19 23:42:27.345
190.0, 22779.534492437186, 19044.15566255518, 48497.67518015805, 33830.92985521911, 44283.589039276725, 2414.8377674624644, 8248.73247727543, 7428.870490654766, 0.0, 0.0, 8029.372457191045, -25600.861084563865, 16605.088604103163, 5036.317412414242, -9391.24189510845, -31597.789418433837, 0.058988281249999996, -0.0031640625, 1.03421484375, 192.0, 0.0, 0.0, 0.0, 0.0, 0.0, 0.0, 0.0, 0.0, 0.0, 1.747690947353763E9, 0.0, 2025-05-19 23:42:27.353
192.0, 22768.112751020522, 19039.506499708474, 48495.55176443479, 33833.25443664246, 44284.32664684375, 2398.342180054448, 8278.169724723068, 7426.210633064585, 0.0, 0.0, 8016.855480296073, -25610.472334679645, 16581.976900336373, 5020.425322106519, -9395.37696783268, -31617.324843087776, 0.058988281249999996, -0.0031640625, 1.03421484375, 192.0, 0.0, 0.0, 0.0, 0.0, 0.0, 0.0, 0.0, 0.0, 0.0, 1.747690947362785E9, 0.0, 2025-05-19 23:42:27.362
194.0, 22770.07970453259, 19039.797072386395, 48499.86565111466, 33848.721843805535, 44288.975809690455, 2445.3702503884138, 8263.037593726825, 7433.51965350147, 0.0, 0.0, 8022.130491987526, -25602.805686331474, 16600.171220322994, 5045.57103461874, -9380.557761258813, -31591.44152300853, 0.058988281249999996, -0.0031640625, 1.03421484375, 192.0, 0.0, 0.0, 0.0, 0.0, 0.0, 0.0, 0.0, 0.0, 0.0, 1.747690947369808E9, 0.0, 2025-05-19 23:42:27.369
196.0, 22768.112751020522, 19041.652267176185, 48497.60812492468, 33834.41672735414, 44291.38979809163, 2413.6754767507887, 8265.295119916811, 7435.888938413733, 0.0, 0.0, 8020.878794298029, -25600.995195030595, 16594.33741502016, 5023.174586674522, -9401.210773135517, -31610.39580230663, 0.058988281249999996, -0.0031640625, 1.03421484375, 192.0, 0.0, 0.0, 0.0, 0.0, 0.0, 0.0, 0.0, 0.0, 0.0, 1.747690947377773E9, 0.0, 2025-05-19 23:42:27.377
198.0, 22758.65796311593, 19030.655208904172, 48490.32145623225, 33840.5858088238, 44292.9544202035, 2413.5413662840565, 8274.571093865765, 7418.633391694235, 0.0, 0.0, 8017.034294251716, -25600.659918863767, 16593.28688303076, 5033.23287167941, -9386.659787495111, -31603.712630714494, 0.059494140625, -0.00558203125, 1.033107421875, 192.0, 0.5, 112.0, 127.5, 96.0, 16.0, 32.0, 0.0, 0.0, 0.0, 1.747690947386834E9, 0.0, 2025-05-19 23:42:27.386
200.0, 22767.84453008706, 19036.779586884928, 48494.83650861222, 33831.242779641485, 44277.88934444062, 2414.2566221066263, 8245.402067351588, 7425.048342352909, 0.0, 0.0, 8011.893393026995, -25615.70264288219, 16592.19164755245, 5025.074484953223, -9402.66363652511, -31609.2111598505, 0.059494140625, -0.00558203125, 1.033107421875, 192.0, 0.0, 0.0, 0.0, 0.0, 0.0, 0.0, 0.0, 0.0, 0.0, 1.747690947392892E9, 0.0, 2025-05-19 23:42:27.392
202.0, 22777.768704625214, 19053.00695335948, 48503.240764527414, 33844.9891024815, 44291.92623995856, 2413.787235473065, 8282.617721869674, 7431.530348244947, 0.0, 0.0, 8030.4453409249, -25592.54623562649, 16599.970054622896, 5029.991868733391, -9386.793897961843, -31607.60183424972, 0.059494140625, -0.00558203125, 1.033107421875, 192.0, 0.0, 0.0, 0.0, 0.0, 0.0, 0.0, 0.0, 0.0, 0.0, 1.74769094740189E9, 0.0, 2025-05-19 23:42:27.401
204.0, 22780.60737617104, 19051.86701439226, 48502.70432266049, 33853.59452409679, 44289.33343760174, 2438.754134029643, 8258.723707046951, 7423.148444074207, 0.0, 0.0, 8031.719390358853, -25584.745476811586, 16617.180897853483, 5046.241586952399, -9381.42947929257, -31588.535796229342, 0.059494140625, -0.00558203125, 1.033107421875, 192.0, 0.0, 0.0, 0.0, 0.0, 0.0, 0.0, 0.0, 0.0, 0.0, 1.747690947409877E9, 0.0, 2025-05-19 23:42:27.409
206.0, 22775.399419712954, 19051.218813803054, 48500.35738949268, 33839.87055300123, 44283.27611485435, 2429.880491480886, 8260.042459969814, 7431.195072078118, 0.0, 0.0, 8025.416198422457, -25595.40725891677, 16603.658092458023, 5025.387409375598, -9400.160241146117, -31606.77481970487, 0.059494140625, -0.00558203125, 1.033107421875, 192.0, 0.0, 0.0, 0.0, 0.0, 0.0, 0.0, 0.0, 0.0, 0.0, 1.747690947417987E9, 0.0, 2025-05-19 23:42:27.417
208.0, 22780.473265704306, 19053.498691737495, 48504.60422093919, 33854.55564910837, 44295.30135337131, 2419.7775029870872, 8260.087163458726, 7417.336990515828, 0.0, 0.0, 8029.5289194022325, -25589.908729780764, 16606.742633192855, 5037.882034526114, -9384.022281649386, -31597.811770178294, 0.057747070312499996, -0.004791015625000001, 1.0305537109375, 192.0, 0.5, 96.0, 127.5, 112.0, 16.0, 16.0, 0.0, 0.0, 0.0, 1.747690947425908E9, 0.0, 2025-05-19 23:42:27.425
210.0, 22775.757047624236, 19049.430674246632, 48505.94532560651, 33847.91718100514, 44288.059388167785, 2429.500511825146, 8267.664404829075, 7438.548796003914, 0.0, 0.0, 8036.390904950012, -25586.175988456725, 16621.38302581108, 5047.917967786547, -9384.111688627207, -31584.892461883126, 0.057747070312499996, -0.004791015625000001, 1.0305537109375, 192.0, 0.0, 0.0, 0.0, 0.0, 0.0, 0.0, 0.0, 0.0, 0.0, 1.747690947433923E9, 0.0, 2025-05-19 23:42:27.433
212.0, 22774.41594295692, 19046.033209089426, 48503.531337205335, 33842.910390247154, 44299.23526039544, 2406.7687877140984, 8287.959788794493, 7426.65766795369, 0.0, 0.0, 8026.109102500571, -25586.578319856922, 16604.23923781386, 5035.512749613852, -9383.28467408236, -31601.924491158068, 0.057747070312499996, -0.004791015625000001, 1.0305537109375, 192.0, 0.0, 0.0, 0.0, 0.0, 0.0, 0.0, 0.0, 0.0, 0.0, 1.747690947441949E9, 0.0, 2025-05-19 23:42:27.441
214.0, 22767.822178342605, 19043.798034643893, 48499.44096797001, 33848.65478857217, 44289.400492835106, 2429.8134362475203, 8257.315547146267, 7419.818034150367, 0.0, 0.0, 8023.471596654845, -25595.273148450036, 16609.29073206076, 5046.599214863684, -9380.825982192277, -31592.067371853278, 0.057747070312499996, -0.004791015625000001, 1.0305537109375, 192.0, 0.0, 0.0, 0.0, 0.0, 0.0, 0.0, 0.0, 0.0, 0.0, 1.747690947449068E9, 0.0, 2025-05-19 23:42:27.449
216.0, 22766.369314953008, 19041.182880542623, 48497.80929062478, 33833.187381409094, 44288.61818177917, 2404.980648157674, 8273.006471753892, 7428.557566232392, 0.0, 0.0, 8011.424006393434, -25600.816381074954, 16592.370461508093, 5029.097798955178, -9397.7686044894, -31608.071220883277, 0.057747070312499996, -0.004791015625000001, 1.0305537109375, 192.0, 0.0, 0.0, 0.0, 0.0, 0.0, 0.0, 0.0, 0.0, 0.0, 1.74769094745803E9, 0.0, 2025-05-19 23:42:27.458
218.0, 22767.911585320424, 19041.562860198363, 48502.905488360586, 33849.906486261665, 44298.967039461975, 2428.3158693690148, 8282.125983491658, 7436.872415169766, 0.0, 0.0, 8031.965259547861, -25593.149732726783, 16603.300464546737, 5048.767334075848, -9373.584016988756, -31590.748618930415, 0.05687353515625, -0.0063955078125, 1.02827685546875, 192.0, 0.5, 96.0, 127.5, 96.0, 16.0, 8.0, 0.0, 0.0, 0.0, 1.747690947466096E9, 0.0, 2025-05-19 23:42:27.466
220.0, 22761.40722768393, 19034.56676418385, 48488.712130631466, 33830.30400637436, 44274.67069323906, 2419.509282053624, 8243.859796984172, 7416.8005486489, 0.0, 0.0, 8015.804948306674, -25606.44902067769, 16598.271322044293, 5033.992830990891, -9400.38375859067, -31599.331688801252, 0.05687353515625, -0.0063955078125, 1.02827685546875, 192.0, 0.0, 0.0, 0.0, 0.0, 0.0, 0.0, 0.0, 0.0, 0.0, 1.747690947473122E9, 0.0, 2025-05-19 23:42:27.473
222.0, 22779.959175581836, 19059.935994140626, 48509.342790763716, 33851.06877697334, 44296.888327227636, 2418.14582564185, 8283.601198625707, 7431.172720333662, 0.0, 0.0, 8025.192680977903, -25593.283843193512, 16597.779583666277, 5026.840272765193, -9396.181630633073, -31610.574616262275, 0.05687353515625, -0.0063955078125, 1.02827685546875, 192.0, 0.0, 0.0, 0.0, 0.0, 0.0, 0.0, 0.0, 0.0, 0.0, 1.74769094748113E9, 0.0, 2025-05-19 23:42:27.481
224.0, 22771.84549234456, 19054.66098244917, 48502.7490261494, 33851.873439773735, 44284.930143944046, 2431.042782192562, 8251.615852310164, 7424.489548741526, 0.0, 0.0, 8037.3967334505005, -25583.963165755653, 16621.897115933552, 5054.422325423041, -9378.568456002291, -31583.551357215805, 0.05687353515625, -0.0063955078125, 1.02827685546875, 192.0, 0.0, 0.0, 0.0, 0.0, 0.0, 0.0, 0.0, 0.0, 0.0, 1.747690947490167E9, 0.0, 2025-05-19 23:42:27.490
226.0, 22787.625823930004, 19068.027325633448, 48500.42444472605, 33835.26609364344, 44279.275152596856, 2400.4432440332466, 8254.67804130054, 7423.70723768559, 0.0, 0.0, 8024.790349577707, -25594.334375182912, 16602.38404302407, 5022.548737829774, -9408.899773228142, -31611.803962207316, 0.05687353515625, -0.0063955078125, 1.02827685546875, 192.0, 0.0, 0.0, 0.0, 0.0, 0.0, 0.0, 0.0, 0.0, 0.0, 1.747690947498167E9, 0.0, 2025-05-19 23:42:27.498
228.0, 22774.684163890382, 19049.989467858013, 48507.97933435194, 33854.75681480847, 44290.62983878015, 2425.276032123093, 8275.554570621798, 7420.488586484026, 0.0, 0.0, 8036.502663672289, -25587.5394448685, 16611.280037317283, 5041.212444449955, -9383.441136293548, -31599.644613223627, 0.05687353515625, -0.0063955078125, 1.02827685546875, 192.0, 0.0, 0.0, 0.0, 0.0, 0.0, 0.0, 0.0, 0.0, 0.0, 1.747690947505203E9, 0.0, 2025-05-19 23:42:27.505
230.0, 22758.121521249, 19028.57649666983, 48499.3962644811, 33828.873494729225, 44289.33343760174, 2402.9019359233303, 8239.992945193404, 7412.6654759246685, 0.0, 0.0, 8034.289840971213, -25597.307157195468, 16615.28099957478, 5035.445694380485, -9396.785127733365, -31602.30447081381, 0.066, -0.008, 1.03, 192.0, 1.0, 8.0, 127.5, 96.0, 16.0, 24.0, 0.0, 0.0, 0.0, 1.747690947513239E9, 0.0, 2025-05-19 23:42:27.513
232.0, 22754.07585550259, 19017.95941805356, 48502.41374998257, 33832.919160475634, 44301.87276624117, 2380.9078193793084, 8272.201808953501, 7418.678095183146, 0.0, 0.0, 8024.812701322163, -25608.013642789563, 16590.649377185033, 5016.759636015849, -9400.517869057401, -31625.282064113864, 0.066, -0.008, 1.03, 192.0, 0.0, 0.0, 0.0, 0.0, 0.0, 0.0, 0.0, 0.0, 0.0, 1.747690947522265E9, 0.0, 2025-05-19 23:42:27.522
234.0, 22731.142965691444, 18988.119839205723, 48490.16499402106, 33829.65580578516, 44297.89415572812, 2399.5044707661236, 8247.72664877494, 7406.786967132923, 0.0, 0.0, 8027.807835079174, -25605.711413110665, 16602.160525579515, 5037.166778703544, -9390.034900907864, -31604.271424325878, 0.066, -0.008, 1.03, 192.0, 0.0, 0.0, 0.0, 0.0, 0.0, 0.0, 0.0, 0.0, 0.0, 1.747690947529291E9, 0.0, 2025-05-19 23:42:27.529
236.0, 22725.957360977813, 18973.345336120765, 48487.46043294197, 33813.1825701216, 44291.16628064708, 2364.6581011603002, 8251.794666265807, 7414.900650370199, 0.0, 0.0, 8007.735968558308, -25628.89017211082, 16573.32677523217, 5005.606115532651, -9415.828814009288, -31633.26163688441, 0.066, -0.008, 1.03, 192.0, 0.0, 0.0, 0.0, 0.0, 0.0, 0.0, 0.0, 0.0, 0.0, 1.747690947537295E9, 0.0, 2025-05-19 23:42:27.537
238.0, 22729.01954996819, 18974.88760648818, 48495.7976336238, 33831.68981453059, 44307.795978521826, 2381.310150779504, 8276.135715977636, 7414.475967225549, 0.0, 0.0, 8021.30347744268, -25622.430517963236, 16582.37923173657, 5025.320354142232, -9393.52177304289, -31616.050793653823, 0.066, -0.008, 1.03, 192.0, 0.0, 0.0, 0.0, 0.0, 0.0, 0.0, 0.0, 0.0, 0.0, 1.747690947546314E9, 0.0, 2025-05-19 23:42:27.546
240.0, 22721.621122553483, 18964.404638338645, 48486.320493974745, 33810.81328520933, 44295.77074000487, 2373.1070605644063, 8234.24854686839, 7412.553717202391, 0.0, 0.0, 8012.742759316297, -25634.925143113753, 16581.12753404707, 5020.425322106519, -9408.519793572403, -31617.928340188068, 0.062, -0.006, 1.028, 192.0, 0.5, 120.0, 127.5, 104.0, 16.0, 16.0, 0.0, 0.0, 0.0, 1.747690947554415E9, 0.0, 2025-05-19 23:42:27.554
242.0, 22737.244991927742, 18979.916748990625, 48497.451662713494, 33819.95514869155, 44313.98741173594, 2363.048775559518, 8271.240683941924, 7420.779159161945, 0.0, 0.0, 8018.755378574775, -25633.516983213067, 16572.589167665144, 5012.870432480626, -9404.138851659161, -31630.78059324987, 0.062, -0.006, 1.028, 192.0, 0.0, 0.0, 0.0, 0.0, 0.0, 0.0, 0.0, 0.0, 0.0, 1.747690947561351E9, 0.0, 2025-05-19 23:42:27.561
244.0, 22725.756195277714, 18968.718525018518, 48484.46529918496, 33818.50228530196, 44302.0068767079, 2391.502546251124, 8241.669326027552, 7404.529440942936, 0.0, 0.0, 8017.637791352009, -25635.327474513946, 16583.295653259236, 5027.354362887664, -9398.595619034246, -31616.989566920947, 0.062, -0.006, 1.028, 192.0, 0.0, 0.0, 0.0, 0.0, 0.0, 0.0, 0.0, 0.0, 0.0, 1.747690947569376E9, 0.0, 2025-05-19 23:42:27.569
246.0, 22732.48407035876, 18978.486237345485, 48483.86180208466, 33809.47218054202, 44294.630801037645, 2374.179944298261, 8259.193093680513, 7420.153310317196, 0.0, 0.0, 8007.378340647023, -25637.719111170663, 16569.258757741303, 5002.454519564452, -9423.517814101913, -31636.79321250835, 0.062, -0.006, 1.028, 192.0, 0.0, 0.0, 0.0, 0.0, 0.0, 0.0, 0.0, 0.0, 0.0, 1.747690947578404E9, 0.0, 2025-05-19 23:42:27.578
248.0, 22746.968000765803, 18990.55617935135, 48499.08334005873, 33829.05230868486, 44310.34407738973, 2427.019468190607, 8270.860704286182, 7418.9463161166095, 0.0, 0.0, 8018.77773031923, -25626.856163365384, 16580.009946824306, 5026.639107065094, -9395.108746899217, -31615.961386676, 0.062, -0.006, 1.028, 192.0, 0.0, 0.0, 0.0, 0.0, 0.0, 0.0, 0.0, 0.0, 0.0, 1.747690947585431E9, 0.0, 2025-05-19 23:42:27.585
250.0, 22741.715340818806, 18987.67280431662, 48495.37295047915, 33812.3332038323, 44304.689086042534, 2362.9370168372416, 8234.941450946504, 7413.090159069319, 0.0, 0.0, 8022.9575065323725, -25633.137003557327, 16587.09544981664, 5027.37671463212, -9399.333226601271, -31616.229607609464, 0.06, -0.006, 1.026, 192.0, 0.5, 112.0, 127.5, 104.0, 16.0, 8.0, 0.0, 0.0, 0.0, 1.747690947593457E9, 0.0, 2025-05-19 23:42:27.593
252.0, 22749.761968822717, 18995.495914875977, 48498.97158133645, 33817.58586377929, 44309.00297272241, 2344.921510806264, 8275.219294454968, 7418.521632971959, 0.0, 0.0, 8022.868099554551, -25632.68996866822, 16577.014813067297, 5017.899574983069, -9396.405148077625, -31628.478363570975, 0.06, -0.006, 1.026, 192.0, 0.0, 0.0, 0.0, 0.0, 0.0, 0.0, 0.0, 0.0, 0.0, 1.747690947603496E9, 0.0, 2025-05-19 23:42:27.603
254.0, 22744.88928853146, 18995.29474917588, 48492.333113233224, 33822.95028244857, 44305.337286631744, 2376.9068571218086, 8230.33699158871, 7399.746167629501, 0.0, 0.0, 8027.696076356898, -25627.63847442132, 16594.829153398176, 5035.4903978693965, -9389.274941596383, -31608.808828450303, 0.06, -0.006, 1.026, 192.0, 0.0, 0.0, 0.0, 0.0, 0.0, 0.0, 0.0, 0.0, 0.0, 1.747690947610506E9, 0.0, 2025-05-19 23:42:27.610
0.0, 22748.018532755203, 18997.015833498936, 48496.2446685129, 33811.21561660953, 44307.14777793262, 2355.359775466892, 8245.379715607132, 7414.520670714459, 0.0, 0.0, 8016.3190384291465, -25635.26041928058, 16577.61831016759, 5005.874336466114, -9416.991104720963, -31638.089613686756, 0.06, -0.006, 1.026, 192.0, 0.0, 0.0, 0.0, 0.0, 0.0, 0.0, 0.0, 0.0, 0.0, 1.747690947617616E9, 0.0, 2025-05-19 23:42:27.617
2.0, 22751.41599791241, 19002.00027251247, 48496.37877897963, 33834.48378258751, 44313.92035650258, 2383.724139180677, 8258.746058791407, 7419.527461472448, 0.0, 0.0, 8029.215994979859, -25618.429555705734, 16590.42585974048, 5028.51665359934, -9390.884267197165, -31615.894331442636, 0.06, -0.006, 1.026, 192.0, 0.0, 0.0, 0.0, 0.0, 0.0, 0.0, 0.0, 0.0, 0.0, 1.747690947625594E9, 0.0, 2025-05-19 23:42:27.625
4.0, 22753.204137468834, 19000.4356504006, 48495.88704060162, 33819.19518938007, 44300.88928948514, 2384.1935258142385, 8243.859796984172, 7414.408911992182, 0.0, 0.0, 8020.4317594089225, -25624.30806449748, 16591.275226029782, 5021.453502351464, -9409.48091858398, -31616.251959353922, 0.058, -0.002, 1.034, 192.0, 0.5, 104.0, 127.5, 120.0, 16.0, 40.0, 0.0, 0.0, 0.0, 1.747690947633679E9, 0.0, 2025-05-19 23:42:27.633
6.0, 22761.87661431749, 19011.47741216152, 48501.720845904456, 33828.73938426249, 44312.42278962407, 2376.4821739771573, 8268.178494951546, 7412.8442898803105, 0.0, 0.0, 8030.333582202624, -25618.83188710593, 16586.357842249614, 5016.1337871711, -9401.300180113338, -31625.706747258515, 0.058, -0.002, 1.034, 192.0, 0.0, 0.0, 0.0, 0.0, 0.0, 0.0, 0.0, 0.0, 0.0, 1.747690947641696E9, 0.0, 2025-05-19 23:42:27.641
8.0, 22747.97382926629, 19000.346243422777, 48490.50027018789, 33826.39245109468, 44306.745446532426, 2410.725046482688, 8244.284480128823, 7404.238868265018, 0.0, 0.0, 8026.578489134132, -25620.418860962258, 16596.550237721236, 5035.266880424843, -9392.895924198143, -31606.417191793586, 0.058, -0.002, 1.034, 192.0, 0.0, 0.0, 0.0, 0.0, 0.0, 0.0, 0.0, 0.0, 0.0, 1.747690947649752E9, 0.0, 2025-05-19 23:42:27.649
10.0, 22750.097244989545, 18999.22865620001, 48492.064892299764, 33814.70248874456, 44297.00008594991, 2351.761144609588, 8245.15619816258, 7412.263144524472, 0.0, 0.0, 8014.866175039551, -25632.399395990302, 16578.266510756792, 5013.451577836464, -9414.353598875237, -31628.143087404143, 0.058, -0.002, 1.034, 192.0, 0.0, 0.0, 0.0, 0.0, 0.0, 0.0, 0.0, 0.0, 0.0, 1.747690947657722E9, 0.0, 2025-05-19 23:42:27.657
12.0, 22746.163337965412, 18998.3345864218, 48495.44000571252, 33833.32149187583, 44307.95244073301, 2369.240208773638, 8260.467143114465, 7409.916211356665, 0.0, 0.0, 8021.750512331786, -25623.21282901917, 16584.748516648833, 5037.211482192455, -9387.307988084316, -31609.03234589486, 0.058, -0.002, 1.034, 192.0, 0.0, 0.0, 0.0, 0.0, 0.0, 0.0, 0.0, 0.0, 0.0, 1.747690947666774E9, 0.0, 2025-05-19 23:42:27.666
14.0, 22744.486957131263, 18999.072193988824, 48491.148470777094, 33819.17283763562, 44297.04478943882, 2370.313092507493, 8228.884128199117, 7409.893859612211, 0.0, 0.0, 8017.078997740627, -25624.956265086683, 16589.084755073163, 5037.032668236812, -9398.66267426761, -31607.043040638335, 0.054, -0.006, 1.034, 192.0, 0.5, 88.0, 127.5, 104.0, 16.0, 40.0, 0.0, 0.0, 0.0, 1.747690947672793E9, 0.0, 2025-05-19 23:42:27.672
16.0, 22752.2206607128, 19004.973054525024, 48492.28840974432, 33822.45854407055, 44310.25467041191, 2362.2888162480376, 8266.3009484173, 7420.332124272839, 0.0, 0.0, 8019.224765208336, -25623.816326119464, 16578.22180726788, 5020.425322106519, -9402.753043502933, -31624.097421657734, 0.054, -0.006, 1.034, 192.0, 0.0, 0.0, 0.0, 0.0, 0.0, 0.0, 0.0, 0.0, 0.0, 1.747690947681834E9, 0.0, 2025-05-19 23:42:27.681
18.0, 22737.0661779721, 18990.690289818085, 48469.914313544556, 33810.99209916498, 44304.37616162016, 2386.607514215412, 8241.401105094088, 7403.523612442447, 0.0, 0.0, 8011.960448260361, -25628.3984337328, 16585.508475960312, 5031.5564908452625, -9399.444985323547, -31610.86518894019, 0.054, -0.006, 1.034, 192.0, 0.0, 0.0, 0.0, 0.0, 0.0, 0.0, 0.0, 0.0, 0.0, 1.747690947689867E9, 0.0, 2025-05-19 23:42:27.689
20.0, 22737.35675065002, 18985.348222893266, 48465.17574372003, 33786.74045643097, 44291.59096379173, 2349.593025397423, 8224.950221174982, 7401.713121141568, 0.0, 0.0, 7994.324921885124, -25654.058236367495, 16556.428856423958, 4989.89283918057, -9435.833625296787, -31648.304360902832, 0.054, -0.006, 1.034, 192.0, 0.0, 0.0, 0.0, 0.0, 0.0, 0.0, 0.0, 0.0, 0.0, 1.74769094769787E9, 0.0, 2025-05-19 23:42:27.697
22.0, 22744.106977475523, 18990.57853109581, 48470.33899668921, 33806.857026440746, 44302.99035346393, 2386.294589793037, 8261.227102425946, 7400.506126940982, 0.0, 0.0, 8001.455128366367, -25649.632590965342, 16559.89337681453, 4999.5711445297175, -9417.616953565712, -31642.336445133264, 0.054, -0.006, 1.034, 192.0, 0.0, 0.0, 0.0, 0.0, 0.0, 0.0, 0.0, 0.0, 0.0, 1.747690947705902E9, 0.0, 2025-05-19 23:42:27.705
24.0, 22734.316913404098, 18981.302557146857, 48461.64416809609, 33790.71906694402, 44295.45781558249, 2367.5191244505795, 8231.879261956128, 7402.026045563942, 0.0, 0.0, 7999.0634917096495, -25649.967867132174, 16565.436609439446, 4997.447728806464, -9425.39536063616, -31640.056567198822, 0.056, 0.002, 1.032, 192.0, 0.5, 96.0, 0.0, 8.0, 16.0, 32.0, 0.0, 0.0, 0.0, 1.747690947713936E9, 0.0, 2025-05-19 23:42:27.713
26.0, 22734.093395959546, 18980.743763535473, 48460.12424947313, 33787.768636675915, 44302.0068767079, 2373.241171031138, 8258.142561691113, 7401.377844974738, 0.0, 0.0, 7990.502773583266, -25655.17582359026, 16546.951716774907, 4981.376824543098, -9428.457549626535, -31657.73679706297, 0.056, 0.002, 1.032, 192.0, 0.0, 0.0, 0.0, 0.0, 0.0, 0.0, 0.0, 0.0, 0.0, 1.747690947721947E9, 0.0, 2025-05-19 23:42:27.721
28.0, 22724.2139249103, 18973.121818676213, 48457.82201979423, 33789.33325878778, 44295.055484182296, 2363.764031382088, 8231.275764855834, 7373.214646961052, 0.0, 0.0, 7989.899276482974, -25659.668524225777, 16555.80300757921, 4994.676112494006, -9424.411883880126, -31647.20912542452, 0.056, 0.002, 1.032, 192.0, 0.0, 0.0, 0.0, 0.0, 0.0, 0.0, 0.0, 0.0, 0.0, 1.747690947728949E9, 0.0, 2025-05-19 23:42:27.728
30.0, 22723.11868943199, 18972.18304540909, 48458.76079306135, 33779.58789820527, 44288.90875445709, 2342.373411938359, 8251.504093587888, 7415.526499214948, 0.0, 0.0, 7982.76907000173, -25666.105826628904, 16542.056684739196, 4976.347682040654, -9439.231090453994, -31665.51520413342, 0.056, 0.002, 1.032, 192.0, 0.0, 0.0, 0.0, 0.0, 0.0, 0.0, 0.0, 0.0, 0.0, 1.747690947737929E9, 0.0, 2025-05-19 23:42:27.737
32.0, 22734.562782593108, 18991.3831938962, 48465.75688907586, 33802.14080836067, 44304.62203080917, 2372.2576942751043, 8261.517675103865, 7410.162080545674, 0.0, 0.0, 7990.122793927526, -25653.79001543403, 16550.99738252132, 4999.124109640612, -9411.581982562779, -31644.526916089886, 0.056, 0.002, 1.032, 192.0, 0.0, 0.0, 0.0, 0.0, 0.0, 0.0, 0.0, 0.0, 0.0, 1.747690947746019E9, 0.0, 2025-05-19 23:42:27.746
34.0, 22714.468564327784, 18965.52222556141, 48458.31375817225, 33782.15834881763, 44284.84073696622, 2360.925359836264, 8229.465273554953, 7401.89193509721, 0.0, 0.0, 7984.221933391325, -25657.634515480342, 16553.478426155856, 4995.793699716771, -9422.556689090336, -31646.180945179578, 0.06, 0.002, 1.032, 192.0, 0.5, 112.0, 0.0, 8.0, 16.0, 32.0, 0.0, 0.0, 0.0, 1.747690947754094E9, 0.0, 2025-05-19 23:42:27.754
36.0, 22718.268360885188, 18967.690344773575, 48464.035804752806, 33787.343953531265, 44297.96121096149, 2330.9963740106077, 8262.858779771183, 7405.982304332531, 0.0, 0.0, 7979.237494377791, -25665.301163828513, 16536.245231180816, 4981.265065820821, -9424.85891876923, -31662.385959909676, 0.06, 0.002, 1.032, 192.0, 0.0, 0.0, 0.0, 0.0, 0.0, 0.0, 0.0, 0.0, 0.0, 1.747690947761092E9, 0.0, 2025-05-19 23:42:27.761
38.0, 22723.521020832184, 18972.630080298197, 48462.51588612985, 33793.26716581192, 44301.828062752254, 2371.0283483300627, 8235.29907885779, 7393.755900115479, 0.0, 0.0, 7989.407538104956, -25660.31672481498, 16557.412333179993, 5001.13576664159, -9415.515889586914, -31642.93994223356, 0.06, 0.002, 1.032, 192.0, 0.0, 0.0, 0.0, 0.0, 0.0, 0.0, 0.0, 0.0, 0.0, 1.747690947770092E9, 0.0, 2025-05-19 23:42:27.770
40.0, 22732.59582908104, 18981.14609493567, 48469.86961005564, 33785.46640699702, 44301.62689705216, 2352.8787318323534, 8235.924927702537, 7409.156252045185, 0.0, 0.0, 7989.943979971884, -25661.70253297121, 16550.662106354488, 4982.6061704881395, -9432.078532228295, -31657.870907529705, 0.06, 0.002, 1.032, 192.0, 0.0, 0.0, 0.0, 0.0, 0.0, 0.0, 0.0, 0.0, 0.0, 1.74769094777812E9, 0.0, 2025-05-19 23:42:27.778
42.0, 22747.07975948808, 19000.033319000402, 48476.4410229255, 33805.91825317362, 44312.91452800209, 2387.859211904909, 8252.554625577286, 7403.8588886092775, 0.0, 0.0, 7999.845802765585, -25655.041713123526, 16559.245176225326, 5000.9122491970365, -9411.537279073867, -31643.74460503395, 0.06, 0.002, 1.032, 192.0, 0.0, 0.0, 0.0, 0.0, 0.0, 0.0, 0.0, 0.0, 0.0, 1.747690947785155E9, 0.0, 2025-05-19 23:42:27.785
44.0, 22743.056445486123, 18992.970167752526, 48471.50128740088, 33790.137921588175, 44306.2090046655, 2388.0603776050066, 8215.294267570289, 7394.582914660325, 0.0, 0.0, 8003.019750478238, -25646.12336708586, 16574.42201071048, 4997.112452639634, -9426.892927514664, -31644.102232945235, 0.056, -0.004, 1.038, 192.0, 0.5, 96.0, 127.5, 112.0, 16.0, 56.0, 0.0, 0.0, 0.0, 1.747690947793184E9, 0.0, 2025-05-19 23:42:27.793
46.0, 22741.089491974057, 18989.840923528784, 48472.775336834835, 33795.21176757953, 44310.657001812106, 2333.0080310115854, 8240.887014971617, 7393.197106504096, 0.0, 0.0, 8004.763186545752, -25646.257477552594, 16561.83797858214, 4986.853001934648, -9423.137834446172, -31658.250887185444, 0.056, -0.004, 1.038, 192.0, 0.0, 0.0, 0.0, 0.0, 0.0, 0.0, 0.0, 0.0, 0.0, 1.747690947802231E9, 0.0, 2025-05-19 23:42:27.802
48.0, 22725.197401666333, 18972.875949487203, 48462.40412740757, 33793.04364836736, 44296.68716152754, 2348.542493408024, 8218.736436216406, 7377.8414580633, 0.0, 0.0, 7996.1354131860035, -25653.4547392672, 16566.017754795284, 5000.666380008028, -9420.075645455796, -31645.890372501657, 0.056, -0.004, 1.038, 192.0, 0.0, 0.0, 0.0, 0.0, 0.0, 0.0, 0.0, 0.0, 0.0, 1.747690947809264E9, 0.0, 2025-05-19 23:42:27.809
50.0, 22733.512250603708, 18980.319080390822, 48464.70635708646, 33784.25941279643, 44292.395626592115, 2326.146045463806, 8232.169834634047, 7394.091176282308, 0.0, 0.0, 7983.506677568756, -25665.614088250888, 16548.22576620886, 4973.486658750375, -9446.495407401968, -31669.203241968542, 0.056, -0.004, 1.038, 192.0, 0.0, 0.0, 0.0, 0.0, 0.0, 0.0, 0.0, 0.0, 0.0, 1.747690947817314E9, 0.0, 2025-05-19 23:42:27.817
52.0, 22730.539468591152, 18983.493028103476, 48465.19809546448, 33800.59853799326, 44296.77656850536, 2376.526877466068, 8242.876320228139, 7387.206838990073, 0.0, 0.0, 7992.62618930652, -25653.767663689574, 16557.010001779796, 4992.7538624708495, -9424.277773413394, -31650.651294070638, 0.056, -0.004, 1.038, 192.0, 0.0, 0.0, 0.0, 0.0, 0.0, 0.0, 0.0, 0.0, 0.0, 1.747690947826267E9, 0.0, 2025-05-19 23:42:27.826
54.0, 22729.935971490857, 18982.598958325263, 48464.527543130826, 33790.09321809927, 44286.807690478294, 2342.1275427493506, 8216.970648404438, 7393.800603604389, 0.0, 0.0, 7993.341445129091, -25655.42169277927, 16565.727182117367, 4995.726644483405, -9431.810311294832, -31644.616323067705, 0.054, 0.0, 1.038, 192.0, 0.5, 88.0, 0.0, 0.0, 16.0, 56.0, 0.0, 0.0, 0.0, 1.747690947833289E9, 0.0, 2025-05-19 23:42:27.833
56.0, 22740.910678018416, 18993.216036941532, 48482.49834567289, 33805.91825317362, 44305.98548722095, 2341.9710805381633, 8256.510884345877, 7409.446824723104, 0.0, 0.0, 7996.58244807511, -25648.067968853473, 16557.70290585791, 4995.659589250039, -9421.48380535648, -31646.806794024327, 0.054, 0.0, 1.038, 192.0, 0.0, 0.0, 0.0, 0.0, 0.0, 0.0, 0.0, 0.0, 0.0, 1.747690947842348E9, 0.0, 2025-05-19 23:42:27.842
58.0, 22726.002064466724, 18975.960490222038, 48471.21071472296, 33797.268128069416, 44298.22943189495, 2356.4773626896576, 8235.321430602246, 7394.22528674904, 0.0, 0.0, 8003.377378389523, -25648.246782809114, 16573.12560953207, 5019.978287217413, -9404.116499914706, -31624.298587357833, 0.054, 0.0, 1.038, 192.0, 0.0, 0.0, 0.0, 0.0, 0.0, 0.0, 0.0, 0.0, 0.0, 1.747690947849325E9, 0.0, 2025-05-19 23:42:27.849
60.0, 22731.12061394699, 18978.218016412022, 48464.8404675532, 33778.35855226023, 44291.03217018034, 2341.8369700714316, 8234.33795384621, 7406.898725855199, 0.0, 0.0, 7986.099479925571, -25667.581041762955, 16549.812740065187, 4985.668359478517, -9436.191253208071, -31657.848555785247, 0.054, 0.0, 1.038, 192.0, 0.0, 0.0, 0.0, 0.0, 0.0, 0.0, 0.0, 0.0, 0.0, 1.747690947857345E9, 0.0, 2025-05-19 23:42:27.857
62.0, 22740.97773325178, 18987.158714194145, 48473.15531649057, 33801.44790428256, 44315.77555129237, 2344.340365450426, 8248.955994719981, 7400.439071707616, 0.0, 0.0, 8000.426948121423, -25657.74627420262, 16560.38511519255, 5002.0298364198015, -9414.219488408506, -31646.65033181314, 0.054, 0.0, 1.038, 192.0, 0.0, 0.0, 0.0, 0.0, 0.0, 0.0, 0.0, 0.0, 0.0, 1.747690947865406E9, 0.0, 2025-05-19 23:42:27.865
64.0, 22735.76977679369, 18978.687403045584, 48471.03190076732, 33792.7754274339, 44300.82223425177, 2379.0302728450624, 8217.417683293545, 7401.824879863844, 0.0, 0.0, 7996.381282375012, -25656.472224768666, 16566.867121084586, 5000.576973030206, -9425.86474726972, -31643.1187561892, 0.058, 0.002, 1.032, 192.0, 0.5, 104.0, 0.0, 8.0, 16.0, 32.0, 0.0, 0.0, 0.0, 1.747690947875377E9, 0.0, 2025-05-19 23:42:27.875
66.0, 22744.486957131263, 18989.036260728393, 48480.50904041637, 33805.69473572907, 44308.1089029442, 2335.086743245929, 8258.008451224381, 7414.699484670101, 0.0, 0.0, 8003.444433622889, -25649.811404920987, 16560.876853570564, 4999.168813129522, -9416.611125065223, -31644.97395097899, 0.058, 0.002, 1.032, 192.0, 0.0, 0.0, 0.0, 0.0, 0.0, 0.0, 0.0, 0.0, 0.0, 1.747690947882466E9, 0.0, 2025-05-19 23:42:27.882
68.0, 22723.789241765648, 18973.166522165124, 48467.50032514338, 33800.68794497108, 44293.803786492805, 2356.7679353675767, 8226.671305498041, 7398.941504829109, 0.0, 0.0, 7996.291875397191, -25649.61023922089, 16568.923481574475, 5016.200842404466, -9408.810366250322, -31627.02550018138, 0.058, 0.002, 1.032, 192.0, 0.0, 0.0, 0.0, 0.0, 0.0, 0.0, 0.0, 0.0, 0.0, 1.747690947889511E9, 0.0, 2025-05-19 23:42:27.889
70.0, 22729.511288346206, 18980.69906004656, 48470.13783098911, 33787.0757325978, 44296.955382461, 2328.4929786316134, 8240.127055660136, 7409.3797694897385, 0.0, 0.0, 7986.613570048043, -25664.071817883472, 16550.32683018766, 4989.691673480472, -9431.385628150181, -31652.528840604886, 0.058, 0.002, 1.032, 192.0, 0.0, 0.0, 0.0, 0.0, 0.0, 0.0, 0.0, 0.0, 0.0, 1.747690947898517E9, 0.0, 2025-05-19 23:42:27.898
72.0, 22732.12644244748, 18985.303519404355, 48476.10574675867, 33806.96878516302, 44302.0068767079, 2356.924397578764, 8254.141599433613, 7403.903592098188, 0.0, 0.0, 7999.5328783432105, -25650.817233421476, 16560.38511519255, 5008.869470223126, -9408.698607528044, -31637.68728228656, 0.058, 0.002, 1.032, 192.0, 0.0, 0.0, 0.0, 0.0, 0.0, 0.0, 0.0, 0.0, 0.0, 1.74769094790755E9, 0.0, 2025-05-19 23:42:27.907
74.0, 22721.19643940883, 18970.394905852667, 48463.63347335261, 33787.36630527572, 44295.52487081586, 2345.5473596510124, 8203.425491264521, 7388.682054124124, 0.0, 0.0, 7991.709767783853, -25657.79097769153, 16561.726219859866, 5000.666380008028, -9427.116444959218, -31643.409328867117, 0.06, 0.002, 1.03, 192.0, 0.5, 112.0, 0.0, 8.0, 16.0, 24.0, 0.0, 0.0, 0.0, 1.747690947913529E9, 0.0, 2025-05-19 23:42:27.913
76.0, 22734.339265148552, 18983.627138570206, 48478.296217715295, 33803.9289479171, 44305.49374884293, 2358.3549092239036, 8259.461314613976, 7408.7315689005345, 0.0, 0.0, 7989.2063724048585, -25656.204003835202, 16550.215071465384, 4992.373882815109, -9421.774378034399, -31653.244096427454, 0.06, 0.002, 1.03, 192.0, 0.0, 0.0, 0.0, 0.0, 0.0, 0.0, 0.0, 0.0, 0.0, 1.747690947921582E9, 0.0, 2025-05-19 23:42:27.921
78.0, 22725.35386387752, 18975.5805105663, 48470.83073506722, 33802.18551184959, 44301.559841818795, 2366.781516883554, 8233.10860790117, 7389.46436518006, 0.0, 0.0, 8002.639770822499, -25646.12336708586, 16572.99149906534, 5020.313563384243, -9403.62476153669, -31625.416174580598, 0.06, 0.002, 1.03, 192.0, 0.0, 0.0, 0.0, 0.0, 0.0, 0.0, 0.0, 0.0, 0.0, 1.747690947930613E9, 0.0, 2025-05-19 23:42:27.930
80.0, 22733.713416303806, 18982.57660658081, 48477.4915549149, 33792.529558244896, 44308.19830992202, 2329.4317518987364, 8240.037648682315, 7401.534307185925, 0.0, 0.0, 7995.397805618979, -25657.679218969253, 16558.060533769196, 4993.737339226883, -9426.110616458729, -31651.187735937565, 0.06, 0.002, 1.03, 192.0, 0.0, 0.0, 0.0, 0.0, 0.0, 0.0, 0.0, 0.0, 0.0, 1.747690947937621E9, 0.0, 2025-05-19 23:42:27.937
82.0, 22729.623047068482, 18977.56981582282, 48478.45267992648, 33806.49939852946, 44314.546205347324, 2342.395763682814, 8252.509922088377, 7385.46340292256, 0.0, 0.0, 8006.998360991283, -25648.939686887228, 16565.883644328555, 5012.669266780528, -9403.937685959065, -31637.910799731115, 0.06, 0.002, 1.03, 192.0, 0.0, 0.0, 0.0, 0.0, 0.0, 0.0, 0.0, 0.0, 0.0, 1.747690947945667E9, 0.0, 2025-05-19 23:42:27.945
84.0, 22721.934046975857, 18971.512493075432, 48472.127136245625, 33794.45180826805, 44296.64245803862, 2336.7407723356214, 8213.841404180695, 7388.74910935749, 0.0, 0.0, 7993.587314318099, -25659.31089631449, 16562.7096966159, 5005.315542854732, -9419.96388673352, -31641.822355010794, 0.056, 0.002, 1.029, 192.0, 0.5, 80.0, 0.0, 8.0, 16.0, 16.0, 0.0, 0.0, 0.0, 1.747690947953657E9, 0.0, 2025-05-19 23:42:27.953
86.0, 22733.221677925787, 18986.108182204745, 48478.02799678183, 33803.81718919482, 44313.67448731357, 2335.1314467348393, 8254.163951178069, 7400.819051363355, 0.0, 0.0, 7997.878849253518, -25649.252611309603, 16557.412333179993, 4997.89476369557, -9416.097034942752, -31648.796099280848, 0.056, 0.002, 1.029, 192.0, 0.0, 0.0, 0.0, 0.0, 0.0, 0.0, 0.0, 0.0, 0.0, 1.747690947961686E9, 0.0, 2025-05-19 23:42:27.961
88.0, 22737.69202681685, 18989.438592128587, 48486.678121886034, 33818.6810992576, 44309.740580289435, 2364.0546040600066, 8237.668363770052, 7396.438109450115, 0.0, 0.0, 8006.864250524552, -25641.11657632787, 16578.66884215699, 5020.648839551072, -9403.71416851451, -31625.97496819198, 0.056, 0.002, 1.029, 192.0, 0.0, 0.0, 0.0, 0.0, 0.0, 0.0, 0.0, 0.0, 0.0, 1.747690947969734E9, 0.0, 2025-05-19 23:42:27.969
90.0, 22733.624009325984, 18983.98476648149, 48484.53235441833, 33803.9289479171, 44302.319801130274, 2361.1265255363614, 8242.116360916658, 7409.983266590031, 0.0, 0.0, 8004.450262123378, -25644.581096718444, 16568.387039707548, 5005.516708554829, -9417.438139610069, -31640.794174765848, 0.056, 0.002, 1.029, 192.0, 0.0, 0.0, 0.0, 0.0, 0.0, 0.0, 0.0, 0.0, 0.0, 1.747690947977762E9, 0.0, 2025-05-19 23:42:27.977
92.0, 22732.282904658667, 18986.354051393755, 48483.63828464011, 33818.81520972434, 44311.86399601269, 2350.2188742421718, 8262.367041393167, 7401.243734508006, 0.0, 0.0, 8008.652390080976, -25637.473241981657, 16570.33164147516, 5022.012295962846, -9397.008645177919, -31625.326767602775, 0.056, 0.002, 1.029, 192.0, 0.0, 0.0, 0.0, 0.0, 0.0, 0.0, 0.0, 0.0, 0.0, 1.747690947985757E9, 0.0, 2025-05-19 23:42:27.985
94.0, 22726.560858078108, 18979.916748990625, 48478.564438648755, 33803.705430472546, 44293.58026904825, 2357.1255632788616, 8221.575107762232, 7392.7053681260795, 0.0, 0.0, 7995.554267830166, -25647.643285708822, 16569.303461230214, 5014.32329587022, -9415.046502953352, -31631.674663028083, 0.051000000000000004, 0.001, 1.0285, 192.0, 0.5, 56.0, 0.0, 0.0, 16.0, 16.0, 0.0, 0.0, 0.0, 1.747690947992838E9, 0.0, 2025-05-19 23:42:27.992
96.0, 22740.195422195844, 18995.65237708716, 48492.4448719555, 33817.809381223844, 44308.44417911103, 2358.5113714350905, 8259.751887291895, 7398.360359473272, 0.0, 0.0, 8004.1149859565485, -25637.36148325938, 16567.38121120706, 5010.031760934801, -9408.251572638937, -31638.35783462022, 0.051000000000000004, 0.001, 1.0285, 192.0, 0.0, 0.0, 0.0, 0.0, 0.0, 0.0, 0.0, 0.0, 0.0, 1.747690948001848E9, 0.0, 2025-05-19 23:42:28.001
98.0, 22737.848489028038, 18991.42789738511, 48487.661598642066, 33820.5809975363, 44309.450007611515, 2360.2548075026048, 8246.027916196337, 7390.514897169459, 0.0, 0.0, 8014.195622705892, -25631.639436678823, 16588.481257972868, 5033.1881681905, -9393.34295908725, -31618.107154143712, 0.051000000000000004, 0.001, 1.0285, 192.0, 0.0, 0.0, 0.0, 0.0, 0.0, 0.0, 0.0, 0.0, 0.0, 1.7476909480099E9, 0.0, 2025-05-19 23:42:28.009
100.0, 22740.910678018416, 18988.85744677275, 48492.35546497768, 33809.74040147548, 44312.15456869061, 2341.3228799489593, 8245.312660373767, 7408.150423544696, 0.0, 0.0, 8008.227706936325, -25636.333303014435, 16575.42783921097, 5012.021066191324, -9412.744273274455, -31637.97785496448, 0.051000000000000004, 0.001, 1.0285, 192.0, 0.0, 0.0, 0.0, 0.0, 0.0, 0.0, 0.0, 0.0, 0.0, 1.747690948017928E9, 0.0, 2025-05-19 23:42:28.017
102.0, 22743.056445486123, 18994.020699741926, 48491.90843008857, 33826.92889296161, 44315.37321989217, 2357.2596737455933, 8256.980270979437, 7404.663551409669, 0.0, 0.0, 8019.805910564174, -25624.12925054184, 16584.6144061821, 5033.009354234857, -9388.425575307081, -31618.86711345519, 0.051000000000000004, 0.001, 1.0285, 192.0, 0.0, 0.0, 0.0, 0.0, 0.0, 0.0, 0.0, 0.0, 0.0, 1.747690948024963E9, 0.0, 2025-05-19 23:42:28.024
104.0, 22736.84266052755, 18988.768039794926, 48481.76073810586, 33809.06984914182, 44302.319801130274, 2359.204275513205, 8220.166947861546, 7402.070749052853, 0.0, 0.0, 8008.831204036618, -25634.187535546727, 16583.116839303595, 5024.493339597385, -9407.71513077201, -31623.02453792388, 0.052500000000000005, 5.0E-4, 1.02525, 192.0, 0.5, 88.0, 0.0, 0.0, 15.5, 120.0, 0.0, 0.0, 0.0, 1.747690948033989E9, 0.0, 2025-05-19 23:42:28.033
106.0, 22745.31397167611, 18996.837019543294, 48486.56636316376, 33812.91434918813, 44313.316859402286, 2350.3529847089035, 8259.036631469326, 7415.392388748216, 0.0, 0.0, 8008.384169147512, -25635.908619869784, 16569.303461230214, 5010.814071990737, -9409.525622072892, -31636.323825874788, 0.052500000000000005, 5.0E-4, 1.02525, 192.0, 0.0, 0.0, 0.0, 0.0, 0.0, 0.0, 0.0, 0.0, 0.0, 1.747690948042016E9, 0.0, 2025-05-19 23:42:28.042
108.0, 22731.858221514016, 18982.174275180612, 48479.056177026774, 33812.1320381322, 44306.34311513223, 2365.239246516138, 8232.236889867412, 7399.723815885046, 0.0, 0.0, 8007.333637158113, -25639.954285616197, 16578.42297296798, 5026.61675532064, -9402.685988269566, -31621.705785001017, 0.052500000000000005, 5.0E-4, 1.02525, 192.0, 0.0, 0.0, 0.0, 0.0, 0.0, 0.0, 0.0, 0.0, 0.0, 1.747690948049142E9, 0.0, 2025-05-19 23:42:28.049
110.0, 22735.613314582508, 18986.331699649298, 48485.06879628525, 33806.94643341857, 44306.54428083233, 2343.4462956722136, 8235.544948046798, 7409.6703421676575, 0.0, 0.0, 8001.522183599733, -25643.68702694023, 16565.99540305083, 5005.404949832553, -9421.506157100936, -31640.235381154467, 0.052500000000000005, 5.0E-4, 1.02525, 192.0, 0.0, 0.0, 0.0, 0.0, 0.0, 0.0, 0.0, 0.0, 0.0, 1.747690948057082E9, 0.0, 2025-05-19 23:42:28.057
112.0, 22736.328570405076, 18988.969205495025, 48491.41669171056, 33827.57709355081, 44314.412094880594, 2360.925359836264, 8253.001660466392, 7399.500298440493, 0.0, 0.0, 8012.854518038574, -25632.801727390495, 16575.38313572206, 5026.169720431533, -9397.14275564465, -31622.912779201604, 0.052500000000000005, 5.0E-4, 1.02525, 192.0, 0.0, 0.0, 0.0, 0.0, 0.0, 0.0, 0.0, 0.0, 0.0, 1.747690948066134E9, 0.0, 2025-05-19 23:42:28.066
114.0, 22728.728977290273, 18980.877874002206, 48487.34867421969, 33813.51784628843, 44302.677429041556, 2381.9359996242524, 8228.682962499019, 7409.782100889934, 0.0, 0.0, 8009.389997648001, -25635.796861147508, 16581.61927242509, 5023.040476207791, -9410.978485462485, -31625.371471091687, 0.05425000000000001, -0.00175, 1.0226250000000001, 192.0, 0.5, 96.0, 127.5, 112.0, 15.5, 112.0, 0.0, 0.0, 0.0, 1.747690948073146E9, 0.0, 2025-05-19 23:42:28.073
116.0, 22737.155584949924, 18990.51147586244, 48492.08724404422, 33820.73745974749, 44309.51706284488, 2361.439449958736, 8268.558474607287, 7419.952144617098, 0.0, 0.0, 8008.607686592065, -25636.64622743681, 16568.968185063386, 5018.011333705346, -9405.211735393017, -31631.339386861255, 0.05425000000000001, -0.00175, 1.0226250000000001, 192.0, 0.0, 0.0, 0.0, 0.0, 0.0, 0.0, 0.0, 0.0, 0.0, 1.747690948081161E9, 0.0, 2025-05-19 23:42:28.081
118.0, 22735.054520971124, 18987.941025250082, 48490.656732399075, 33828.89584647368, 44307.75127503291, 2355.5162376780795, 8236.617831780653, 7400.774347874445, 0.0, 0.0, 8016.3190384291465, -25627.5490674435, 16589.174162050982, 5041.61477585015, -9393.074738153784, -31608.54060751684, 0.05425000000000001, -0.00175, 1.0226250000000001, 192.0, 0.0, 0.0, 0.0, 0.0, 0.0, 0.0, 0.0, 0.0, 0.0, 1.747690948089234E9, 0.0, 2025-05-19 23:42:28.089
120.0, 22733.9145820039, 18985.884664760193, 48491.41669171056, 33816.06594515633, 44307.32659188826, 2341.8816735603423, 8244.865625484661, 7418.141653316218, 0.0, 0.0, 8005.29962841268, -25634.567515202467, 16573.61734791009, 5020.022990706324, -9411.827851751787, -31627.092555414743, 0.05425000000000001, -0.00175, 1.0226250000000001, 192.0, 0.0, 0.0, 0.0, 0.0, 0.0, 0.0, 0.0, 0.0, 0.0, 1.747690948098232E9, 0.0, 2025-05-19 23:42:28.098
122.0, 22726.53850633365, 18983.291862403377, 48489.4944416874, 33823.10674465975, 44316.33434490375, 2362.46763020368, 8250.58767206522, 7407.055188066386, 0.0, 0.0, 8007.691265069398, -25633.382872746333, 16573.28207174326, 5034.976307746924, -9390.213714863505, -31616.96721517649, 0.05425000000000001, -0.00175, 1.0226250000000001, 192.0, 0.0, 0.0, 0.0, 0.0, 0.0, 0.0, 0.0, 0.0, 0.0, 1.747690948105257E9, 0.0, 2025-05-19 23:42:28.105
124.0, 22712.613369537994, 18966.684516273086, 48476.57513339223, 33798.27395656991, 44296.933030716544, 2356.6561766453, 8226.403084564578, 7398.114490284263, 0.0, 0.0, 7993.609666062554, -25649.36437003188, 16567.18004550696, 5026.348534387175, -9407.71513077201, -31624.812677480302, 0.057125, -8.75E-4, 1.0233125, 192.0, 0.5, 112.0, 0.0, 0.0, 16.0, 0.0, 0.0, 0.0, 0.0, 1.747690948113281E9, 0.0, 2025-05-19 23:42:28.113
126.0, 22728.751329034727, 18982.80012402536, 48481.17959275003, 33807.482875285496, 44304.644382553626, 2346.664946873778, 8258.835465769227, 7402.897763597699, 0.0, 0.0, 7989.3181311271355, -25653.566497989475, 16549.87979529855, 5006.924868455514, -9415.515889586914, -31645.063357956813, 0.057125, -8.75E-4, 1.0233125, 192.0, 0.0, 0.0, 0.0, 0.0, 0.0, 0.0, 0.0, 0.0, 0.0, 1.747690948122314E9, 0.0, 2025-05-19 23:42:28.122
128.0, 22725.68914004435, 18981.32490889131, 48479.50321191588, 33814.92600618911, 44302.99035346393, 2351.8058480984987, 8229.353514832677, 7396.8180891058555, 0.0, 0.0, 8005.29962841268, -25636.82504139245, 16578.557083434713, 5030.595365833684, -9400.651979524133, -31619.40355532212, 0.057125, -8.75E-4, 1.0233125, 192.0, 0.0, 0.0, 0.0, 0.0, 0.0, 0.0, 0.0, 0.0, 0.0, 1.747690948129375E9, 0.0, 2025-05-19 23:42:28.129
130.0, 22725.10799468851, 18978.59799606776, 48478.49738341539, 33795.591747235274, 44302.051580196814, 2325.9001762747976, 8240.194110893503, 7404.37297873175, 0.0, 0.0, 7992.737948028797, -25655.466396268177, 16557.32292620217, 4999.191164873978, -9429.10575021574, -31649.2207824255, 0.057125, -8.75E-4, 1.0233125, 192.0, 0.0, 0.0, 0.0, 0.0, 0.0, 0.0, 0.0, 0.0, 0.0, 1.747690948137375E9, 0.0, 2025-05-19 23:42:28.137
132.0, 22727.58903832305, 18983.493028103476, 48482.52069741735, 33816.848256212266, 44315.50733035891, 2359.3607377243925, 8252.53227383283, 7400.081443796331, 0.0, 0.0, 8003.10915745606, -25643.84348915142, 16564.676650127967, 5021.274688395821, -9401.635456280168, -31630.22179963849, 0.057125, -8.75E-4, 1.0233125, 192.0, 0.0, 0.0, 0.0, 0.0, 0.0, 0.0, 0.0, 0.0, 0.0, 1.747690948145408E9, 0.0, 2025-05-19 23:42:28.145
134.0, 22717.97778820727, 18974.842902999273, 48468.34969143268, 33796.55287224685, 44295.547222560315, 2350.0624120309844, 8220.81514845075, 7393.13005127073, 0.0, 0.0, 7993.497907340277, -25650.817233421476, 16566.665955384487, 5016.80433950476, -9417.192270421061, -31632.07699442828, 0.0585625, -4.375E-4, 1.02565625, 192.0, 0.5, 112.0, 0.0, 0.0, 16.0, 16.0, 0.0, 0.0, 0.0, 1.74769094815444E9, 0.0, 2025-05-19 23:42:28.154
136.0, 22725.465622599797, 18982.621310069717, 48476.28456071432, 33803.839540939276, 44304.286754642344, 2327.0624669864737, 8253.202826166491, 7403.344798486805, 0.0, 0.0, 7992.603837562066, -25649.632590965342, 16553.590184878132, 5002.65568526455, -9418.868651255209, -31647.522049846895, 0.0585625, -4.375E-4, 1.02565625, 192.0, 0.0, 0.0, 0.0, 0.0, 0.0, 0.0, 0.0, 0.0, 0.0, 1.747690948161472E9, 0.0, 2025-05-19 23:42:28.161
138.0, 22719.29654113013, 18974.172350665613, 48475.72576710293, 33807.57228226332, 44298.989391206436, 2352.476400432158, 8238.62948878163, 7394.180583260129, 0.0, 0.0, 7992.939113728895, -25648.336189786936, 16567.448266440424, 5022.146406429578, -9407.692779027555, -31630.870000227693, 0.0585625, -4.375E-4, 1.02565625, 192.0, 0.0, 0.0, 0.0, 0.0, 0.0, 0.0, 0.0, 0.0, 0.0, 1.747690948169454E9, 0.0, 2025-05-19 23:42:28.169
140.0, 22731.858221514016, 18985.772906037917, 48489.896773087596, 33804.957128162045, 44309.85233901171, 2346.597891640412, 8246.854930741183, 7410.720874157057, 0.0, 0.0, 7997.096538197582, -25649.99021887663, 16563.46965592738, 5010.434092334997, -9417.080511698785, -31642.895238744648, 0.0585625, -4.375E-4, 1.02565625, 192.0, 0.0, 0.0, 0.0, 0.0, 0.0, 0.0, 0.0, 0.0, 0.0, 1.74769094817751E9, 0.0, 2025-05-19 23:42:28.177
142.0, 22730.673579057882, 18988.14219095018, 48490.3438079767, 33824.20198013807, 44314.412094880594, 2342.7980950830097, 8259.304852402789, 7403.367150231261, 0.0, 0.0, 8008.473576125333, -25634.388701246822, 16574.019679310284, 5036.406819392064, -9385.408089805615, -31621.951654190023, 0.0585625, -4.375E-4, 1.02565625, 192.0, 0.0, 0.0, 0.0, 0.0, 0.0, 0.0, 0.0, 0.0, 0.0, 1.747690948185494E9, 0.0, 2025-05-19 23:42:28.185
144.0, 22719.34124461904, 18977.033373955892, 48477.71507235945, 33803.19134035007, 44299.99521970692, 2343.535702650035, 8222.513881029354, 7396.371054216749, 0.0, 0.0, 7997.8341457646075, -25641.675369939254, 16574.019679310284, 5027.75669428786, -9403.937685959065, -31625.103250158223, 0.056281250000000005, 7.8125E-4, 1.026828125, 192.0, 0.5, 88.0, 0.0, 8.0, 16.0, 16.0, 0.0, 0.0, 0.0, 1.747690948193553E9, 0.0, 2025-05-19 23:42:28.193
146.0, 22728.796032523638, 18985.147057193168, 48489.09211028721, 33816.66944225662, 44310.14291168963, 2343.759220094588, 8274.057003743292, 7423.5284237299475, 0.0, 0.0, 7996.940075986395, -25642.390625761826, 16561.43564718195, 5016.245545893377, -9406.95517146053, -31635.407404352118, 0.056281250000000005, 7.8125E-4, 1.026828125, 192.0, 0.0, 0.0, 0.0, 0.0, 0.0, 0.0, 0.0, 0.0, 0.0, 1.747690948201552E9, 0.0, 2025-05-19 23:42:28.201
148.0, 22714.06623292759, 18969.299670374356, 48477.91623805955, 33811.61794800973, 44300.7551790184, 2394.341217796948, 8232.996849178893, 7406.675208410646, 0.0, 0.0, 8003.422081878434, -25637.94262861522, 16579.205284023916, 5040.966575260946, -9393.43236606507, -31611.558093018306, 0.056281250000000005, 7.8125E-4, 1.026828125, 192.0, 0.0, 0.0, 0.0, 0.0, 0.0, 0.0, 0.0, 0.0, 0.0, 1.747690948209625E9, 0.0, 2025-05-19 23:42:28.209
150.0, 22723.342206876543, 18976.452228600054, 48482.52069741735, 33802.163160105134, 44299.43642609554, 2330.884615288331, 8240.77525624934, 7415.079464325841, 0.0, 0.0, 7984.110174669048, -25659.89204167033, 16552.696115099923, 5005.516708554829, -9424.747160046954, -31644.482212600975, 0.056281250000000005, 7.8125E-4, 1.026828125, 192.0, 0.0, 0.0, 0.0, 0.0, 0.0, 0.0, 0.0, 0.0, 0.0, 1.747690948216638E9, 0.0, 2025-05-19 23:42:28.216
152.0, 22728.192535423343, 18983.3812693812, 48487.236915497415, 33820.02220392492, 44314.45679836951, 2336.5843101244345, 8266.144486206113, 7405.825842121344, 0.0, 0.0, 8006.148994701982, -25637.02620709255, 16572.633871154056, 5029.611889077651, -9394.326435843283, -31624.119773402188, 0.056281250000000005, 7.8125E-4, 1.026828125, 192.0, 0.0, 0.0, 0.0, 0.0, 0.0, 0.0, 0.0, 0.0, 0.0, 1.747690948225679E9, 0.0, 2025-05-19 23:42:28.225
154.0, 22722.582247565064, 18979.827342012806, 48484.33118871823, 33805.582977006794, 44296.28483012734, 2341.4569904156915, 8228.258279354368, 7403.031874064431, 0.0, 0.0, 8004.226744678825, -25642.681198439743, 16580.14405729104, 5025.499168097874, -9409.972656961996, -31627.204314137023, 0.056140625, -0.0016093750000000001, 1.0284140625, 192.0, 0.5, 96.0, 127.5, 112.0, 16.0, 24.0, 0.0, 0.0, 0.0, 1.747690948233673E9, 0.0, 2025-05-19 23:42:28.233
156.0, 22732.864050014505, 18986.152885693657, 48496.57994467973, 33817.74232599048, 44320.380010650166, 2330.3258216769486, 8264.356346649689, 7412.352551502294, 0.0, 0.0, 8005.769015046241, -25644.26817229607, 16566.040106539742, 5015.41853134853, -9406.664598782612, -31639.430718354073, 0.056140625, -0.0016093750000000001, 1.0284140625, 192.0, 0.0, 0.0, 0.0, 0.0, 0.0, 0.0, 0.0, 0.0, 0.0, 1.747690948241728E9, 0.0, 2025-05-19 23:42:28.241
158.0, 22726.717320289295, 18981.973109480514, 48495.10472954568, 33824.604311538256, 44310.83581576774, 2360.590083669434, 8240.06000042677, 7399.030911806931, 0.0, 0.0, 8014.910878528462, -25630.097166311403, 16589.062403328706, 5044.788723562804, -9387.263284595405, -31611.26752034039, 0.056140625, -0.0016093750000000001, 1.0284140625, 192.0, 0.0, 0.0, 0.0, 0.0, 0.0, 0.0, 0.0, 0.0, 0.0, 1.747690948248759E9, 0.0, 2025-05-19 23:42:28.248
160.0, 22726.650265055927, 18979.08973444578, 48492.10959578867, 33809.06984914182, 44310.500539600915, 2331.1304844773395, 8245.424419096043, 7414.5430224589145, 0.0, 0.0, 8004.897297012484, -25643.01647460657, 16571.09160078664, 5022.861662252148, -9407.581020305279, -31633.44045084005, 0.056140625, -0.0016093750000000001, 1.0284140625, 192.0, 0.0, 0.0, 0.0, 0.0, 0.0, 0.0, 0.0, 0.0, 0.0, 1.747690948257806E9, 0.0, 2025-05-19 23:42:28.257
162.0, 22732.26055291421, 18988.455115372555, 48497.76458713586, 33826.347747605774, 44318.23424318245, 2347.626071885356, 8263.864608271671, 7411.369074746261, 0.0, 0.0, 8013.949753516884, -25630.723015156153, 16578.646490412535, 5039.04432523779, -9388.626741007178, -31618.665947755093, 0.056140625, -0.0016093750000000001, 1.0284140625, 192.0, 0.0, 0.0, 0.0, 0.0, 0.0, 0.0, 0.0, 0.0, 0.0, 1.747690948265847E9, 0.0, 2025-05-19 23:42:28.265
164.0, 22725.711491788807, 18984.56591183733, 48489.13681377612, 33809.44982879756, 44305.270231398375, 2348.9001213193087, 8219.161119361057, 7405.490565954515, 0.0, 0.0, 8010.999323248783, -25636.579172203445, 16583.98855733735, 5035.244528680388, -9401.411938835614, -31618.598892521728, 0.0580703125, -0.0038046875, 1.03020703125, 192.0, 0.5, 112.0, 127.5, 104.0, 16.0, 32.0, 0.0, 0.0, 0.0, 1.747690948272882E9, 0.0, 2025-05-19 23:42:28.272
166.0, 22733.467547114797, 18990.779696795904, 48498.010456324875, 33818.390526579686, 44324.1127519742, 2350.107115519895, 8259.885997758627, 7415.571202703858, 0.0, 0.0, 8007.512451113756, -25638.7025879267, 16567.917653073986, 5023.241641907888, -9403.960037703519, -31632.07699442828, 0.0580703125, -0.0038046875, 1.03020703125, 192.0, 0.0, 0.0, 0.0, 0.0, 0.0, 0.0, 0.0, 0.0, 0.0, 1.747690948282917E9, 0.0, 2025-05-19 23:42:28.282
168.0, 22724.817422010594, 18982.107219947247, 48492.08724404422, 33816.848256212266, 44317.563690848794, 2371.497734963624, 8225.285497341813, 7392.303036725883, 0.0, 0.0, 8013.636829094509, -25637.562648959476, 16583.452115470423, 5043.224101450933, -9391.018377663897, -31613.815619208293, 0.0580703125, -0.0038046875, 1.03020703125, 192.0, 0.0, 0.0, 0.0, 0.0, 0.0, 0.0, 0.0, 0.0, 0.0, 1.747690948289948E9, 0.0, 2025-05-19 23:42:28.289
170.0, 22729.958323235314, 18986.175237438114, 48490.61202891017, 33803.50426477245, 44312.71336230199, 2323.6202983403564, 8226.313677586755, 7398.136842028719, 0.0, 0.0, 8002.483308611311, -25649.476128754155, 16567.738839118345, 5010.635258035095, -9420.410921622626, -31643.588142822762, 0.0580703125, -0.0038046875, 1.03020703125, 192.0, 0.0, 0.0, 0.0, 0.0, 0.0, 0.0, 0.0, 0.0, 0.0, 1.74769094829696E9, 0.0, 2025-05-19 23:42:28.296
172.0, 22732.796994781136, 18991.1820281961, 48494.3447702342, 33823.911407460146, 44316.66962107058, 2360.523028436068, 8251.437038354521, 7401.824879863844, 0.0, 0.0, 8013.390959905501, -25635.573343702956, 16577.350089234125, 5029.075447210723, -9398.595619034246, -31627.338424603753, 0.0580703125, -0.0038046875, 1.03020703125, 192.0, 0.0, 0.0, 0.0, 0.0, 0.0, 0.0, 0.0, 0.0, 0.0, 1.747690948304982E9, 0.0, 2025-05-19 23:42:28.304
174.0, 22725.376215621975, 18976.653394300152, 48482.05131078378, 33802.6772502276, 44301.850414496716, 2353.37047021037, 8218.24469783839, 7402.294266497406, 0.0, 0.0, 8003.9361720009065, -25642.65884669529, 16578.22180726788, 5021.677019796017, -9415.024151208896, -31629.327729860277, 0.057035156249999996, -0.0059023437500000005, 1.0291035156250001, 192.0, 0.5, 96.0, 127.5, 96.0, 16.0, 16.0, 0.0, 0.0, 0.0, 1.747690948314074E9, 0.0, 2025-05-19 23:42:28.314
176.0, 22731.031206969168, 18989.2821299174, 48488.86859284265, 33813.562549777336, 44312.266327412886, 2358.980758068652, 8261.696489059506, 7413.51484221397, 0.0, 0.0, 8002.3491981445795, -25642.23416355064, 16566.062458284196, 5009.830595234704, -9415.96292447602, -31641.911761988613, 0.057035156249999996, -0.0059023437500000005, 1.0291035156250001, 192.0, 0.0, 0.0, 0.0, 0.0, 0.0, 0.0, 0.0, 0.0, 0.0, 1.747690948322105E9, 0.0, 2025-05-19 23:42:28.322
178.0, 22732.72993954777, 18991.025565984914, 48493.808328367275, 33826.146581905676, 44311.64047856814, 2384.394691514336, 8239.456503326477, 7405.803490376889, 0.0, 0.0, 8010.328770915124, -25635.03690183603, 16586.46960097189, 5035.155121702566, -9402.596581291746, -31617.2130843655, 0.057035156249999996, -0.0059023437500000005, 1.0291035156250001, 192.0, 0.0, 0.0, 0.0, 0.0, 0.0, 0.0, 0.0, 0.0, 0.0, 1.747690948329089E9, 0.0, 2025-05-19 23:42:28.329
180.0, 22732.97580873678, 18988.745688050472, 48490.76849112135, 33811.953224176556, 44303.83971975323, 2341.725211349155, 8236.863700969661, 7416.219403293062, 0.0, 0.0, 8010.239363937303, -25637.048558837007, 16577.126571789573, 5016.200842404466, -9417.39343612116, -31633.127526417677, 0.057035156249999996, -0.0059023437500000005, 1.0291035156250001, 192.0, 0.0, 0.0, 0.0, 0.0, 0.0, 0.0, 0.0, 0.0, 0.0, 1.747690948337128E9, 0.0, 2025-05-19 23:42:28.337
182.0, 22733.266381414698, 18992.523132863418, 48493.47305220045, 33828.94054996259, 44313.85330126921, 2349.078935274951, 8250.140637176113, 7408.105720055786, 0.0, 0.0, 8012.608648849565, -25628.800765132997, 16579.205284023916, 5030.461255366952, -9398.416805078603, -31622.59985477923, 0.057035156249999996, -0.0059023437500000005, 1.0291035156250001, 192.0, 0.0, 0.0, 0.0, 0.0, 0.0, 0.0, 0.0, 0.0, 0.0, 1.747690948346171E9, 0.0, 2025-05-19 23:42:28.346
184.0, 22721.107032431013, 18980.408487368644, 48479.771432849346, 33808.68986948608, 44302.72213253047, 2345.0779730174513, 8215.71895071494, 7398.785042617923, 0.0, 0.0, 8006.886602269006, -25634.478108224645, 16585.150848049027, 5029.187205933, -9410.330284873282, -31621.571674534283, 0.054517578125, -0.007951171875, 1.0295517578125, 192.0, 0.5, 80.0, 127.5, 88.0, 16.0, 24.0, 0.0, 0.0, 0.0, 1.747690948353212E9, 0.0, 2025-05-19 23:42:28.353
186.0, 22730.83004126907, 18985.728202549006, 48488.421557953545, 33814.54602653337, 44314.90383325861, 2329.856435043387, 8255.236834911924, 7410.586763690325, 0.0, 0.0, 7997.72238704233, -25645.251649052105, 16560.94390880393, 5010.679961524005, -9418.041636710363, -31641.040043954858, 0.054517578125, -0.007951171875, 1.0295517578125, 192.0, 0.0, 0.0, 0.0, 0.0, 0.0, 0.0, 0.0, 0.0, 0.0, 1.74769094836124E9, 0.0, 2025-05-19 23:42:28.361
188.0, 22712.032224182156, 18969.344373863267, 48473.08826125721, 33804.15246536165, 44305.65021105411, 2369.5307814515572, 8220.859851939662, 7392.638312892714, 0.0, 0.0, 7998.527049842722, -25646.88332639734, 16572.857388598608, 5029.164854188544, -9406.95517146053, -31625.0138431804, 0.054517578125, -0.007951171875, 1.0295517578125, 192.0, 0.0, 0.0, 0.0, 0.0, 0.0, 0.0, 0.0, 0.0, 0.0, 1.747690948369195E9, 0.0, 2025-05-19 23:42:28.369
190.0, 22723.051634198622, 18976.653394300152, 48479.30204621578, 33797.22342458051, 44304.3091063868, 2328.403571653792, 8233.801511979284, 7403.188336275618, 0.0, 0.0, 7990.346311372079, -25661.210794593193, 16554.886586056542, 5001.22517361941, -9431.96677350602, -31651.701826060038, 0.054517578125, -0.007951171875, 1.0295517578125, 192.0, 0.0, 0.0, 0.0, 0.0, 0.0, 0.0, 0.0, 0.0, 0.0, 1.747690948378285E9, 0.0, 2025-05-19 23:42:28.378
192.0, 22725.845602255537, 18983.85065601476, 48484.66646488506, 33821.02803242541, 44317.27311817087, 2353.348118465915, 8248.53131157533, 7405.781138632434, 0.0, 0.0, 8007.132471458015, -25641.496555983613, 16569.90695833051, 5026.929679743013, -9402.931857458576, -31628.031328681867, 0.054517578125, -0.007951171875, 1.0295517578125, 192.0, 0.0, 0.0, 0.0, 0.0, 0.0, 0.0, 0.0, 0.0, 0.0, 1.7476909483854E9, 0.0, 2025-05-19 23:42:28.385
194.0, 22726.694968544838, 18977.74862977846, 48472.350653690184, 33798.27395656991, 44304.979658720455, 2346.866112573876, 8209.728683200918, 7393.3535687152835, 0.0, 0.0, 7996.470689352834, -25649.900811898806, 16569.28110948576, 5014.65857203705, -9424.881270513686, -31636.636750297163, 0.0552587890625, -0.0079755859375, 1.02877587890625, 192.0, 0.5, 96.0, 127.5, 96.0, 16.0, 16.0, 0.0, 0.0, 0.0, 1.747690948393391E9, 0.0, 2025-05-19 23:42:28.393
196.0, 22729.287770901654, 18988.611577583742, 48494.12125278965, 33821.49741905897, 44310.165263434086, 2350.6212056423674, 8256.019145967859, 7417.806377149389, 0.0, 0.0, 8006.573677846633, -25641.921239128264, 16566.241272239837, 5012.445749335975, -9416.164090176117, -31641.129450932676, 0.0552587890625, -0.0079755859375, 1.02877587890625, 192.0, 0.0, 0.0, 0.0, 0.0, 0.0, 0.0, 0.0, 0.0, 0.0, 1.747690948401415E9, 0.0, 2025-05-19 23:42:28.401
198.0, 22727.946666234337, 18988.365708394733, 48497.42931096903, 33830.37106160773, 44317.63074608216, 2373.889371620342, 8234.986154435415, 7406.630504921735, 0.0, 0.0, 8017.324866929635, -25627.97375058815, 16590.38115625157, 5044.967537518446, -9393.566476531802, -31612.69803198553, 0.0552587890625, -0.0079755859375, 1.02877587890625, 192.0, 0.0, 0.0, 0.0, 0.0, 0.0, 0.0, 0.0, 0.0, 0.0, 1.747690948409393E9, 0.0, 2025-05-19 23:42:28.409
200.0, 22728.661922056905, 18995.51826662043, 48495.88704060162, 33820.71510800304, 44303.325629630766, 2352.454048687702, 8238.003639936882, 7421.583821962336, 0.0, 0.0, 8012.161613960459, -25633.02524483505, 16579.004118323817, 5027.264955909844, -9410.062063939818, -31629.59595079374, 0.0552587890625, -0.0079755859375, 1.02877587890625, 192.0, 0.0, 0.0, 0.0, 0.0, 0.0, 0.0, 0.0, 0.0, 0.0, 1.747690948417526E9, 0.0, 2025-05-19 23:42:28.417
202.0, 22721.084680686556, 18993.23838868599, 48492.86955510015, 33838.01535821144, 44299.458777839995, 2371.9000663638194, 8254.990965722915, 7415.794720148411, 0.0, 0.0, 8015.715541328853, -25623.12342204135, 16584.837923626652, 5042.419438650541, -9395.108746899217, -31613.54739827483, 0.0552587890625, -0.0079755859375, 1.02877587890625, 192.0, 0.0, 0.0, 0.0, 0.0, 0.0, 0.0, 0.0, 0.0, 0.0, 1.747690948425521E9, 0.0, 2025-05-19 23:42:28.425
204.0, 22707.852447969013, 18981.99546122497, 48486.812232352764, 33820.91627370314, 44289.86987946867, 2372.28004601956, 8235.030857924326, 7412.7995863914, 0.0, 0.0, 8001.857459766563, -25628.97957908864, 16585.03908932675, 5038.418476393042, -9408.206869150028, -31614.15089537512, 0.0552587890625, -0.0079755859375, 1.02877587890625, 192.0, 0.0, 0.0, 0.0, 0.0, 0.0, 0.0, 0.0, 0.0, 0.0, 1.747690948434507E9, 0.0, 2025-05-19 23:42:28.434
206.0, 22720.816459753092, 19001.955569023557, 48495.66352315707, 33828.515866817936, 44302.34215287473, 2361.7076708921995, 8269.027861240847, 7421.293249284417, 0.0, 0.0, 8000.225782421325, -25629.69483491121, 16571.069249042182, 5030.349496644676, -9399.802613234831, -31626.422003081087, 0.058, -0.01, 1.03, 192.0, 0.5, 104.0, 127.5, 88.0, 16.0, 24.0, 0.0, 0.0, 0.0, 1.747690948441484E9, 0.0, 2025-05-19 23:42:28.441
208.0, 22727.83490751206, 19012.036205772903, 48501.34086624871, 33844.27384665893, 44294.67550452656, 2394.1847555857607, 8243.502169072886, 7416.912307371177, 0.0, 0.0, 8009.68057032592, -25619.725956884144, 16593.04101384175, 5058.222121980443, -9382.167086859596, -31600.046944623824, 0.058, -0.01, 1.03, 192.0, 0.0, 0.0, 0.0, 0.0, 0.0, 0.0, 0.0, 0.0, 0.0, 1.747690948449507E9, 0.0, 2025-05-19 23:42:28.449
210.0, 22742.74352106375, 19029.850546103782, 48503.33017150524, 33836.80836401086, 44289.601658535204, 2401.337313811459, 8256.980270979437, 7430.211595322085, 0.0, 0.0, 8009.837032537107, -25616.775526616042, 16587.028394583274, 5038.172607204033, -9400.696683013044, -31615.335537831255, 0.058, -0.01, 1.03, 192.0, 0.0, 0.0, 0.0, 0.0, 0.0, 0.0, 0.0, 0.0, 0.0, 1.747690948457563E9, 0.0, 2025-05-19 23:42:28.457
212.0, 22737.669675072393, 19028.978828070027, 48507.42054074056, 33857.55078286538, 44301.53749007434, 2389.4461857612355, 8271.374794408655, 7433.206729079096, 0.0, 0.0, 8021.147015231492, -25599.743497341096, 16599.791240667255, 5058.065659769257, -9376.7132612125, -31597.521197500373, 0.058, -0.01, 1.03, 192.0, 0.0, 0.0, 0.0, 0.0, 0.0, 0.0, 0.0, 0.0, 0.0, 1.747690948464492E9, 0.0, 2025-05-19 23:42:28.464
214.0, 22727.45492785632, 19023.122671022735, 48497.40695922458, 33840.965788479545, 44284.66192301058, 2407.439340047758, 8235.477892813431, 7438.504092515003, 0.0, 0.0, 8011.53576511571, -25605.6443578773, 16602.09347034615, 5055.450505667985, -9390.414880563603, -31593.63199396515, 0.058, -0.01, 1.03, 192.0, 0.0, 0.0, 0.0, 0.0, 0.0, 0.0, 0.0, 0.0, 0.0, 1.747690948472585E9, 0.0, 2025-05-19 23:42:28.472
216.0, 22740.97773325178, 19036.80193862938, 48508.40401749659, 33844.96675073705, 44291.85918472519, 2372.4141564862916, 8276.78391656684, 7439.018182637476, 0.0, 0.0, 8008.540631358699, -25611.254645735582, 16585.6649381715, 5041.458313638963, -9393.365310831703, -31609.524084272874, 0.062, -0.01, 1.026, 192.0, 0.5, 120.0, 127.5, 88.0, 16.0, 8.0, 0.0, 0.0, 0.0, 1.747690948481626E9, 0.0, 2025-05-19 23:42:28.481
218.0, 22736.663846571904, 19029.269400747944, 48507.12996806264, 33851.448756629085, 44292.21681263648, 2400.622057988889, 8244.887977229117, 7422.075560340352, 0.0, 0.0, 8016.855480296073, -25604.459715421166, 16604.418051769502, 5060.949034803991, -9379.551932758324, -31594.302546298808, 0.062, -0.01, 1.026, 192.0, 0.0, 0.0, 0.0, 0.0, 0.0, 0.0, 0.0, 0.0, 0.0, 1.747690948488652E9, 0.0, 2025-05-19 23:42:28.488
220.0, 22744.46460538681, 19036.53371769592, 48505.74415990641, 33842.08337570231, 44287.165318389576, 2408.489872037157, 8262.322337904256, 7433.810226179389, 0.0, 0.0, 8012.3851314050125, -25605.420840432747, 16595.231484798373, 5039.469008382441, -9398.841488223254, -31613.50269478592, 0.062, -0.01, 1.026, 192.0, 0.0, 0.0, 0.0, 0.0, 0.0, 0.0, 0.0, 0.0, 0.0, 1.747690948496659E9, 0.0, 2025-05-19 23:42:28.496
222.0, 22741.98356175227, 19038.411264230166, 48504.17953779454, 33860.23299220002, 44287.634705023134, 2410.0321424045733, 8271.419497897567, 7426.680019698146, 0.0, 0.0, 8013.569773861143, -25599.341165940903, 16597.690176688455, 5052.656537611072, -9383.083508382262, -31600.78455219085, 0.062, -0.01, 1.026, 192.0, 0.0, 0.0, 0.0, 0.0, 0.0, 0.0, 0.0, 0.0, 0.0, 1.747690948505704E9, 0.0, 2025-05-19 23:42:28.505
224.0, 22741.447119885343, 19035.52788919543, 48503.33017150524, 33844.095032703284, 44290.026341679855, 2395.1235288528837, 8233.443884068, 7426.478853998048, 0.0, 0.0, 8015.626134351031, -25598.223578718138, 16608.53077274928, 5055.964595790458, -9391.353653830725, -31592.447351509018, 0.062, -0.01, 1.026, 192.0, 0.0, 0.0, 0.0, 0.0, 0.0, 0.0, 0.0, 0.0, 0.0, 1.747690948513745E9, 0.0, 2025-05-19 23:42:28.513
226.0, 22750.141948478456, 19047.083741078823, 48509.700418675, 33847.69366356059, 44299.43642609554, 2377.0633193329954, 8267.843218784717, 7426.836481909333, 0.0, 0.0, 8014.419140150445, -25602.135133997817, 16594.248008042337, 5036.406819392064, -9396.315741099805, -31615.35788957571, 0.06, -0.012, 1.026, 192.0, 0.5, 112.0, 127.5, 80.0, 16.0, 8.0, 0.0, 0.0, 0.0, 1.747690948520726E9, 0.0, 2025-05-19 23:42:28.520
228.0, 22741.0671402296, 19038.970057841547, 48501.38556973763, 33852.11930896274, 44295.256649882394, 2407.439340047758, 8238.741247503907, 7417.024066093453, 0.0, 0.0, 8019.940021030906, -25595.139037983303, 16611.01181638382, 5052.969462033447, -9387.643264251145, -31598.30350855631, 0.06, -0.012, 1.026, 192.0, 0.0, 0.0, 0.0, 0.0, 0.0, 0.0, 0.0, 0.0, 0.0, 1.747690948528793E9, 0.0, 2025-05-19 23:42:28.528
230.0, 22743.25761118622, 19039.551203197385, 48499.08334005873, 33841.03284371291, 44292.61914403667, 2383.1876973137496, 8244.753866762385, 7436.358325047294, 0.0, 0.0, 8008.630038336521, -25601.755154342074, 16595.52205747629, 5029.366019888642, -9410.48674708447, -31617.078973898766, 0.06, -0.012, 1.026, 192.0, 0.0, 0.0, 0.0, 0.0, 0.0, 0.0, 0.0, 0.0, 0.0, 1.747690948537808E9, 0.0, 2025-05-19 23:42:28.537
232.0, 22747.30327693263, 19048.71541842406, 48503.77720639434, 33860.747082322494, 44298.564708061785, 2405.7182557246992, 8257.96374773547, 7426.456502253593, 0.0, 0.0, 8014.955582017373, -25592.63564260431, 16599.366557522604, 5047.135656730611, -9389.476107296481, -31602.170360347078, 0.06, -0.012, 1.026, 192.0, 0.0, 0.0, 0.0, 0.0, 0.0, 0.0, 0.0, 0.0, 0.0, 1.747690948544856E9, 0.0, 2025-05-19 23:42:28.544
234.0, 22742.676465830384, 19042.076950320836, 48495.37295047915, 33844.18443968111, 44281.57738227575, 2408.042837148051, 8226.000753164382, 7422.433188251637, 0.0, 0.0, 8011.200488948881, -25596.860122306363, 16606.988502381864, 5044.453447395975, -9405.569363304301, -31602.527988258364, 0.06, -0.012, 1.026, 192.0, 0.0, 0.0, 0.0, 0.0, 0.0, 0.0, 0.0, 0.0, 0.0, 1.747690948552872E9, 0.0, 2025-05-19 23:42:28.552
236.0, 22756.154567736932, 19053.565746970864, 48512.829662898745, 33858.75777706597, 44303.95147847551, 2419.5763372869897, 8260.86947451466, 7431.239775567028, 0.0, 0.0, 8019.761207075264, -25591.11572398135, 16602.76402267981, 5042.799418306282, -9398.528563800879, -31608.63001449466, 0.056, -0.01, 1.03, 192.0, 0.5, 96.0, 127.5, 88.0, 16.0, 24.0, 0.0, 0.0, 0.0, 1.747690948560912E9, 0.0, 2025-05-19 23:42:28.560
238.0, 22748.10793973302, 19046.72611316754, 48510.50508147539, 33862.22229745654, 44291.61331553618, 2417.542328541557, 8242.742209761407, 7419.5945167058135, 0.0, 0.0, 8026.757303089775, -25588.746439069088, 16620.399549055048, 5066.179343006533, -9384.46931653849, -31587.99935436241, 0.056, -0.01, 1.03, 192.0, 0.0, 0.0, 0.0, 0.0, 0.0, 0.0, 0.0, 0.0, 0.0, 1.747690948569943E9, 0.0, 2025-05-19 23:42:28.569
240.0, 22749.471396144796, 19045.72028466705, 48511.8014826538, 33846.28550365991, 44287.83587072323, 2391.2790288065708, 8239.210634137467, 7423.774292918956, 0.0, 0.0, 8020.9011460424845, -25591.40629665927, 16608.46371751591, 5046.085124741212, -9401.836621980265, -31607.02068889388, 0.056, -0.01, 1.03, 192.0, 0.0, 0.0, 0.0, 0.0, 0.0, 0.0, 0.0, 0.0, 0.0, 1.747690948576981E9, 0.0, 2025-05-19 23:42:28.576
242.0, 22751.01366651221, 19046.703761423083, 48511.13093032014, 33857.93076252112, 44298.45294933951, 2429.075828680495, 8267.217369939968, 7429.295173799417, 0.0, 0.0, 8021.862271054062, -25594.200264716183, 16605.75915643682, 5054.489380656407, -9386.19040086155, -31601.812732435792, 0.056, -0.01, 1.03, 192.0, 0.0, 0.0, 0.0, 0.0, 0.0, 0.0, 0.0, 0.0, 0.0, 1.747690948584995E9, 0.0, 2025-05-19 23:42:28.584
244.0, 22743.570535608596, 19035.639647917706, 48504.51481396137, 33844.22914317002, 44290.361617846684, 2385.1322990813615, 8237.95893644797, 7430.949202889109, 0.0, 0.0, 8015.715541328853, -25602.582168886922, 16609.067214616207, 5053.841180067204, -9395.935761444063, -31598.594081234227, 0.056, -0.01, 1.03, 192.0, 0.0, 0.0, 0.0, 0.0, 0.0, 0.0, 0.0, 0.0, 0.0, 1.747690948594073E9, 0.0, 2025-05-19 23:42:28.594
246.0, 22753.49471014675, 19045.317953266855, 48513.522566976855, 33853.259247929964, 44305.65021105411, 2379.857287389909, 8281.477782902453, 7445.209615851595, 0.0, 0.0, 8017.973067518839, -25599.02824151853, 16597.980749366376, 5046.018069507846, -9392.560648031313, -31606.707764471506, 0.054, -0.006, 1.032, 192.0, 0.5, 88.0, 127.5, 104.0, 16.0, 32.0, 0.0, 0.0, 0.0, 1.747690948601031E9, 0.0, 2025-05-19 23:42:28.601
248.0, 22752.622992112996, 19048.424845746144, 48513.92489837705, 33861.305875933875, 44307.013667465886, 2422.8620437219197, 8255.885035501127, 7441.7227437165675, 0.0, 0.0, 8028.076056012637, -25591.40629665927, 16617.985560653873, 5073.868343099159, -9372.980519888464, -31579.528043213853, 0.054, -0.006, 1.032, 192.0, 0.0, 0.0, 0.0, 0.0, 0.0, 0.0, 0.0, 0.0, 0.0, 1.747690948610122E9, 0.0, 2025-05-19 23:42:28.610
250.0, 22750.186651967368, 19047.843700390305, 48505.43123548404, 33841.166954179644, 44297.87180398367, 2397.1575375983166, 8256.399125623599, 7448.4729705420705, 0.0, 0.0, 8013.458015138867, -25602.40335493128, 16596.95256912143, 5046.576863119229, -9397.679197511578, -31602.863264425192, 0.054, -0.006, 1.032, 192.0, 0.0, 0.0, 0.0, 0.0, 0.0, 0.0, 0.0, 0.0, 0.0, 1.747690948618168E9, 0.0, 2025-05-19 23:42:28.618
252.0, 22744.576364109085, 19037.80776712987, 48498.569249936256, 33849.70532056157, 44309.1594349336, 2411.8426337054534, 8266.680928073041, 7436.447732025115, 0.0, 0.0, 8016.63196285152, -25601.598692130887, 16595.09737433164, 5055.830485323726, -9383.374081060181, -31596.090685855233, 0.054, -0.006, 1.032, 192.0, 0.0, 0.0, 0.0, 0.0, 0.0, 0.0, 0.0, 0.0, 0.0, 1.747690948626163E9, 0.0, 2025-05-19 23:42:28.626
254.0, 22740.463643129307, 19028.062406547357, 48490.097938787694, 33831.0863174303, 44288.26055386788, 2418.7269709976877, 8233.846215468195, 7424.623659208258, 0.0, 0.0, 8004.852593523574, -25615.16620101526, 16594.76209816481, 5046.196883463488, -9404.42942433708, -31602.729153958462, 0.054, -0.006, 1.032, 192.0, 0.0, 0.0, 0.0, 0.0, 0.0, 0.0, 0.0, 0.0, 0.0, 1.747690948633199E9, 0.0, 2025-05-19 23:42:28.633
0.0, 22743.078797230577, 19032.10807229377, 48494.38947372312, 33838.19417216709, 44290.04869342431, 2394.363569541403, 8264.82573328325, 7435.576013991358, 0.0, 0.0, 8004.293799912191, -25615.50147718209, 16581.440458469446, 5032.003525734369, -9407.29044762736, -31618.665947755093, 0.06, -0.01, 1.034, 192.0, 0.5, 112.0, 127.5, 88.0, 16.0, 40.0, 0.0, 0.0, 0.0, 1.747690948641174E9, 0.0, 2025-05-19 23:42:28.641
2.0, 22739.904849517927, 19029.649380403684, 48496.22231676845, 33853.23689618551, 44292.99912369241, 2412.759055228121, 8248.44190459751, 7432.491473256526, 0.0, 0.0, 8006.484270868811, -25605.085564265915, 16599.411261011515, 5053.6847178560165, -9395.488726554959, -31595.375430032665, 0.06, -0.01, 1.034, 192.0, 0.0, 0.0, 0.0, 0.0, 0.0, 0.0, 0.0, 0.0, 0.0, 1.747690948649249E9, 0.0, 2025-05-19 23:42:28.649
4.0, 22738.3178756616, 19028.978828070027, 48494.68004640103, 33834.684948287606, 44283.164356132074, 2382.405386257814, 8251.660555799073, 7431.105665100296, 0.0, 0.0, 8001.67864581092, -25607.186628244715, 16591.23052254087, 5037.211482192455, -9409.43621509507, -31610.976947662468, 0.06, -0.01, 1.034, 192.0, 0.0, 0.0, 0.0, 0.0, 0.0, 0.0, 0.0, 0.0, 0.0, 1.747690948657288E9, 0.0, 2025-05-19 23:42:28.657
6.0, 22741.827099541082, 19036.846642118293, 48505.74415990641, 33853.482765374516, 44297.96121096149, 2392.195450329238, 8267.418535640065, 7429.6304499662465, 0.0, 0.0, 8011.401654648978, -25599.609386874366, 16598.04780459974, 5049.9296247875245, -9390.213714863505, -31603.802037692316, 0.06, -0.01, 1.034, 192.0, 0.0, 0.0, 0.0, 0.0, 0.0, 0.0, 0.0, 0.0, 0.0, 1.747690948665356E9, 0.0, 2025-05-19 23:42:28.665
8.0, 22743.861108286514, 19038.25480201898, 48501.564383693265, 33840.42934661262, 44285.51128929988, 2396.978723642674, 8234.852043968684, 7430.144540088719, 0.0, 0.0, 8011.468709882344, -25605.06321252146, 16606.362653537115, 5049.907273043069, -9399.355578345727, -31601.455104524506, 0.06, -0.01, 1.034, 192.0, 0.0, 0.0, 0.0, 0.0, 0.0, 0.0, 0.0, 0.0, 0.0, 1.747690948673334E9, 0.0, 2025-05-19 23:42:28.673
10.0, 22747.75031182174, 19045.80969164487, 48505.29712501731, 33847.15722169366, 44295.03313243784, 2382.5618484690012, 8263.998718738403, 7433.497301757015, 0.0, 0.0, 8015.0896924841045, -25600.838732819408, 16598.539542977756, 5039.111380471156, -9397.410976578114, -31613.30152908582, 0.06, -0.004, 1.036, 192.0, 0.5, 112.0, 127.5, 112.0, 16.0, 48.0, 0.0, 0.0, 0.0, 1.747690948681377E9, 0.0, 2025-05-19 23:42:28.681
12.0, 22732.796994781136, 19029.403511214678, 48498.03280806933, 33851.64992232918, 44295.52487081586, 2411.4850057941685, 8240.417628338055, 7420.242717295017, 0.0, 0.0, 8011.8039860491745, -25598.87177930734, 16607.81551692671, 5057.708031857972, -9389.297293340838, -31594.59311897673, 0.06, -0.004, 1.036, 192.0, 0.0, 0.0, 0.0, 0.0, 0.0, 0.0, 0.0, 0.0, 0.0, 1.747690948688404E9, 0.0, 2025-05-19 23:42:28.688
14.0, 22735.434500626863, 19028.420034458642, 48499.262154014374, 33835.89194248819, 44290.11574865768, 2403.527784768079, 8246.609061552175, 7431.0386098669305, 0.0, 0.0, 7998.0129597202495, -25610.628796890833, 16589.174162050982, 5030.1483309445775, -9416.588773320767, -31619.358851833207, 0.06, -0.004, 1.036, 192.0, 0.0, 0.0, 0.0, 0.0, 0.0, 0.0, 0.0, 0.0, 0.0, 1.747690948697451E9, 0.0, 2025-05-19 23:42:28.697
16.0, 22753.137082235466, 19047.91075562367, 48510.25921228638, 33854.46624213055, 44309.00297272241, 2404.0418748905513, 8262.411744882076, 7426.009467364486, 0.0, 0.0, 8020.878794298029, -25597.485971151113, 16606.04972911474, 5051.404839921575, -9386.257456094916, -31603.64557548113, 0.06, -0.004, 1.036, 192.0, 0.0, 0.0, 0.0, 0.0, 0.0, 0.0, 0.0, 0.0, 0.0, 1.747690948706493E9, 0.0, 2025-05-19 23:42:28.706
18.0, 22741.55887860762, 19036.01962757345, 48503.71015116098, 33838.50709658946, 44291.0545219248, 2422.6832297662772, 8228.526500287831, 7423.193147563118, 0.0, 0.0, 8018.598916363588, -25602.91744505375, 16612.777604195788, 5045.0569444962675, -9400.674331268589, -31605.612528993195, 0.06, -0.004, 1.036, 192.0, 0.0, 0.0, 0.0, 0.0, 0.0, 0.0, 0.0, 0.0, 0.0, 1.747690948713489E9, 0.0, 2025-05-19 23:42:28.713
20.0, 22744.956343764825, 19041.58521194282, 48513.27669778785, 33851.69462581809, 44295.21194639349, 2381.42190950178, 8268.558474607287, 7433.542005245925, 0.0, 0.0, 8016.073169240138, -25600.816381074954, 16600.350034278636, 5038.239662437399, -9398.796784734343, -31612.899197685627, 0.06, -0.008, 1.038, 192.0, 0.5, 112.0, 127.5, 96.0, 16.0, 56.0, 0.0, 0.0, 0.0, 1.747690948720536E9, 0.0, 2025-05-19 23:42:28.720
22.0, 22737.557916350117, 19032.86803160525, 48509.83452914173, 33856.32143692034, 44297.20125165001, 2408.6239825038892, 8244.128017917636, 7423.729589430045, 0.0, 0.0, 8022.801044321185, -25591.40629665927, 16617.225601342394, 5063.385374949619, -9383.6646537381, -31590.748618930415, 0.06, -0.008, 1.038, 192.0, 0.0, 0.0, 0.0, 0.0, 0.0, 0.0, 0.0, 0.0, 0.0, 1.747690948729582E9, 0.0, 2025-05-19 23:42:28.729
24.0, 22736.619143082997, 19033.560935683363, 48511.287392531325, 33845.12321294823, 44292.417978336576, 2381.2654472905933, 8253.091067444215, 7437.766484947978, 0.0, 0.0, 8009.188831947903, -25604.3926601878, 16599.81359241171, 5044.565206118251, -9400.920200457598, -31607.3112615718, 0.06, -0.008, 1.038, 192.0, 0.0, 0.0, 0.0, 0.0, 0.0, 0.0, 0.0, 0.0, 0.0, 1.747690948737571E9, 0.0, 2025-05-19 23:42:28.737
26.0, 22742.005913496723, 19043.44040673261, 48516.36123852268, 33863.675160846135, 44297.715341772484, 2404.265392335104, 8270.570131608263, 7438.347630303816, 0.0, 0.0, 8021.571698376143, -25591.20513095917, 16611.10122336164, 5067.118116273656, -9376.243874578939, -31590.167473574576, 0.06, -0.008, 1.038, 192.0, 0.0, 0.0, 0.0, 0.0, 0.0, 0.0, 0.0, 0.0, 0.0, 1.747690948744632E9, 0.0, 2025-05-19 23:42:28.744
28.0, 22756.065160759113, 19056.53852898342, 48512.829662898745, 33851.91814326264, 44289.75812074639, 2409.719217982199, 8237.15427364758, 7434.301964557406, 0.0, 0.0, 8022.823396065641, -25593.12738098233, 16620.8242321997, 5065.24056973941, -9389.498459040935, -31590.659211952596, 0.06, -0.008, 1.038, 192.0, 0.0, 0.0, 0.0, 0.0, 0.0, 0.0, 0.0, 0.0, 0.0, 1.747690948752661E9, 0.0, 2025-05-19 23:42:28.752
30.0, 22766.391666697466, 19061.992354630514, 48518.216433312475, 33861.574096867334, 44295.92720221606, 2398.0963108654396, 8275.3534049217, 7438.548796003914, 0.0, 0.0, 8025.326791444635, -25588.500569880078, 16611.302389061737, 5052.298909699787, -9390.683101497067, -31603.533816758852, 0.054, -0.008, 1.04, 192.0, 0.5, 88.0, 127.5, 96.0, 16.0, 64.0, 0.0, 0.0, 0.0, 1.747690948761698E9, 0.0, 2025-05-19 23:42:28.761
32.0, 22746.49861413224, 19035.99727582899, 48511.26504078687, 33862.60227711228, 44294.921373715566, 2411.328543582981, 8247.81605575276, 7430.770388933467, 0.0, 0.0, 8027.785483334718, -25583.91846226674, 16625.652209002044, 5073.95775007698, -9377.42851703507, -31580.220947291968, 0.054, -0.008, 1.04, 192.0, 0.0, 0.0, 0.0, 0.0, 0.0, 0.0, 0.0, 0.0, 0.0, 1.747690948768763E9, 0.0, 2025-05-19 23:42:28.768
34.0, 22743.615239097508, 19030.342284481798, 48507.06291282927, 33841.90456174667, 44290.24985912441, 2383.7688426695877, 8254.007488966881, 7438.101761114808, 0.0, 0.0, 8012.027503493728, -25598.894131051795, 16604.887438403064, 5046.196883463488, -9399.936723701563, -31606.48424702695, 0.054, -0.008, 1.04, 192.0, 0.0, 0.0, 0.0, 0.0, 0.0, 0.0, 0.0, 0.0, 0.0, 1.747690948776697E9, 0.0, 2025-05-19 23:42:28.776
36.0, 22745.671599587393, 19031.10224379328, 48510.9521163645, 33859.45068114408, 44307.52775758836, 2400.5773544999784, 8276.225122955457, 7435.754827947, 0.0, 0.0, 8018.598916363588, -25597.754192084576, 16606.22854307038, 5054.578787634228, -9382.85999093771, -31602.237415580443, 0.054, -0.008, 1.04, 192.0, 0.0, 0.0, 0.0, 0.0, 0.0, 0.0, 0.0, 0.0, 0.0, 1.747690948784795E9, 0.0, 2025-05-19 23:42:28.784
38.0, 22737.20028843883, 19022.742691366995, 48502.41374998257, 33838.84237275629, 44287.299428856306, 2417.542328541557, 8237.757770747874, 7430.5692232333695, 0.0, 0.0, 8017.2578116962695, -25601.531636897522, 16612.531735006778, 5057.395107435597, -9393.43236606507, -31596.82829342226, 0.054, -0.008, 1.04, 192.0, 0.0, 0.0, 0.0, 0.0, 0.0, 0.0, 0.0, 0.0, 0.0, 1.747690948794804E9, 0.0, 2025-05-19 23:42:28.794
40.0, 22747.996181010745, 19030.275229248433, 48509.946287864004, 33845.27967515942, 44309.98644947844, 2372.4141564862916, 8271.531256619843, 7432.402066278704, 0.0, 0.0, 8011.580468604621, -25609.287692223515, 16592.43751674146, 5040.430133394019, -9397.008645177919, -31616.006090164912, 0.056, -0.006, 1.04, 192.0, 0.5, 96.0, 127.5, 104.0, 16.0, 64.0, 0.0, 0.0, 0.0, 1.747690948801825E9, 0.0, 2025-05-19 23:42:28.801
42.0, 22748.77849206668, 19031.124595537734, 48511.8014826538, 33853.88509677471, 44307.17012967708, 2418.3469913419476, 8246.743172018907, 7426.054170853397, 0.0, 0.0, 8020.1411867310035, -25600.324642696934, 16613.33639780717, 5060.993738292902, -9382.18943860405, -31595.129560843656, 0.056, -0.006, 1.04, 192.0, 0.0, 0.0, 0.0, 0.0, 0.0, 0.0, 0.0, 0.0, 0.0, 1.747690948808847E9, 0.0, 2025-05-19 23:42:28.808
44.0, 22760.848434072548, 19040.847604375795, 48519.37872402414, 33844.02797746992, 44304.845548253725, 2380.147860067828, 8240.909366716072, 7436.783008191945, 0.0, 0.0, 8022.532823387722, -25600.659918863767, 16609.223676827394, 5042.821770050737, -9399.154412645628, -31611.3122238293, 0.056, -0.006, 1.04, 192.0, 0.0, 0.0, 0.0, 0.0, 0.0, 0.0, 0.0, 0.0, 0.0, 1.747690948817875E9, 0.0, 2025-05-19 23:42:28.817
46.0, 22764.089437018567, 19043.306296265877, 48521.39038102512, 33858.10957647677, 44314.23328092495, 2397.38105504287, 8258.120209946657, 7419.70627542809, 0.0, 0.0, 8033.775750848741, -25592.479180393122, 16616.6221042421, 5056.746906846393, -9381.563589759302, -31601.924491158068, 0.056, -0.006, 1.04, 192.0, 0.0, 0.0, 0.0, 0.0, 0.0, 0.0, 0.0, 0.0, 0.0, 1.747690948824905E9, 0.0, 2025-05-19 23:42:28.824
