%OpenBCI Raw EXG Data
%Number of channels = 16
%Sample Rate = 125 Hz
%Board = OpenBCI_GUI$BoardCytonSerialDaisy
Sample Index, EXG Channel 0, EXG Channel 1, EXG Channel 2, EXG Channel 3, EXG Channel 4, EXG Channel 5, EXG Channel 6, EXG Channel 7, EXG Channel 8, EXG Channel 9, EXG Channel 10, EXG Channel 11, EXG Channel 12, EXG Channel 13, EXG Channel 14, EXG Channel 15, Accel Channel 0, Accel Channel 1, Accel Channel 2, Not Used, Digital Channel 0 (D11), Digital Channel 1 (D12), Digital Channel 2 (D13), Digital Channel 3 (D17), Not Used, Digital Channel 4 (D18), Analog Channel 0, Analog Channel 1, Analog Channel 2, Timestamp, Marker Channel, Timestamp (Formatted)
0.0, 20499.030709151117, 16815.373815938692, 47342.64878543005, 28728.87596236181, 32988.78317937651, -1212.135101811302, 9518.378617570235, -106.70722802963591, 0.0, 0.0, 0.0, 0.0, 0.0, 0.0, 0.0, 0.0, 0.0, 0.0, 0.0, 192.0, 0.0, 0.0, 0.0, 0.0, 0.0, 0.0, 0.0, 0.0, 0.0, 1.747687452889851E9, 0.0, 2025-05-19 22:44:12.889
92.0, 20499.00835740666, 16807.48365014597, 47343.14052380807, 28717.34246222287, 32996.941566102694, -1214.9514216126706, 9447.948270791563, -102.5498035609488, 0.0, 0.0, 18601.278197917723, -8336.083094606769, 6178.670368036076, -3558.3977172848845, -27703.44498198569, -32992.605327678364, 0.0, 0.0, 0.0, 192.0, 0.0, 0.0, 0.0, 0.0, 0.0, 0.0, 0.0, 0.0, 0.0, 1.74768745289027E9, 0.0, 2025-05-19 22:44:12.890
0.0, 10404.20060207851, 8425.221851494534, 23739.31839934807, 14470.765229554801, 16668.791075800786, -382.594809841491, 4669.860562069483, -31.6500701487148, 0.0, 0.0, 9301.343178909205, -4169.092079292784, 3081.4114906086315, -1793.526326838294, -13853.79002735496, -16515.323998370648, 0.031, -0.003, 0.517, 192.0, 0.5, 120.0, 127.5, 104.0, 16.0, 40.0, 0.0, 0.0, 0.0, 1.747687452972641E9, 0.0, 2025-05-19 22:44:12.972
2.0, 20815.866686805093, 16860.211415316036, 47482.6601126981, 28950.739377825186, 33353.16131748692, -768.2965121622697, 9385.47514503898, -79.59456200534845, 0.0, 0.0, 18400.537180964613, -8771.0703934515, 6303.638971285698, -3233.4480563936304, -27317.296244775804, -33071.52933735005, 0.031, -0.003, 0.517, 192.0, 0.0, 0.0, 0.0, 0.0, 0.0, 0.0, 0.0, 0.0, 0.0, 1.747687452979478E9, 0.0, 2025-05-19 22:44:12.979
4.0, 20803.416765143487, 16844.85576687524, 47470.50076371441, 28938.848249774965, 33347.618084862006, -772.5209918643227, 9324.812510587277, -85.20484986363053, 0.0, 0.0, 18394.479858217222, -8775.473687109195, 6312.624372556731, -3221.3557626433094, -27320.291378532813, -33053.714997019175, 0.031, -0.003, 0.517, 192.0, 0.0, 0.0, 0.0, 0.0, 0.0, 0.0, 0.0, 0.0, 0.0, 1.74768745298653E9, 0.0, 2025-05-19 22:44:12.986
6.0, 20813.340939681642, 16852.924746623605, 47474.948760861014, 28943.318598666025, 33341.381948158974, -792.6375618740991, 9372.175857088072, -70.49740201203848, 0.0, 0.0, 18388.087259303007, -8781.016919734111, 6293.379520580712, -3257.967920061102, -27344.31950382227, -33091.35533468191, 0.031, -0.003, 0.517, 192.0, 0.0, 0.0, 0.0, 0.0, 0.0, 0.0, 0.0, 0.0, 0.0, 1.747687452994581E9, 0.0, 2025-05-19 22:44:12.994
8.0, 20806.031919244757, 16848.72261866601, 47470.92544685906, 28940.97166549822, 33351.037901763666, -764.2284946714037, 9371.929987899064, -88.08822489836514, 0.0, 0.0, 18396.40210824038, -8770.82452426249, 6309.226907399525, -3219.3441056423317, -27311.50714296188, -33057.11246217638, 0.062, -0.006, 1.032, 192.0, 0.5, 120.0, 127.5, 104.0, 16.0, 32.0, 0.0, 0.0, 0.0, 1.747687453002574E9, 0.0, 2025-05-19 22:44:13.002
10.0, 20809.63055010206, 16849.795502399862, 47468.84673462471, 28934.646121817368, 33330.92133175389, -765.0331574717949, 9329.819301345266, -79.68396898316968, 0.0, 0.0, 18380.73353537721, -8784.727309313692, 6299.995636939483, -3252.558797902918, -27349.102777135704, -33082.392285155336, 0.062, -0.006, 1.032, 192.0, 0.0, 0.0, 0.0, 0.0, 0.0, 0.0, 0.0, 0.0, 0.0, 1.747687453011627E9, 0.0, 2025-05-19 22:44:13.011
12.0, 20820.672311862985, 16860.077304849303, 47482.59305746473, 28947.565430112536, 33355.88823031047, -773.3033029202585, 9378.724918213478, -84.24372485205232, 0.0, 0.0, 18400.40307049788, -8769.416364361807, 6307.125843420726, -3238.231329707066, -27318.726756420943, -33080.917070021285, 0.062, -0.006, 1.032, 192.0, 0.0, 0.0, 0.0, 0.0, 0.0, 0.0, 0.0, 0.0, 0.0, 1.747687453018625E9, 0.0, 2025-05-19 22:44:13.018
14.0, 20810.323454180176, 16851.494234978465, 47474.38996724963, 28937.194220685273, 33347.88630579547, -761.0768987032055, 9329.238155989427, -83.97550391858863, 0.0, 0.0, 18397.11736406295, -8777.105364454432, 6314.077235946326, -3221.914556254692, -27317.78798315382, -33058.90060173281, 0.062, -0.006, 1.032, 192.0, 0.0, 0.0, 0.0, 0.0, 0.0, 0.0, 0.0, 0.0, 0.0, 1.747687453026692E9, 0.0, 2025-05-19 22:44:13.026
16.0, 20816.939570538947, 16866.87223516372, 47480.3578830192, 28946.179621956304, 33334.49761086674, -777.4383756444903, 9373.136982099652, -66.85406766582342, 0.0, 0.0, 18391.708241904766, -8776.59127433196, 6299.950933450572, -3258.347899716842, -27344.207745099993, -33093.29993644952, 0.062, -0.006, 1.032, 192.0, 0.0, 0.0, 0.0, 0.0, 0.0, 0.0, 0.0, 0.0, 0.0, 1.747687453034709E9, 0.0, 2025-05-19 22:44:13.034
18.0, 20810.278750691265, 16852.85769139024, 47478.033301595846, 28945.576124856012, 33354.234201220774, -762.9544452374513, 9370.253607064917, -83.61787600730372, 0.0, 0.0, 18403.398204254892, -8764.476628837185, 6316.893555747695, -3215.2313846625552, -27308.80258188279, -33053.31266561898, 0.062, -0.004, 1.03, 192.0, 0.5, 120.0, 127.5, 112.0, 16.0, 24.0, 0.0, 0.0, 0.0, 1.747687453042785E9, 0.0, 2025-05-19 22:44:13.042
20.0, 20806.948340767427, 16848.76732215492, 47477.58626670674, 28938.445918374768, 33337.42568939039, -769.4588028739456, 9322.487929163924, -71.81615493490159, 0.0, 0.0, 18385.136829034906, -8784.16851570231, 6299.660360772653, -3245.8085710774153, -27343.000750899406, -33077.005514741606, 0.062, -0.004, 1.03, 192.0, 0.0, 0.0, 0.0, 0.0, 0.0, 0.0, 0.0, 0.0, 0.0, 1.747687453050771E9, 0.0, 2025-05-19 22:44:13.050
22.0, 20822.77337584178, 16862.021906616916, 47494.037150625845, 28958.718950595732, 33360.827965835095, -761.3004161477586, 9393.611180020713, -70.54210550094909, 0.0, 0.0, 18402.25826528767, -8765.661271293315, 6308.601058554776, -3227.770713301982, -27315.061070330274, -33066.52254659207, 0.062, -0.004, 1.03, 192.0, 0.0, 0.0, 0.0, 0.0, 0.0, 0.0, 0.0, 0.0, 0.0, 1.747687453058781E9, 0.0, 2025-05-19 22:44:13.058
24.0, 20806.568361111684, 16845.369856997713, 47484.13532783215, 28942.804508543555, 33348.35569242903, -756.8524190011525, 9324.343123953715, -88.98229467657741, 0.0, 0.0, 18409.433175257825, -8768.276425394586, 6324.291983162401, -3207.229460147555, -27306.12037254815, -33041.71211024668, 0.062, -0.004, 1.03, 192.0, 0.0, 0.0, 0.0, 0.0, 0.0, 0.0, 0.0, 0.0, 0.0, 1.747687453068819E9, 0.0, 2025-05-19 22:44:13.068
26.0, 20817.341901939144, 16861.641926961176, 47484.939990632534, 28950.605267358456, 33334.56466610011, -774.3314831652026, 9364.531560484358, -67.4128612772061, 0.0, 0.0, 18400.939512364806, -8776.278349909586, 6304.421282341634, -3252.6482048807393, -27339.98326539794, -33087.26496544659, 0.062, -0.004, 1.03, 192.0, 0.0, 0.0, 0.0, 0.0, 0.0, 0.0, 0.0, 0.0, 0.0, 1.747687453075869E9, 0.0, 2025-05-19 22:44:13.075
28.0, 20822.63926537505, 16863.698287451065, 47489.991484879436, 28955.299133694072, 33357.87753556699, -755.8465905006636, 9372.734650699455, -82.56734401790429, 0.0, 0.0, 18412.11538459246, -8756.944090955745, 6324.940183751605, -3206.782425258449, -27303.661680658064, -33046.83065972694, 0.068, -0.008, 1.03, 192.0, 1.0, 16.0, 127.5, 96.0, 16.0, 24.0, 0.0, 0.0, 0.0, 1.747687453082888E9, 0.0, 2025-05-19 22:44:13.082
30.0, 20815.55376238272, 16857.57390947031, 47482.16837432008, 28944.01150274414, 33336.2186951898, -772.6998058199651, 9333.015600802375, -69.9609601451111, 0.0, 0.0, 18396.469163473746, -8775.607797575927, 6311.707951034064, -3238.0525157514235, -27336.541096751822, -33070.67997106075, 0.068, -0.008, 1.03, 192.0, 0.0, 0.0, 0.0, 0.0, 0.0, 0.0, 0.0, 0.0, 0.0, 1.747687453090851E9, 0.0, 2025-05-19 22:44:13.090
32.0, 20824.717977609394, 16865.553482240855, 47495.087682615245, 28960.663552363345, 33357.74342510026, -780.8581925461523, 9395.511078299412, -61.154372829720124, 0.0, 0.0, 18404.269922288648, -8762.621434047394, 6311.238564400503, -3222.4509981216193, -27308.17673303804, -33062.387473867835, 0.068, -0.008, 1.03, 192.0, 0.0, 0.0, 0.0, 0.0, 0.0, 0.0, 0.0, 0.0, 0.0, 1.747687453098924E9, 0.0, 2025-05-19 22:44:13.098
34.0, 20809.898771035525, 16851.71775242302, 47485.431729010554, 28950.515860380634, 33342.5218871262, -766.86600051713, 9349.332374254749, -64.70830019811395, 0.0, 0.0, 18398.77139315264, -8769.706937039726, 6318.882861004217, -3204.4578438350973, -27305.606282425677, -33038.8510869564, 0.068, -0.008, 1.03, 192.0, 0.0, 0.0, 0.0, 0.0, 0.0, 0.0, 0.0, 0.0, 0.0, 1.747687453106946E9, 0.0, 2025-05-19 22:44:13.106
36.0, 20818.615951373096, 16864.77117118492, 47491.1090721022, 28958.383674428904, 33342.49953538174, -778.444204144979, 9374.254569322417, -50.17966630216436, 0.0, 0.0, 18398.033785585616, -8769.125791683888, 6307.282305631913, -3235.236195950055, -27325.83461115773, -33069.76354953808, 0.068, -0.008, 1.03, 192.0, 0.0, 0.0, 0.0, 0.0, 0.0, 0.0, 0.0, 0.0, 0.0, 1.747687453114984E9, 0.0, 2025-05-19 22:44:13.114
38.0, 20816.671349605484, 16862.603051972754, 47487.84571741173, 28961.11058725245, 33357.050521022145, -749.2304741418927, 9371.192380332039, -70.87738166777869, 0.0, 0.0, 18406.21452405626, -8756.653518277826, 6321.609773827765, -3195.4724425640634, -27293.06695378625, -33036.034767155026, 0.062, -0.01, 1.032, 192.0, 0.5, 120.0, 127.5, 88.0, 16.0, 32.0, 0.0, 0.0, 0.0, 1.747687453123002E9, 0.0, 2025-05-19 22:44:13.123
40.0, 20813.3632914261, 16854.10938907974, 47482.54835397582, 28949.912363280342, 33333.80470678863, -771.4704598749232, 9339.139978783129, -62.04844260793241, 0.0, 0.0, 18391.708241904766, -8773.283216152575, 6310.679770789119, -3226.071980723379, -27328.91915189256, -33058.56532556598, 0.062, -0.01, 1.032, 192.0, 0.0, 0.0, 0.0, 0.0, 0.0, 0.0, 0.0, 0.0, 0.0, 1.74768745313E9, 0.0, 2025-05-19 22:44:13.130
42.0, 20820.962884540902, 16861.016078116427, 47487.44338601153, 28958.897764551377, 33347.99806451775, -775.1361459655936, 9395.019339921397, -72.35259680182897, 0.0, 0.0, 18401.543009465102, -8764.297814881542, 6311.506785333966, -3218.919422497681, -27313.11646856266, -33060.979313967146, 0.062, -0.01, 1.032, 192.0, 0.0, 0.0, 0.0, 0.0, 0.0, 0.0, 0.0, 0.0, 0.0, 1.747687453139089E9, 0.0, 2025-05-19 22:44:13.139
44.0, 20809.69760533543, 16852.410656501135, 47476.714548672986, 28948.77242431312, 33340.621988847495, -761.8815615035966, 9335.004906058897, -71.57028574589322, 0.0, 0.0, 18397.98908209671, -8770.802172518037, 6319.106378448771, -3202.937925212136, -27311.127163306137, -33039.56634277896, 0.062, -0.01, 1.032, 192.0, 0.0, 0.0, 0.0, 0.0, 0.0, 0.0, 0.0, 0.0, 0.0, 1.747687453147107E9, 0.0, 2025-05-19 22:44:13.147
46.0, 20818.12421299508, 16860.971374627516, 47484.53765923234, 28955.58970637199, 33339.280884180174, -770.5987418411663, 9371.795877432332, -53.375965759273264, 0.0, 0.0, 18390.657709915366, -8773.238512663665, 6303.258991629958, -3241.78525707546, -27337.524573507857, -33075.97733449666, 0.062, -0.01, 1.032, 192.0, 0.0, 0.0, 0.0, 0.0, 0.0, 0.0, 0.0, 0.0, 0.0, 1.747687453154145E9, 0.0, 2025-05-19 22:44:13.154
48.0, 20810.748137324827, 16855.629307702697, 47480.335531274744, 28953.645104604377, 33356.60348613304, -735.6853170019766, 9371.706470454512, -67.83754442185693, 0.0, 0.0, 18401.811230398565, -8765.013070704112, 6317.944087737094, -3198.6687420211724, -27295.078610787226, -33038.58286602293, 0.062, 0.002, 1.03, 192.0, 0.5, 120.0, 0.0, 8.0, 16.0, 24.0, 0.0, 0.0, 0.0, 1.747687453162117E9, 0.0, 2025-05-19 22:44:13.162
50.0, 20802.03095698726, 16846.062761075827, 47466.52215320136, 28942.178659698806, 33325.087526451054, -779.5841431121997, 9336.301307237305, -53.42066924818388, 0.0, 0.0, 18380.577073166023, -8786.090765725467, 6298.989808438994, -3237.78429481796, -27339.35741655319, -33066.20962216969, 0.062, 0.002, 1.03, 192.0, 0.0, 0.0, 0.0, 0.0, 0.0, 0.0, 0.0, 0.0, 0.0, 1.747687453171113E9, 0.0, 2025-05-19 22:44:13.171
52.0, 20823.68979736445, 16863.050086861862, 47484.71647318798, 28962.54109889759, 33345.9193522834, -761.1216021921161, 9395.980464932974, -56.30404428291849, 0.0, 0.0, 18394.859837872966, -8765.750678271137, 6307.8410992432955, -3227.1895679461445, -27318.123259320648, -33062.76745352357, 0.062, 0.002, 1.03, 192.0, 0.0, 0.0, 0.0, 0.0, 0.0, 0.0, 0.0, 0.0, 0.0, 1.747687453179205E9, 0.0, 2025-05-19 22:44:13.179
54.0, 20815.911390294004, 16856.09869433626, 47481.319008030776, 28954.472119149224, 33352.55782038663, -726.5658052642113, 9336.144845026118, -60.34971002932907, 0.0, 0.0, 18396.759736151664, -8765.482457337674, 6323.196747684092, -3206.782425258449, -27312.73648890692, -33037.57703752244, 0.062, 0.002, 1.03, 192.0, 0.0, 0.0, 0.0, 0.0, 0.0, 0.0, 0.0, 0.0, 0.0, 1.747687453187244E9, 0.0, 2025-05-19 22:44:13.187
56.0, 20825.20971598741, 16865.687592707585, 47486.37050227768, 28957.981343028707, 33345.584076116575, -763.4014801265574, 9364.799781417822, -50.80551514691295, 0.0, 0.0, 18393.295215761093, -8774.154934186332, 6305.9635527090495, -3245.8979780552363, -27336.854021174197, -33079.3077444205, 0.062, 0.002, 1.03, 192.0, 0.0, 0.0, 0.0, 0.0, 0.0, 0.0, 0.0, 0.0, 0.0, 1.747687453194253E9, 0.0, 2025-05-19 22:44:13.194
58.0, 20825.388529943055, 16864.99468862947, 47485.297618543824, 28962.049360519573, 33355.64236112146, -771.448108130468, 9358.116609825684, -79.57221026089314, 0.0, 0.0, 18409.969617124752, -8755.580634543972, 6326.0354192299155, -3204.6366577907397, -27302.253520757382, -33041.82386896895, 0.062, -0.002, 1.034, 192.0, 0.5, 120.0, 127.5, 120.0, 16.0, 40.0, 0.0, 0.0, 0.0, 1.747687453202284E9, 0.0, 2025-05-19 22:44:13.202
60.0, 20819.51002115131, 16858.24446180397, 47479.26264754089, 28951.767558070133, 33334.251741677734, -781.05935824625, 9323.873737320155, -69.22335257808598, 0.0, 0.0, 18395.530390206623, -8773.506733597129, 6313.987828968505, -3240.779428574971, -27341.324370065257, -33069.718846049174, 0.062, -0.002, 1.034, 192.0, 0.0, 0.0, 0.0, 0.0, 0.0, 0.0, 0.0, 0.0, 0.0, 1.747687453211296E9, 0.0, 2025-05-19 22:44:13.211
62.0, 20828.830698589172, 16870.5826247433, 47492.427825025065, 28966.854985577465, 33355.731768099286, -769.3693958961244, 9386.391566561648, -76.82294569289037, 0.0, 0.0, 18405.946303122797, -8759.693355523748, 6318.100549948282, -3228.418913891186, -27317.005672097883, -33069.11534894888, 0.062, -0.002, 1.034, 192.0, 0.0, 0.0, 0.0, 0.0, 0.0, 0.0, 0.0, 0.0, 0.0, 1.747687453219361E9, 0.0, 2025-05-19 22:44:13.219
64.0, 20820.98523628536, 16859.920842638116, 47485.96817087748, 28958.763654084643, 33356.44702392185, -748.3140526192251, 9320.811548329777, -87.46237605361654, 0.0, 0.0, 18407.421518256848, -8760.654480535326, 6331.913928021661, -3207.6317915477507, -27308.936692349518, -33044.01433992557, 0.062, -0.002, 1.034, 192.0, 0.0, 0.0, 0.0, 0.0, 0.0, 0.0, 0.0, 0.0, 0.0, 1.747687453226398E9, 0.0, 2025-05-19 22:44:13.226
66.0, 20827.51194566631, 16866.71577295253, 47489.566801734785, 28958.763654084643, 33349.22741046279, -777.1925064554819, 9359.457714493003, -73.96192240261107, 0.0, 0.0, 18404.56049496657, -8767.941149227756, 6315.910078991661, -3249.809533334915, -27337.79279444132, -33086.013267757095, 0.062, -0.002, 1.034, 192.0, 0.0, 0.0, 0.0, 0.0, 0.0, 0.0, 0.0, 0.0, 0.0, 1.747687453234339E9, 0.0, 2025-05-19 22:44:13.234
68.0, 20822.035768274756, 16860.703153694052, 47487.3092755448, 28959.948296540773, 33354.1224424985, -749.9233782200073, 9365.157409329106, -88.17763187618637, 0.0, 0.0, 18413.322378793047, -8758.709878767715, 6331.533948365921, -3207.609439803295, -27300.73360213442, -33049.646979528305, 0.058, -0.006, 1.034, 192.0, 0.5, 104.0, 127.5, 104.0, 16.0, 40.0, 0.0, 0.0, 0.0, 1.747687453243419E9, 0.0, 2025-05-19 22:44:13.243
70.0, 20822.281637463766, 16868.10158110876, 47476.558086461795, 28945.77729055611, 33337.15746845692, -758.5958550686664, 9312.697865092501, -77.02411139298813, 0.0, 0.0, 18399.799573397588, -8771.696242296248, 6319.307544148868, -3238.588957618351, -27337.16694559657, -33071.819910027974, 0.058, -0.006, 1.034, 192.0, 0.0, 0.0, 0.0, 0.0, 0.0, 0.0, 0.0, 0.0, 0.0, 1.74768745325038E9, 0.0, 2025-05-19 22:44:13.250
72.0, 20820.426442673976, 16862.75951418394, 47487.13046158916, 28957.62371511742, 33355.68706461037, -765.4354888719904, 9377.38381354616, -85.83069870837912, 0.0, 0.0, 18401.945340865295, -8765.907140482324, 6312.669076045642, -3241.6064431198174, -27328.047433858806, -33082.302878177514, 0.058, -0.006, 1.034, 192.0, 0.0, 0.0, 0.0, 0.0, 0.0, 0.0, 0.0, 0.0, 0.0, 1.747687453258439E9, 0.0, 2025-05-19 22:44:13.258
74.0, 20817.565419383696, 16855.09286583577, 47480.201420808015, 28949.934715024796, 33350.03207326318, -751.0633171872279, 9322.219708230461, -89.98812317706623, 0.0, 0.0, 18408.047367101593, -8765.750678271137, 6329.209366942569, -3213.845576506326, -27315.485753474924, -33050.67515977325, 0.058, -0.006, 1.034, 192.0, 0.0, 0.0, 0.0, 0.0, 0.0, 0.0, 0.0, 0.0, 0.0, 1.747687453266409E9, 0.0, 2025-05-19 22:44:13.266
76.0, 20834.575096914185, 16864.972336885017, 47488.11393834519, 28954.62858136041, 33345.18174471638, -774.800869798764, 9362.922234883576, -74.47601252508314, 0.0, 0.0, 18401.40889899837, -8771.942111485258, 6312.289096389902, -3251.128286257778, -27343.55954451079, -33086.2591369461, 0.058, -0.006, 1.034, 192.0, 0.0, 0.0, 0.0, 0.0, 0.0, 0.0, 0.0, 0.0, 0.0, 1.747687453275459E9, 0.0, 2025-05-19 22:44:13.275
78.0, 20834.93272482547, 16862.021906616916, 47490.59498197973, 28954.606229615954, 33366.348846715555, -757.8135440127306, 9362.452848250014, -90.8374894663679, 0.0, 0.0, 18415.937532894317, -8766.488285838162, 6325.007238984971, -3208.0564746924015, -27303.16994228005, -33051.412767340276, 0.056, -0.002, 1.034, 192.0, 0.5, 96.0, 127.5, 120.0, 16.0, 40.0, 0.0, 0.0, 0.0, 1.747687453282441E9, 0.0, 2025-05-19 22:44:13.282
80.0, 20836.02796030378, 16862.737162439487, 47484.180031321055, 28947.230153945704, 33352.289599453165, -770.1070034631496, 9324.879565820644, -74.40895729171721, 0.0, 0.0, 18403.889942632908, -8778.0217859771, 6316.20065166958, -3233.850387793826, -27332.495431005413, -33069.96471523818, 0.056, -0.002, 1.034, 192.0, 0.0, 0.0, 0.0, 0.0, 0.0, 0.0, 0.0, 0.0, 0.0, 1.747687453290544E9, 0.0, 2025-05-19 22:44:13.290
82.0, 20848.544937198752, 16870.33675555429, 47493.545412247826, 28960.618848874434, 33365.231259492786, -784.4568234034567, 9388.336168329259, -81.38270156177302, 0.0, 0.0, 18412.227143314736, -8768.410535861318, 6318.145253437192, -3226.228442934566, -27314.479924974436, -33070.97054373867, 0.056, -0.002, 1.034, 192.0, 0.0, 0.0, 0.0, 0.0, 0.0, 0.0, 0.0, 0.0, 0.0, 1.747687453299593E9, 0.0, 2025-05-19 22:44:13.299
84.0, 20836.92203008199, 16856.590432714278, 47481.74369117543, 28947.990113257187, 33352.80368957564, -783.5180501363337, 9329.79694960081, -85.29425684145176, 0.0, 0.0, 18409.813154913565, -8772.746774285648, 6328.784683797919, -3208.8611374927927, -27316.40217499759, -33047.34474984941, 0.056, -0.002, 1.034, 192.0, 0.0, 0.0, 0.0, 0.0, 0.0, 0.0, 0.0, 0.0, 0.0, 1.747687453306572E9, 0.0, 2025-05-19 22:44:13.306
86.0, 20855.4739779799, 16871.543749754877, 47489.767967434884, 28947.923058023818, 33357.58696288907, -796.415006687046, 9348.192435287528, -76.577076503882, 0.0, 0.0, 18409.7460996802, -8783.363852901919, 6311.037398700404, -3250.0777542683786, -27343.157213110593, -33090.975355026174, 0.056, -0.002, 1.034, 192.0, 0.0, 0.0, 0.0, 0.0, 0.0, 0.0, 0.0, 0.0, 0.0, 1.747687453314544E9, 0.0, 2025-05-19 22:44:13.314
88.0, 20850.08720756617, 16866.04522061887, 47481.56487721978, 28943.787985299587, 33362.88432632498, -755.5783695672, 9382.18943860405, -87.9988179205439, 0.0, 0.0, 18413.12121309295, -8781.709823812225, 6318.078198203826, -3218.8523672643146, -27318.302073276293, -33063.97444772416, 0.057, -0.003, 1.033, 192.0, 0.5, 104.0, 127.5, 112.0, 16.0, 32.0, 0.0, 0.0, 0.0, 1.747687453324666E9, 0.0, 2025-05-19 22:44:13.324
90.0, 20857.642097192063, 16872.19195034408, 47492.38312153616, 28949.577087113514, 33365.54418391516, -802.4052742010682, 9327.98645829993, -71.65969272371444, 0.0, 0.0, 18409.723747935743, -8784.950826758246, 6318.659343559664, -3231.615213348295, -27327.26512280287, -33070.769378038574, 0.057, -0.003, 1.033, 192.0, 0.0, 0.0, 0.0, 0.0, 0.0, 0.0, 0.0, 0.0, 0.0, 1.747687453331676E9, 0.0, 2025-05-19 22:44:13.331
92.0, 20860.190196059968, 16876.52818876841, 47496.09351111574, 28956.573183128025, 33369.81336710613, -809.6695911490431, 9386.257456094916, -84.31078008541824, 0.0, 0.0, 18420.474937018746, -8768.745812028148, 6319.709875549063, -3226.0272772344683, -27314.32346276325, -33071.39522688332, 0.057, -0.003, 1.033, 192.0, 0.0, 0.0, 0.0, 0.0, 0.0, 0.0, 0.0, 0.0, 0.0, 1.747687453338658E9, 0.0, 2025-05-19 22:44:13.338
94.0, 20852.03180933378, 16870.224996832014, 47488.62802846766, 28946.023159745117, 33374.28371599719, -789.575372883722, 9327.18179549954, -89.40697782122825, 0.0, 0.0, 18417.815079428565, -8778.0217859771, 6325.476625618533, -3213.711466039594, -27315.12812556364, -33054.38554935283, 0.057, -0.003, 1.033, 192.0, 0.0, 0.0, 0.0, 0.0, 0.0, 0.0, 0.0, 0.0, 0.0, 1.747687453346729E9, 0.0, 2025-05-19 22:44:13.346
96.0, 20866.962774629927, 16884.172485372124, 47492.696045958524, 28951.409930158847, 33359.017474534216, -800.0136375443503, 9364.978595373464, -73.53723925796024, 0.0, 0.0, 18416.004588127686, -8777.060660965522, 6315.753616780475, -3252.201169991633, -27341.547887509812, -33090.39420967033, 0.057, -0.003, 1.033, 192.0, 0.0, 0.0, 0.0, 0.0, 0.0, 0.0, 0.0, 0.0, 0.0, 1.747687453354716E9, 0.0, 2025-05-19 22:44:13.354
98.0, 20867.700382196952, 16882.96549117154, 47492.293714558335, 28950.895840036374, 33378.307029999145, -777.1030994776606, 9361.312909282793, -96.96186744712203, 0.0, 0.0, 18427.091053377517, -8768.187018416766, 6330.6175268432535, -3216.5054340965075, -27312.535323206823, -33060.21935465567, 0.0575, -0.006500000000000001, 1.0305, 192.0, 0.5, 104.0, 127.5, 88.0, 16.0, 16.0, 0.0, 0.0, 0.0, 1.747687453362771E9, 0.0, 2025-05-19 22:44:13.362
100.0, 20858.826739648193, 16872.281357321903, 47484.82823191026, 28938.267104419127, 33365.722997870806, -804.0593032907609, 9303.801870799289, -90.32339934389584, 0.0, 0.0, 18414.01528287116, -8785.956655258735, 6317.921735992639, -3245.719164099594, -27342.64312298812, -33083.73338982265, 0.0575, -0.006500000000000001, 1.0305, 192.0, 0.0, 0.0, 0.0, 0.0, 0.0, 0.0, 0.0, 0.0, 0.0, 1.747687453370782E9, 0.0, 2025-05-19 22:44:13.370
102.0, 20874.964699144926, 16890.54273254189, 47498.932182661556, 28956.506127894656, 33375.446006708866, -782.8251460582193, 9384.916351427597, -90.5022132995383, 0.0, 0.0, 18428.096881878006, -8772.456201607729, 6322.079160461326, -3237.06903899539, -27321.565427966765, -33084.202776456215, 0.0575, -0.006500000000000001, 1.0305, 192.0, 0.0, 0.0, 0.0, 0.0, 0.0, 0.0, 0.0, 0.0, 0.0, 1.747687453378884E9, 0.0, 2025-05-19 22:44:13.378
104.0, 20868.683858952983, 16885.558293528353, 47491.33258954676, 28948.34774116847, 33373.38964621897, -759.1099451911384, 9320.588030885225, -91.4633383111165, 0.0, 0.0, 18424.945285909806, -8776.07718420949, 6333.947936767094, -3219.366457386787, -27322.72771867844, -33060.33111337794, 0.0575, -0.006500000000000001, 1.0305, 192.0, 0.0, 0.0, 0.0, 0.0, 0.0, 0.0, 0.0, 0.0, 0.0, 1.747687453386899E9, 0.0, 2025-05-19 22:44:13.386
106.0, 20879.45739978044, 16894.34252909929, 47501.949668163026, 28956.81905231703, 33375.89304159797, -765.256674916348, 9339.519958438868, -82.2767713399853, 0.0, 0.0, 18427.6498469889, -8774.64667256435, 6325.677791318631, -3248.289614711954, -27337.256352574394, -33089.16486372529, 0.0575, -0.006500000000000001, 1.0305, 192.0, 0.0, 0.0, 0.0, 0.0, 0.0, 0.0, 0.0, 0.0, 0.0, 1.747687453393862E9, 0.0, 2025-05-19 22:44:13.393
108.0, 20869.66733570902, 16884.016023160937, 47499.53567976185, 28959.92594479632, 33379.29050675518, -804.4839864354118, 9365.068002351285, -99.53231805948235, 0.0, 0.0, 18429.66150398988, -8770.936282984769, 6334.8420065453065, -3205.642486291228, -27305.047488814296, -33053.11149991888, 0.05775, -0.00625, 1.02625, 192.0, 0.5, 104.0, 127.5, 104.0, 15.5, 120.0, 0.0, 0.0, 0.0, 1.747687453402919E9, 0.0, 2025-05-19 22:44:13.402
110.0, 20862.64888795005, 16876.841113190785, 47493.25483956991, 28949.912363280342, 33364.47130018131, -815.7269138964313, 9313.927211037542, -94.9725621905997, 0.0, 0.0, 18417.70332070629, -8781.665120323316, 6326.080122718826, -3226.094332467834, -27329.54500073731, -33067.86365125938, 0.05775, -0.00625, 1.02625, 192.0, 0.0, 0.0, 0.0, 0.0, 0.0, 0.0, 0.0, 0.0, 0.0, 1.747687453410924E9, 0.0, 2025-05-19 22:44:13.410
112.0, 20875.43408577849, 16886.541770284388, 47502.37435130768, 28961.937601797297, 33378.03880906568, -805.5792219137219, 9383.709357227011, -91.59744877784834, 0.0, 0.0, 18426.30874232158, -8773.21616091921, 6325.051942473882, -3220.260527164999, -27311.373032495147, -33069.69649430472, 0.05775, -0.00625, 1.02625, 192.0, 0.0, 0.0, 0.0, 0.0, 0.0, 0.0, 0.0, 0.0, 0.0, 1.747687453418961E9, 0.0, 2025-05-19 22:44:13.418
114.0, 20857.88796638107, 16870.046182876373, 47476.93806611754, 28942.715101565733, 33362.772567602704, -793.2634107188477, 9327.874699577655, -97.99004769206616, 0.0, 0.0, 18414.03763461562, -8780.994567989655, 6328.002372741982, -3203.96610545708, -27310.434259228023, -33045.71307250417, 0.05775, -0.00625, 1.02625, 192.0, 0.0, 0.0, 0.0, 0.0, 0.0, 0.0, 0.0, 0.0, 0.0, 1.747687453425994E9, 0.0, 2025-05-19 22:44:13.425
116.0, 20868.549748486254, 16881.04324114838, 47478.88266788515, 28942.06690097653, 33355.731768099286, -812.5976696726883, 9361.42466800507, -82.63439925127021, 0.0, 0.0, 18397.765564652153, -8795.702015841249, 6300.174450895125, -3255.799800848937, -27352.50024229291, -33094.395171927834, 0.05775, -0.00625, 1.02625, 192.0, 0.0, 0.0, 0.0, 0.0, 0.0, 0.0, 0.0, 0.0, 0.0, 1.74768745343502E9, 0.0, 2025-05-19 22:44:13.435
118.0, 20865.50991124033, 16879.724488225518, 47486.23639181094, 28942.87156377692, 33384.721980657814, -790.0000560283728, 9367.996080874931, -93.25147786754107, 0.0, 0.0, 18417.70332070629, -8780.614588333916, 6322.302677905879, -3210.6939805381276, -27303.281701002325, -33057.11246217638, 0.056875, -0.004125, 1.027125, 192.0, 0.5, 96.0, 127.5, 120.0, 16.0, 16.0, 0.0, 0.0, 0.0, 1.747687453443068E9, 0.0, 2025-05-19 22:44:13.443
120.0, 20850.869518622105, 16869.755610198452, 47468.667920669075, 28923.313787378527, 33348.668616851406, -805.6239254026325, 9320.27510646285, -84.22137310759702, 0.0, 0.0, 18397.3408815075, -8803.033388022588, 6305.0247794419265, -3245.7862193329597, -27340.139727609127, -33085.11919797888, 0.056875, -0.004125, 1.027125, 192.0, 0.0, 0.0, 0.0, 0.0, 0.0, 0.0, 0.0, 0.0, 0.0, 1.747687453450087E9, 0.0, 2025-05-19 22:44:13.450
122.0, 20863.297088539253, 16883.189008616093, 47471.08190907024, 28931.248656660162, 33370.752140373246, -785.7085210929539, 9380.244836836438, -87.21650686460816, 0.0, 0.0, 18398.950207108286, -8799.546515887561, 6295.39117758169, -3249.138981001256, -27336.183468840536, -33092.5623288825, 0.056875, -0.004125, 1.027125, 192.0, 0.0, 0.0, 0.0, 0.0, 0.0, 0.0, 0.0, 0.0, 0.0, 1.747687453458111E9, 0.0, 2025-05-19 22:44:13.458
124.0, 20842.912297596016, 16856.903357136653, 47464.84577236722, 28923.20202865625, 33360.51504141272, -763.6473493155657, 9333.373228713659, -85.71893998610258, 0.0, 0.0, 18394.50220996168, -8802.765167089125, 6306.231773642514, -3230.1399982142448, -27330.193201326514, -33068.1542239373, 0.056875, -0.004125, 1.027125, 192.0, 0.0, 0.0, 0.0, 0.0, 0.0, 0.0, 0.0, 0.0, 0.0, 1.747687453467106E9, 0.0, 2025-05-19 22:44:13.467
126.0, 20859.36318151512, 16874.62829048971, 47466.410394479084, 28926.174810668806, 33352.40135817544, -802.7629021123531, 9365.693851196034, -66.7646606880022, 0.0, 0.0, 18389.048384314585, -8807.816661336024, 6289.333854834302, -3263.7570218750266, -27350.153309125104, -33102.732372609666, 0.056875, -0.004125, 1.027125, 192.0, 0.0, 0.0, 0.0, 0.0, 0.0, 0.0, 0.0, 0.0, 0.0, 1.74768745347413E9, 0.0, 2025-05-19 22:44:13.474
128.0, 20842.577021429184, 16858.110351337236, 47456.82149610776, 28918.06112743153, 33354.21184947632, -774.9573320099512, 9369.717165197988, -91.30687609992935, 0.0, 0.0, 18386.768506380144, -8809.068359025521, 6291.501974046466, -3233.0904284823455, -27325.16405882407, -33075.61970658538, 0.0564375, -0.0030625, 1.0245625, 192.0, 0.5, 96.0, 127.5, 120.0, 15.5, 120.0, 0.0, 0.0, 0.0, 1.747687453482145E9, 0.0, 2025-05-19 22:44:13.482
130.0, 20843.13581504057, 16858.333868781792, 47458.58728391973, 28910.81916222801, 33348.82507906259, -832.6024809601881, 9327.248850732905, -80.0863003833652, 0.0, 0.0, 18374.430343440814, -8827.106216800954, 6279.655549485154, -3263.622911408295, -27357.03764641734, -33100.29603246404, 0.0564375, -0.0030625, 1.0245625, 192.0, 0.0, 0.0, 0.0, 0.0, 0.0, 0.0, 0.0, 0.0, 0.0, 1.747687453491164E9, 0.0, 2025-05-19 22:44:13.491
132.0, 20860.324306526698, 16874.740049211985, 47475.03816783884, 28928.72290953671, 33368.40520720544, -811.2565650053698, 9393.588828276257, -76.19709684814178, 0.0, 0.0, 18392.177628538328, -8808.241344480675, 6287.411604811145, -3248.4237251786863, -27329.008558870384, -33094.55163413902, 0.0564375, -0.0030625, 1.0245625, 192.0, 0.0, 0.0, 0.0, 0.0, 0.0, 0.0, 0.0, 0.0, 0.0, 1.747687453499176E9, 0.0, 2025-05-19 22:44:13.499
134.0, 20847.427349975987, 16862.08896185028, 47461.180086276545, 28917.81525824252, 33359.95624780133, -806.5179951808448, 9331.294516479316, -88.80348072093496, 0.0, 0.0, 18390.16597153735, -8807.481385169194, 6301.828479984818, -3225.3790766452644, -27323.3982710121, -33067.349561136914, 0.0564375, -0.0030625, 1.0245625, 192.0, 0.0, 0.0, 0.0, 0.0, 0.0, 0.0, 0.0, 0.0, 0.0, 1.747687453506208E9, 0.0, 2025-05-19 22:44:13.506
136.0, 20849.640172677064, 16864.257081062446, 47463.77288863336, 28919.513990821124, 33348.512154640215, -819.7278761539312, 9358.228368547962, -79.23693409406354, 0.0, 0.0, 18378.87834058742, -8815.595068406472, 6279.76730820743, -3269.143792288756, -27356.590611528234, -33110.17550351328, 0.0564375, -0.0030625, 1.0245625, 192.0, 0.0, 0.0, 0.0, 0.0, 0.0, 0.0, 0.0, 0.0, 0.0, 1.747687453514248E9, 0.0, 2025-05-19 22:44:13.514
138.0, 20855.585736702174, 16871.72256371052, 47469.427879980554, 28929.43816535928, 33371.28858224017, -783.24982920287, 9374.120458855685, -87.19415512015286, 0.0, 0.0, 18395.664500673356, -8800.977027532701, 6299.280381116913, -3223.300364410921, -27316.17865755304, -33068.668314059774, 0.05521875, 4.6875E-4, 1.02628125, 192.0, 0.5, 88.0, 0.0, 16.0, 16.0, 16.0, 0.0, 0.0, 0.0, 1.74768745352332E9, 0.0, 2025-05-19 22:44:13.523
140.0, 20834.50804168082, 16852.924746623605, 47449.53482741533, 28911.57912153949, 33333.44707887734, -815.9057278520737, 9328.008810044386, -81.47210853959425, 0.0, 0.0, 18375.77144810813, -8819.014885308134, 6284.237657098492, -3256.1574287602225, -27355.338913838736, -33094.685744605755, 0.05521875, 4.6875E-4, 1.02628125, 192.0, 0.0, 0.0, 0.0, 0.0, 0.0, 0.0, 0.0, 0.0, 0.0, 1.74768745353033E9, 0.0, 2025-05-19 22:44:13.530
142.0, 20851.763588400318, 16868.258043319947, 47473.831173638246, 28933.729700294698, 33361.722035613304, -798.9184020660404, 9384.938703172053, -82.09795738434283, 0.0, 0.0, 18385.49445694619, -8809.090710769977, 6283.455346042556, -3251.3965071912417, -27341.21261134298, -33097.72558185167, 0.05521875, 4.6875E-4, 1.02628125, 192.0, 0.0, 0.0, 0.0, 0.0, 0.0, 0.0, 0.0, 0.0, 0.0, 1.747687453538351E9, 0.0, 2025-05-19 22:44:13.538
144.0, 20850.914222111016, 16870.29205206538, 47473.36178700469, 28932.612113071933, 33363.46547168082, -778.5783146117109, 9326.377132699148, -84.511945785516, 0.0, 0.0, 18396.40210824038, -8801.088786254977, 6307.3717126097345, -3220.171120187178, -27323.085346589727, -33062.655694801295, 0.05521875, 4.6875E-4, 1.02628125, 192.0, 0.0, 0.0, 0.0, 0.0, 0.0, 0.0, 0.0, 0.0, 0.0, 1.7476874535464E9, 0.0, 2025-05-19 22:44:13.546
146.0, 20863.967640872914, 16884.39600281668, 47480.69315918603, 28940.14465095337, 33357.475204166796, -793.0845967632052, 9355.635566191146, -59.500343740027404, 0.0, 0.0, 18398.3914134969, -8797.73602458668, 6298.654532272164, -3253.005832792024, -27346.59938175671, -33092.18234922676, 0.05521875, 4.6875E-4, 1.02628125, 192.0, 0.0, 0.0, 0.0, 0.0, 0.0, 0.0, 0.0, 0.0, 0.0, 1.747687453555436E9, 0.0, 2025-05-19 22:44:13.555
148.0, 20866.672201952006, 16884.753630727962, 47487.3092755448, 28948.97359001322, 33378.08351255459, -737.4734565584013, 9357.110781325197, -80.15335561673113, 0.0, 0.0, 18412.294198548105, -8783.542666857562, 6318.592288326298, -3209.3081723818987, -27310.367203994658, -33054.832584241936, 0.056609375, 0.0022343750000000002, 1.026140625, 192.0, 0.5, 104.0, 0.0, 16.0, 16.0, 8.0, 0.0, 0.0, 0.0, 1.74768745356247E9, 0.0, 2025-05-19 22:44:13.562
150.0, 20856.41275124702, 16874.67299397862, 47475.70872017249, 28936.63542707389, 33353.18366923138, -788.0107507718504, 9317.436434917026, -71.43617527916138, 0.0, 0.0, 18403.286445532616, -8792.729233828692, 6315.0607127023595, -3233.7609808160046, -27338.17277409706, -33071.86461351688, 0.056609375, 0.0022343750000000002, 1.026140625, 192.0, 0.0, 0.0, 0.0, 0.0, 0.0, 0.0, 0.0, 0.0, 0.0, 1.747687453570488E9, 0.0, 2025-05-19 22:44:13.570
152.0, 20854.98223960188, 16874.941214912084, 47473.07121432677, 28939.831726531, 33358.726901856295, -783.1157187361382, 9383.307025826816, -76.95705615962221, 0.0, 0.0, 18396.424459984835, -8796.21610596372, 6299.615657283743, -3238.3430884293425, -27333.367149039168, -33082.794616555526, 0.056609375, 0.0022343750000000002, 1.026140625, 192.0, 0.0, 0.0, 0.0, 0.0, 0.0, 0.0, 0.0, 0.0, 0.0, 1.747687453578519E9, 0.0, 2025-05-19 22:44:13.578
154.0, 20840.721826639394, 16859.205586815548, 47462.655301410596, 28926.130107179895, 33352.64722736445, -820.7337046544201, 9314.17308022655, -89.60814352132601, 0.0, 0.0, 18389.36130873696, -8802.318132200018, 6305.270648630935, -3221.0428382209348, -27330.72964319344, -33061.42634885626, 0.056609375, 0.0022343750000000002, 1.026140625, 192.0, 0.0, 0.0, 0.0, 0.0, 0.0, 0.0, 0.0, 0.0, 0.0, 1.747687453586581E9, 0.0, 2025-05-19 22:44:13.586
156.0, 20850.780111644282, 16872.23665383299, 47472.55712420429, 28934.02027297262, 33346.1205179835, -826.9474896129954, 9357.42370574757, -67.03288162146588, 0.0, 0.0, 18385.606215668467, -8807.995475291667, 6288.663302500642, -3256.8279810938816, -27352.70140799301, -33098.12791325187, 0.056609375, 0.0022343750000000002, 1.026140625, 192.0, 0.0, 0.0, 0.0, 0.0, 0.0, 0.0, 0.0, 0.0, 0.0, 1.747687453594617E9, 0.0, 2025-05-19 22:44:13.594
158.0, 20846.712094153416, 16867.67689796411, 47465.941007845526, 28936.702482307253, 33355.77647158819, -791.3411606956912, 9371.058269865307, -82.34382657335122, 0.0, 0.0, 18396.089183818007, -8793.01980650661, 6306.745863764985, -3211.4092363606974, -27315.530456963836, -33055.01139819758, 0.05730468750000001, 0.0021171875, 1.0260703125, 192.0, 0.5, 104.0, 0.0, 8.0, 16.0, 8.0, 0.0, 0.0, 0.0, 1.747687453602559E9, 0.0, 2025-05-19 22:44:13.602
160.0, 20840.632419661575, 16855.875176891706, 47465.42691772305, 28926.19716241326, 33348.64626510695, -801.220631744937, 9316.341199438715, -76.97940790407752, 0.0, 0.0, 18378.408953953858, -8811.974085804712, 6291.278456601913, -3243.5957483763395, -27350.71210273649, -33082.03465724405, 0.05730468750000001, 0.0021171875, 1.0260703125, 192.0, 0.0, 0.0, 0.0, 0.0, 0.0, 0.0, 0.0, 0.0, 0.0, 1.747687453610598E9, 0.0, 2025-05-19 22:44:13.610
162.0, 20849.193137787955, 16863.20654907305, 47469.94197010303, 28932.902685749854, 33366.86293683803, -807.0991405366827, 9384.201095605027, -78.90165792723393, 0.0, 0.0, 18392.26703551615, -8802.876925811403, 6290.160869379148, -3236.532597128463, -27327.354529780692, -33083.778093311565, 0.05730468750000001, 0.0021171875, 1.0260703125, 192.0, 0.0, 0.0, 0.0, 0.0, 0.0, 0.0, 0.0, 0.0, 0.0, 1.747687453617691E9, 0.0, 2025-05-19 22:44:13.617
164.0, 20840.45360570593, 16853.66235419063, 47461.29184499882, 28919.312825121026, 33362.437291435876, -799.2536782328699, 9320.766844840866, -93.96673369011089, 0.0, 0.0, 18388.824866870033, -8812.778748605102, 6300.643837528687, -3225.155559200711, -27330.30496004879, -33068.802424526504, 0.05730468750000001, 0.0021171875, 1.0260703125, 192.0, 0.0, 0.0, 0.0, 0.0, 0.0, 0.0, 0.0, 0.0, 0.0, 1.747687453626682E9, 0.0, 2025-05-19 22:44:13.626
166.0, 20850.020152332803, 16866.581662485798, 47469.494935213916, 28931.874505504908, 33349.33916918506, -808.3284864817247, 9359.99415635993, -74.45366078062783, 0.0, 0.0, 18391.97646283823, -8809.738911359182, 6290.183221123603, -3258.303196227932, -27351.56146902579, -33100.31838420849, 0.05730468750000001, 0.0021171875, 1.0260703125, 192.0, 0.0, 0.0, 0.0, 0.0, 0.0, 0.0, 0.0, 0.0, 0.0, 1.747687453634728E9, 0.0, 2025-05-19 22:44:13.634
168.0, 20843.73931214086, 16861.463113005535, 47469.0031968359, 28929.39346187037, 33369.41103570593, -780.8134890572417, 9360.552949971312, -98.12415815879801, 0.0, 0.0, 18393.27286401664, -8804.530954901094, 6298.252200871969, -3222.1827771881553, -27321.274855288848, -33069.11534894888, 0.05765234375, 5.859375000000005E-5, 1.02703515625, 192.0, 0.5, 104.0, 127.5, 120.0, 16.0, 16.0, 0.0, 0.0, 0.0, 1.74768745364172E9, 0.0, 2025-05-19 22:44:13.641
170.0, 20850.064855821714, 16868.213339831036, 47469.6066939362, 28925.683072290787, 33354.949457043345, -798.5384224103001, 9321.929135552542, -85.04838765244337, 0.0, 0.0, 18393.675195416832, -8811.325885215509, 6297.983979938505, -3244.4451146656415, -27343.760710210885, -33086.6614683463, 0.05765234375, 5.859375000000005E-5, 1.02703515625, 192.0, 0.0, 0.0, 0.0, 0.0, 0.0, 0.0, 0.0, 0.0, 0.0, 1.74768745364981E9, 0.0, 2025-05-19 22:44:13.649
172.0, 20853.708190167927, 16868.258043319947, 47475.82047889477, 28934.10967995044, 33364.873631581504, -782.2663524468365, 9384.066985138295, -85.71893998610258, 0.0, 0.0, 18400.313663520057, -8801.915800799823, 6293.983017681006, -3240.3547454303202, -27331.98134088294, -33088.42725615826, 0.05765234375, 5.859375000000005E-5, 1.02703515625, 192.0, 0.0, 0.0, 0.0, 0.0, 0.0, 0.0, 0.0, 0.0, 0.0, 1.747687453658814E9, 0.0, 2025-05-19 22:44:13.658
174.0, 20835.64798064804, 16849.080246577294, 47456.68738564103, 28914.95423495224, 33351.373177930494, -821.1807395435262, 9326.041856532318, -108.51771933051579, 0.0, 0.0, 18389.11543954795, -8816.578545162505, 6297.24637237148, -3225.8261115343707, -27333.143631594616, -33070.97054373867, 0.05765234375, 5.859375000000005E-5, 1.02703515625, 192.0, 0.0, 0.0, 0.0, 0.0, 0.0, 0.0, 0.0, 0.0, 0.0, 1.747687453666875E9, 0.0, 2025-05-19 22:44:13.666
176.0, 20844.633381919073, 16860.747857182963, 47466.87978111265, 28924.096098434464, 33345.9193522834, -844.5606642437774, 9348.572414943268, -91.32922784438466, 0.0, 0.0, 18380.219445254737, -8820.132472530899, 6278.940293662584, -3269.8590481113256, -27365.397198843624, -33112.70125063673, 0.05765234375, 5.859375000000005E-5, 1.02703515625, 192.0, 0.0, 0.0, 0.0, 0.0, 0.0, 0.0, 0.0, 0.0, 0.0, 1.747687453673905E9, 0.0, 2025-05-19 22:44:13.673
178.0, 20848.70139940994, 16865.128799096205, 47473.406490493595, 28933.103851449952, 33375.088378797576, -800.639486389099, 9356.127304569161, -98.97352444809967, 0.0, 0.0, 18394.479858217222, -8803.726292100704, 6299.325084605824, -3223.0768469663676, -27323.8006024123, -33070.8587850164, 0.060826171875, -0.001970703125, 1.029517578125, 192.0, 1.0, 0.0, 127.5, 112.0, 16.0, 32.0, 0.0, 0.0, 0.0, 1.747687453682899E9, 0.0, 2025-05-19 22:44:13.682
180.0, 20850.98127734438, 16864.99468862947, 47471.953627104005, 28925.526610079603, 33351.77550933069, -813.8493673621855, 9316.788234327822, -98.1018064143427, 0.0, 0.0, 18390.613006426454, -8811.45999568224, 6298.140442149693, -3243.685155354161, -27343.112509621682, -33087.756703824605, 0.060826171875, -0.001970703125, 1.029517578125, 192.0, 0.0, 0.0, 0.0, 0.0, 0.0, 0.0, 0.0, 0.0, 0.0, 1.747687453690937E9, 0.0, 2025-05-19 22:44:13.690
182.0, 20859.206719303933, 16876.639947490687, 47473.98763584944, 28934.713177050733, 33367.13115777149, -798.6725328770319, 9376.869723423688, -103.37681810579517, 0.0, 0.0, 18396.603273940476, -8803.055739767044, 6293.24541011398, -3244.400411176731, -27334.12710835065, -33092.249404460126, 0.060826171875, -0.001970703125, 1.029517578125, 192.0, 0.0, 0.0, 0.0, 0.0, 0.0, 0.0, 0.0, 0.0, 0.0, 1.747687453698949E9, 0.0, 2025-05-19 22:44:13.698
184.0, 20854.4234459905, 16871.029659632404, 47474.23350503844, 28932.701520049755, 33374.395474719466, -785.8873350485964, 9311.17794646954, -89.80930922142377, 0.0, 0.0, 18396.290349518105, -8800.731158343693, 6307.394064354189, -3223.546233599929, -27328.49446874791, -33065.74023553613, 0.060826171875, -0.001970703125, 1.029517578125, 192.0, 0.0, 0.0, 0.0, 0.0, 0.0, 0.0, 0.0, 0.0, 0.0, 1.747687453705992E9, 0.0, 2025-05-19 22:44:13.705
186.0, 20864.88406239558, 16882.809028960353, 47479.150888818614, 28937.35068289646, 33357.78812858917, -808.3955417150905, 9367.012604118896, -73.1349078577647, 0.0, 0.0, 18394.50220996168, -8801.915800799823, 6293.8712589587285, -3254.3692892037975, -27348.32046607977, -33096.11625625089, 0.060826171875, -0.001970703125, 1.029517578125, 192.0, 0.0, 0.0, 0.0, 0.0, 0.0, 0.0, 0.0, 0.0, 0.0, 1.747687453715018E9, 0.0, 2025-05-19 22:44:13.715
188.0, 20867.253347307844, 16883.658395249655, 47483.39772026512, 28939.563505597536, 33382.93384110139, -781.1711169685266, 9359.681231937557, -97.94534420315554, 0.0, 0.0, 18412.674178203844, -8788.50475412664, 6315.8206720138405, -3215.387846873742, -27317.02802384234, -33062.2533634011, 0.0634130859375, -0.0039853515624999995, 1.0307587890625, 192.0, 1.0, 8.0, 127.5, 104.0, 16.0, 32.0, 0.0, 0.0, 0.0, 1.747687453723066E9, 0.0, 2025-05-19 22:44:13.723
190.0, 20856.233937291378, 16872.102543366258, 47467.05859506829, 28921.704461777743, 33355.105919254536, -792.3022857072694, 9322.644391375112, -89.11640514330927, 0.0, 0.0, 18396.53621870711, -8808.353103202951, 6300.241506128491, -3248.870760067792, -27350.734454480942, -33089.50013989212, 0.0634130859375, -0.0039853515624999995, 1.0307587890625, 192.0, 0.0, 0.0, 0.0, 0.0, 0.0, 0.0, 0.0, 0.0, 0.0, 1.747687453730085E9, 0.0, 2025-05-19 22:44:13.730
192.0, 20866.35927752963, 16881.557331270855, 47473.36178700469, 28929.885200248387, 33362.303180969146, -754.349023622158, 9383.843467693743, -87.26121035351878, 0.0, 0.0, 18399.576055953035, -8804.709768856737, 6293.468927558533, -3243.998079776535, -27335.64702697361, -33091.55650038201, 0.0634130859375, -0.0039853515624999995, 1.0307587890625, 192.0, 0.0, 0.0, 0.0, 0.0, 0.0, 0.0, 0.0, 0.0, 0.0, 1.747687453738068E9, 0.0, 2025-05-19 22:44:13.738
194.0, 20852.054161078235, 16868.23569157549, 47458.60963566419, 28918.686976276276, 33350.59086687456, -815.4810447074228, 9322.8008535863, -106.03667569597671, 0.0, 0.0, 18386.232064513217, -8817.673780640815, 6296.642875271186, -3234.677402338672, -27343.35837881069, -33077.36314265289, 0.0634130859375, -0.0039853515624999995, 1.0307587890625, 192.0, 0.0, 0.0, 0.0, 0.0, 0.0, 0.0, 0.0, 0.0, 0.0, 1.747687453747159E9, 0.0, 2025-05-19 22:44:13.747
196.0, 20862.581832716685, 16879.724488225518, 47475.03816783884, 28933.64029331688, 33352.848393064545, -834.0329926053278, 9356.931967369554, -85.83069870837912, 0.0, 0.0, 18390.97063433774, -8807.481385169194, 6292.15017463567, -3263.7346701305714, -27359.809262729796, -33105.90632032231, 0.0634130859375, -0.0039853515624999995, 1.0307587890625, 192.0, 0.0, 0.0, 0.0, 0.0, 0.0, 0.0, 0.0, 0.0, 0.0, 1.747687453754161E9, 0.0, 2025-05-19 22:44:13.754
198.0, 20858.290297781266, 16877.243444590982, 47479.62027545217, 28937.127165451908, 33374.30606774164, -812.0388760613056, 9358.51894122588, -100.49344307106055, 0.0, 0.0, 18404.53814322211, -8795.88082979689, 6309.428073099622, -3220.0593614649015, -27320.716061677464, -33070.434101871746, 0.06270654296875, -0.00399267578125, 1.0313793945312502, 192.0, 0.5, 120.0, 127.5, 112.0, 16.0, 32.0, 0.0, 0.0, 0.0, 1.74768745376421E9, 0.0, 2025-05-19 22:44:13.764
200.0, 20855.205757046435, 16875.120028867725, 47478.18976380704, 28932.902685749854, 33356.93876229987, -812.4635592059565, 9307.087577234219, -87.86470745381206, 0.0, 0.0, 18397.899675118886, -8804.888582812378, 6305.069482930838, -3241.44998090863, -27345.615905000675, -33083.979259011656, 0.06270654296875, -0.00399267578125, 1.0313793945312502, 192.0, 0.0, 0.0, 0.0, 0.0, 0.0, 0.0, 0.0, 0.0, 0.0, 1.747687453770211E9, 0.0, 2025-05-19 22:44:13.770
202.0, 20864.07939959519, 16884.440706305588, 47480.84962139722, 28942.849212032466, 33363.130195513986, -796.124434009127, 9377.406165290615, -83.50611728502719, 0.0, 0.0, 18406.92977987883, -8792.170440217309, 6304.130709663715, -3233.7609808160046, -27329.88027690414, -33080.53709036554, 0.06270654296875, -0.00399267578125, 1.0313793945312502, 192.0, 0.0, 0.0, 0.0, 0.0, 0.0, 0.0, 0.0, 0.0, 0.0, 1.747687453779196E9, 0.0, 2025-05-19 22:44:13.779
204.0, 20859.206719303933, 16875.544712012375, 47477.116880073176, 28934.646121817368, 33367.91346882743, -782.1322419801047, 9325.08073152074, -88.84818420984557, 0.0, 0.0, 18401.900637376384, -8799.077129254, 6313.026703956927, -3216.68424805215, -27327.578047225245, -33058.16299416578, 0.06270654296875, -0.00399267578125, 1.0313793945312502, 192.0, 0.0, 0.0, 0.0, 0.0, 0.0, 0.0, 0.0, 0.0, 0.0, 1.747687453787279E9, 0.0, 2025-05-19 22:44:13.787
206.0, 20866.694553696463, 16883.412526060645, 47478.92737137406, 28935.271970662114, 33353.94362854286, -803.3663992126465, 9360.552949971312, -72.7772799464798, 0.0, 0.0, 18397.16206755186, -8802.854574066947, 6299.280381116913, -3253.005832792024, -27346.867602690174, -33094.70809635021, 0.06270654296875, -0.00399267578125, 1.0313793945312502, 192.0, 0.0, 0.0, 0.0, 0.0, 0.0, 0.0, 0.0, 0.0, 0.0, 1.747687453794308E9, 0.0, 2025-05-19 22:44:13.794
208.0, 20863.02886760579, 16882.09377313778, 47475.865182383684, 28938.758842797142, 33366.5276606712, -767.1789249395043, 9363.011641861396, -87.75294873153553, 0.0, 0.0, 18404.761660666663, -8791.432832650284, 6314.524270835433, -3217.0865794523456, -27316.715099419966, -33062.05219770101, 0.06270654296875, -0.00399267578125, 1.0313793945312502, 192.0, 0.0, 0.0, 0.0, 0.0, 0.0, 0.0, 0.0, 0.0, 0.0, 1.747687453803323E9, 0.0, 2025-05-19 22:44:13.803
210.0, 20854.0211145903, 16873.57775850031, 47469.87491486966, 28926.82301125801, 33352.13313724198, -776.9242855220182, 9308.518088879358, -91.21746912210813, 0.0, 0.0, 18392.19998028278, -8805.715597357226, 6303.303695118868, -3248.624890878784, -27350.7568062254, -33086.30384043501, 0.064, -0.004, 1.034, 192.0, 1.0, 0.0, 127.5, 112.0, 16.0, 40.0, 0.0, 0.0, 0.0, 1.747687453810375E9, 0.0, 2025-05-19 22:44:13.810
212.0, 20857.217414047413, 16879.120991125226, 47475.239333538935, 28938.28945616358, 33357.22933497779, -771.9174947640294, 9387.799726462332, -72.4420037796502, 0.0, 0.0, 18399.17372455284, -8796.909010041834, 6300.643837528687, -3243.7298588430717, -27336.384634540635, -33087.15320672431, 0.064, -0.004, 1.034, 192.0, 0.0, 0.0, 0.0, 0.0, 0.0, 0.0, 0.0, 0.0, 0.0, 1.74768745381835E9, 0.0, 2025-05-19 22:44:13.818
214.0, 20844.18634702997, 16864.078267106805, 47469.31612125828, 28929.572275826013, 33365.164204259425, -810.7871783718084, 9321.88443206363, -91.21746912210813, 0.0, 0.0, 18391.30591050457, -8804.843879323469, 6305.650628286676, -3223.7250475555716, -27332.048396116305, -33065.673180302765, 0.064, -0.004, 1.034, 192.0, 0.0, 0.0, 0.0, 0.0, 0.0, 0.0, 0.0, 0.0, 0.0, 1.747687453826416E9, 0.0, 2025-05-19 22:44:13.826
216.0, 20855.541033213263, 16880.417392303632, 47480.335531274744, 28937.44008987428, 33353.67540760939, -821.3595534991687, 9349.690002166033, -80.60039050583727, 0.0, 0.0, 18392.177628538328, -8802.921629300312, 6294.877087459217, -3257.029146793979, -27350.488585291932, -33098.70905860771, 0.064, -0.004, 1.034, 192.0, 0.0, 0.0, 0.0, 0.0, 0.0, 0.0, 0.0, 0.0, 0.0, 1.747687453836478E9, 0.0, 2025-05-19 22:44:13.836
218.0, 20856.144530313555, 16875.969395157026, 47481.83309815325, 28942.87156377692, 33373.12142528551, -783.6521606030656, 9367.772563430377, -86.21067836411935, 0.0, 0.0, 18403.12998332143, -8791.298722183552, 6311.5961923117875, -3214.6055358178064, -27313.652910429588, -33062.096901189914, 0.064, -0.004, 1.034, 192.0, 0.0, 0.0, 0.0, 0.0, 0.0, 0.0, 0.0, 0.0, 0.0, 1.747687453843484E9, 0.0, 2025-05-19 22:44:13.843
220.0, 20849.79663488825, 16867.90041540866, 47473.25002828241, 28930.33223513749, 33344.91352378291, -810.0495708047832, 9326.198318743505, -86.21067836411935, 0.0, 0.0, 18393.921064605842, -8802.474594411206, 6306.34353236479, -3241.3158704418984, -27347.42639630156, -33082.34758166642, 0.06, -0.008, 1.034, 192.0, 0.5, 112.0, 127.5, 96.0, 16.0, 40.0, 0.0, 0.0, 0.0, 1.747687453850494E9, 0.0, 2025-05-19 22:44:13.850
222.0, 20861.64305944956, 16880.90913068165, 47485.655246455106, 28943.765633555133, 33356.96111404432, -805.4674631914453, 9392.068909653295, -82.56734401790429, 0.0, 0.0, 18400.939512364806, -8793.64565535136, 6305.24829688648, -3238.4101436627084, -27334.372977539657, -33085.96856426818, 0.06, -0.008, 1.034, 192.0, 0.0, 0.0, 0.0, 0.0, 0.0, 0.0, 0.0, 0.0, 0.0, 1.747687453858616E9, 0.0, 2025-05-19 22:44:13.858
224.0, 20849.483710465876, 16871.923729410617, 47480.49199348593, 28934.601418328457, 33361.677332124396, -777.2819134333031, 9324.767807098366, -91.08335865537629, 0.0, 0.0, 18405.611026955965, -8795.389091418874, 6320.983924983016, -3211.2527741495105, -27319.732584921432, -33056.59837205391, 0.06, -0.008, 1.034, 192.0, 0.0, 0.0, 0.0, 0.0, 0.0, 0.0, 0.0, 0.0, 0.0, 1.747687453866626E9, 0.0, 2025-05-19 22:44:13.866
226.0, 20853.529376212286, 16878.450438791566, 47483.86710689868, 28936.389557884882, 33343.5724191156, -778.4889076338897, 9361.04468834933, -77.29233232645183, 0.0, 0.0, 18393.541084950102, -8807.9284200583, 6296.754633993463, -3254.525751414985, -27352.41083531509, -33098.48554116315, 0.06, -0.008, 1.034, 192.0, 0.0, 0.0, 0.0, 0.0, 0.0, 0.0, 0.0, 0.0, 0.0, 1.747687453874619E9, 0.0, 2025-05-19 22:44:13.874
228.0, 20853.529376212286, 16873.756572455954, 47488.42686276756, 28942.759805054644, 33367.466433938316, -798.6278293881213, 9370.253607064917, -93.05031216744331, 0.0, 0.0, 18410.483707247222, -8790.628169849893, 6315.7089132915635, -3208.324695625865, -27308.422602227045, -33056.77718600955, 0.06, -0.008, 1.034, 192.0, 0.0, 0.0, 0.0, 0.0, 0.0, 0.0, 0.0, 0.0, 0.0, 1.747687453884629E9, 0.0, 2025-05-19 22:44:13.884
230.0, 20846.287411008765, 16865.285261307392, 47478.30152252931, 28927.605322313946, 33351.61904711951, -788.8154135722416, 9317.659952361579, -86.16597487520873, 0.0, 0.0, 18397.698509418788, -8804.598010134461, 6304.398930597178, -3240.8911872972476, -27343.09015787723, -33081.98995375514, 0.054, -0.002, 1.034, 192.0, 0.5, 88.0, 127.5, 120.0, 16.0, 40.0, 0.0, 0.0, 0.0, 1.747687453890698E9, 0.0, 2025-05-19 22:44:13.890
232.0, 20856.166882058013, 16873.980089900506, 47482.34718827572, 28939.563505597536, 33361.49851816875, -811.7483033833865, 9386.011586905908, -86.97063767559978, 0.0, 0.0, 18400.22425654224, -8801.468765910717, 6297.8051659828625, -3241.3829256752642, -27334.305922306292, -33088.561366625, 0.054, -0.002, 1.034, 192.0, 0.0, 0.0, 0.0, 0.0, 0.0, 0.0, 0.0, 0.0, 0.0, 1.747687453897627E9, 0.0, 2025-05-19 22:44:13.897
234.0, 20852.3223820117, 16867.38632528619, 47485.18585982155, 28937.082461962997, 33369.500442683755, -803.701675379476, 9320.297458207306, -96.60423953583712, 0.0, 0.0, 18402.25826528767, -8794.986760018679, 6316.021837713938, -3213.06326545039, -27318.235018042928, -33058.20769765469, 0.054, -0.002, 1.034, 192.0, 0.0, 0.0, 0.0, 0.0, 0.0, 0.0, 0.0, 0.0, 0.0, 1.747687453906679E9, 0.0, 2025-05-19 22:44:13.906
236.0, 20855.496329724352, 16866.939290397084, 47484.85058365471, 28932.6791683053, 33352.96015178682, -825.9863646014172, 9353.512150467892, -81.09212888385402, 0.0, 0.0, 18403.040576343607, -8800.21706822122, 6300.733244506508, -3248.5131321565073, -27340.69852122051, -33095.02102077258, 0.054, -0.002, 1.034, 192.0, 0.0, 0.0, 0.0, 0.0, 0.0, 0.0, 0.0, 0.0, 0.0, 1.747687453914755E9, 0.0, 2025-05-19 22:44:13.914
238.0, 20850.020152332803, 16864.838226418284, 47479.977903363455, 28930.846325259965, 33365.65594263744, -802.4276259455236, 9370.588883231745, -94.90550695723378, 0.0, 0.0, 18401.744175165197, -8801.893449055367, 6304.242468385991, -3218.9864777310468, -27315.888084875118, -33070.635267571844, 0.054, -0.002, 1.034, 192.0, 0.0, 0.0, 0.0, 0.0, 0.0, 0.0, 0.0, 0.0, 0.0, 1.747687453922755E9, 0.0, 2025-05-19 22:44:13.922
240.0, 20841.45943420642, 16859.876139149208, 47471.953627104005, 28922.91145597833, 33341.65016909244, -799.3207334662359, 9320.208051229483, -89.80930922142377, 0.0, 0.0, 18387.617872669445, -8813.091673027477, 6297.872221216228, -3244.422762921186, -27348.32046607977, -33088.85193930291, 0.06, -0.002, 1.032, 192.0, 0.5, 112.0, 127.5, 120.0, 16.0, 32.0, 0.0, 0.0, 0.0, 1.747687453929795E9, 0.0, 2025-05-19 22:44:13.929
242.0, 20850.98127734438, 16866.961642141538, 47480.53669697484, 28932.187429927282, 33356.424672177396, -774.8455732876746, 9379.6636914806, -87.6635417537143, 0.0, 0.0, 18395.217465784248, -8803.458071167239, 6296.061729915349, -3239.3489169298314, -27333.613018228178, -33090.908299792805, 0.06, -0.002, 1.032, 192.0, 0.0, 0.0, 0.0, 0.0, 0.0, 0.0, 0.0, 0.0, 0.0, 1.747687453938834E9, 0.0, 2025-05-19 22:44:13.938
244.0, 20835.580925414673, 16851.315421022824, 47467.28211251285, 28918.217589642718, 33362.772567602704, -816.5986319301883, 9316.788234327822, -109.79176876446829, 0.0, 0.0, 18389.58482618151, -8810.454167181751, 6304.465985830544, -3220.5734515873733, -27325.856962902184, -33069.42827337125, 0.06, -0.002, 1.032, 192.0, 0.0, 0.0, 0.0, 0.0, 0.0, 0.0, 0.0, 0.0, 0.0, 1.747687453945866E9, 0.0, 2025-05-19 22:44:13.945
246.0, 20845.572155186197, 16864.01121187344, 47469.76315614738, 28923.380842611892, 33343.43830864887, -828.9144431250625, 9344.794970130322, -90.61397202181483, 0.0, 0.0, 18378.654823142868, -8820.355989975451, 6280.996654152472, -3266.7968591209483, -27361.150367397116, -33115.294052993544, 0.06, -0.002, 1.032, 192.0, 0.0, 0.0, 0.0, 0.0, 0.0, 0.0, 0.0, 0.0, 0.0, 1.747687453953853E9, 0.0, 2025-05-19 22:44:13.953
248.0, 20847.203832531435, 16866.469903763522, 47477.27334228437, 28933.930865994796, 33367.93582057188, -784.8591548036522, 9361.42466800507, -103.19800415015271, 0.0, 0.0, 18394.390451239404, -8801.044082766066, 6302.700198018575, -3224.619117333784, -27326.21459081347, -33074.479767618155, 0.06, -0.002, 1.032, 192.0, 0.0, 0.0, 0.0, 0.0, 0.0, 0.0, 0.0, 0.0, 0.0, 1.747687453962921E9, 0.0, 2025-05-19 22:44:13.962
250.0, 20844.678085407984, 16860.993726371973, 47473.630007938154, 28925.481906590692, 33353.071910509105, -799.186622999504, 9323.672571620056, -81.13683237276464, 0.0, 0.0, 18391.708241904766, -8809.448338681263, 6302.588439296298, -3242.1205332422896, -27345.07946313375, -33085.05214274552, 0.058, 0.004, 1.028, 192.0, 0.5, 104.0, 0.0, 16.0, 16.0, 16.0, 0.0, 0.0, 0.0, 1.747687453970946E9, 0.0, 2025-05-19 22:44:13.970
252.0, 20850.89187036656, 16867.140456097182, 47479.284999285344, 28931.807450271543, 33365.097149026056, -819.7278761539312, 9375.863894923199, -81.0250736504881, 0.0, 0.0, 18395.709204162267, -8804.1286235009, 6293.826555469818, -3244.623928621284, -27334.305922306292, -33092.02588701557, 0.058, 0.004, 1.028, 192.0, 0.0, 0.0, 0.0, 0.0, 0.0, 0.0, 0.0, 0.0, 0.0, 1.747687453977947E9, 0.0, 2025-05-19 22:44:13.977
254.0, 20832.27286723529, 16847.269755276415, 47461.51536244337, 28917.703499520245, 33348.087471495564, -793.7775008413197, 9330.556908912291, -98.52648955899353, 0.0, 0.0, 18389.853047114975, -8811.437643937785, 6301.582610795809, -3224.8873382672477, -27327.6003989697, -33070.143529193825, 0.058, 0.004, 1.028, 192.0, 0.0, 0.0, 0.0, 0.0, 0.0, 0.0, 0.0, 0.0, 0.0, 1.747687453985963E9, 0.0, 2025-05-19 22:44:13.985
0.0, 20846.89090810906, 16861.351354283255, 47474.70289167201, 28929.10288919245, 33346.94753252835, -816.2633557633586, 9348.572414943268, -84.31078008541824, 0.0, 0.0, 18378.543064420588, -8818.947830074767, 6282.047186141871, -3269.5684754334065, -27365.397198843624, -33112.231864003166, 0.058, 0.004, 1.028, 192.0, 0.0, 0.0, 0.0, 0.0, 0.0, 0.0, 0.0, 0.0, 0.0, 1.747687453994999E9, 0.0, 2025-05-19 22:44:13.994
2.0, 20854.55755645723, 16869.71090670954, 47480.38023476365, 28936.747185796165, 33375.80363462015, -788.7260065944204, 9356.842560391731, -96.44777732464998, 0.0, 0.0, 18403.12998332143, -8794.763242574125, 6309.67394228863, -3218.1371114417448, -27314.5469802078, -33067.88600300384, 0.058, 0.004, 1.028, 192.0, 0.0, 0.0, 0.0, 0.0, 0.0, 0.0, 0.0, 0.0, 0.0, 1.747687454002039E9, 0.0, 2025-05-19 22:44:14.002
4.0, 20842.957001084924, 16857.640964703674, 47467.41622297958, 28920.229246643696, 33349.45092790734, -785.283837948303, 9314.709522093479, -89.18346037667519, 0.0, 0.0, 18391.887055860407, -8811.705864871248, 6301.023817184427, -3245.227425721577, -27347.314637579282, -33089.67895384776, 0.06, 0.002, 1.026, 192.0, 0.5, 112.0, 0.0, 8.0, 16.0, 8.0, 0.0, 0.0, 0.0, 1.747687454010054E9, 0.0, 2025-05-19 22:44:14.010
6.0, 20847.092073809155, 16862.3795345282, 47472.24419978192, 28931.092194448975, 33355.865878566015, -830.5237687258445, 9370.588883231745, -97.20773663613042, 0.0, 0.0, 18387.93079709182, -8806.74377760217, 6292.507802546955, -3251.329451957876, -27342.821936943765, -33101.950061553725, 0.06, 0.002, 1.026, 192.0, 0.0, 0.0, 0.0, 0.0, 0.0, 0.0, 0.0, 0.0, 0.0, 1.747687454018127E9, 0.0, 2025-05-19 22:44:14.018
8.0, 20835.69268413695, 16853.05885709034, 47466.58920843473, 28926.219514157718, 33355.66471286592, -808.8425766041967, 9327.762940855377, -95.33019010188463, 0.0, 0.0, 18389.83069537052, -8808.17428924731, 6306.969381209538, -3225.2449661785326, -27333.478907761444, -33072.870442017374, 0.06, 0.002, 1.026, 192.0, 0.0, 0.0, 0.0, 0.0, 0.0, 0.0, 0.0, 0.0, 0.0, 1.747687454027115E9, 0.0, 2025-05-19 22:44:14.027
10.0, 20852.210623289422, 16866.894586908173, 47478.99442660742, 28939.027063730606, 33350.79203257466, -817.2244807749369, 9359.748287170922, -73.26901832449656, 0.0, 0.0, 18390.16597153735, -8807.771957847113, 6296.53111654891, -3257.4761816830855, -27356.03181791685, -33101.8606545759, 0.06, 0.002, 1.026, 192.0, 0.0, 0.0, 0.0, 0.0, 0.0, 0.0, 0.0, 0.0, 0.0, 1.747687454034204E9, 0.0, 2025-05-19 22:44:14.034
12.0, 20853.23880353437, 16871.4319910326, 47485.47643249946, 28944.145613210872, 33373.0767217966, -791.6987886069761, 9375.036880378351, -84.78016671897969, 0.0, 0.0, 18406.125117078438, -8792.729233828692, 6317.228831914525, -3210.269297393477, -27311.08245981723, -33060.59933431141, 0.06, 0.002, 1.026, 192.0, 0.0, 0.0, 0.0, 0.0, 0.0, 0.0, 0.0, 0.0, 0.0, 1.747687454042199E9, 0.0, 2025-05-19 22:44:14.042
14.0, 20851.18244304448, 16868.816836931328, 47481.58722896424, 28936.031929973597, 33351.954323286336, -779.0029977563618, 9320.230402973939, -75.28067532547419, 0.0, 0.0, 18402.280617032127, -8798.674797853804, 6315.463044102556, -3229.491797625041, -27335.64702697361, -33072.73633155064, 0.054, 0.0, 1.028, 192.0, 0.5, 88.0, 0.0, 0.0, 16.0, 16.0, 0.0, 0.0, 0.0, 1.747687454050227E9, 0.0, 2025-05-19 22:44:14.050
16.0, 20861.240728049368, 16879.34450856978, 47484.805880165804, 28945.643180089377, 33361.20794549083, -807.9485068259844, 9380.982444403464, -79.30398932742946, 0.0, 0.0, 18404.180515310825, -8793.042158251066, 6308.086968432304, -3233.1127802268006, -27328.807393170286, -33082.01230549959, 0.054, 0.0, 1.028, 192.0, 0.0, 0.0, 0.0, 0.0, 0.0, 0.0, 0.0, 0.0, 0.0, 1.747687454058277E9, 0.0, 2025-05-19 22:44:14.058
18.0, 20851.94240235596, 16869.66620322063, 47483.285961542846, 28938.758842797142, 33366.70647462684, -791.6317333736102, 9320.632734374134, -86.05421615293218, 0.0, 0.0, 18402.481782732222, -8793.578600117993, 6320.983924983016, -3211.0516084494125, -27319.799640154797, -33058.40886335479, 0.054, 0.0, 1.028, 192.0, 0.0, 0.0, 0.0, 0.0, 0.0, 0.0, 0.0, 0.0, 0.0, 1.7476874540663E9, 0.0, 2025-05-19 22:44:14.066
20.0, 20860.436065248974, 16877.71283122454, 47485.789356921836, 28938.423566630314, 33352.98250353128, -799.3207334662359, 9361.84935114972, -69.53627700046027, 0.0, 0.0, 18400.64893968689, -8799.568867632017, 6304.041302685893, -3250.3906786907532, -27346.152346867606, -33095.15513123931, 0.054, 0.0, 1.028, 192.0, 0.0, 0.0, 0.0, 0.0, 0.0, 0.0, 0.0, 0.0, 0.0, 1.747687454074341E9, 0.0, 2025-05-19 22:44:14.074
22.0, 20845.54980344174, 16864.212377573538, 47472.847696882214, 28928.141764180873, 33356.40232043294, -772.6103988421439, 9378.322586813281, -93.63145752328128, 0.0, 0.0, 18402.54883796559, -8799.993550776668, 6308.310485876857, -3218.628849819762, -27317.765631409366, -33069.651790815806, 0.054, 0.0, 1.028, 192.0, 0.0, 0.0, 0.0, 0.0, 0.0, 0.0, 0.0, 0.0, 0.0, 1.747687454082367E9, 0.0, 2025-05-19 22:44:14.082
24.0, 20845.54980344174, 16861.440761261078, 47471.35013000371, 28922.66558678932, 33350.121480241, -819.7055244094759, 9317.257620961384, -93.05031216744331, 0.0, 0.0, 18390.322433748537, -8812.599934649461, 6300.8002997398735, -3249.0719257678898, -27351.628524259155, -33092.227052715665, 0.058, 0.0, 1.03, 192.0, 0.5, 104.0, 0.0, 0.0, 16.0, 24.0, 0.0, 0.0, 0.0, 1.747687454090428E9, 0.0, 2025-05-19 22:44:14.090
26.0, 20851.428312233485, 16866.514607252433, 47477.63097019565, 28931.226304915705, 33355.19532623236, -814.8551958626742, 9392.985331175963, -78.18640210466411, 0.0, 0.0, 18396.200942540283, -8805.402672934852, 6293.8712589587285, -3244.2439489655435, -27336.92107640756, -33095.91509055079, 0.058, 0.0, 1.03, 192.0, 0.0, 0.0, 0.0, 0.0, 0.0, 0.0, 0.0, 0.0, 0.0, 1.747687454098426E9, 0.0, 2025-05-19 22:44:14.098
28.0, 20840.945344083946, 16857.90918563714, 47474.76994690537, 28933.908514250343, 33359.442157678866, -789.7765385838197, 9329.908708323086, -95.75487324653545, 0.0, 0.0, 18394.88218961742, -8808.442510180774, 6308.109320176759, -3215.141977684734, -27323.688843690023, -33064.3544273799, 0.058, 0.0, 1.03, 192.0, 0.0, 0.0, 0.0, 0.0, 0.0, 0.0, 0.0, 0.0, 0.0, 1.747687454106491E9, 0.0, 2025-05-19 22:44:14.106
30.0, 20857.038600091768, 16875.76822945693, 47490.34911279072, 28949.800604558066, 33365.924163570904, -801.1759282560264, 9357.401354003114, -74.76658520300212, 0.0, 0.0, 18397.899675118886, -8800.664103110326, 6301.20263114007, -3245.741515844049, -27342.620771243666, -33091.84707305993, 0.058, 0.0, 1.03, 192.0, 0.0, 0.0, 0.0, 0.0, 0.0, 0.0, 0.0, 0.0, 0.0, 1.747687454114504E9, 0.0, 2025-05-19 22:44:14.114
32.0, 20853.395265745552, 16872.907206166652, 47488.091586600734, 28948.370092912926, 33367.28761998268, -778.7794803118087, 9376.869723423688, -92.69268425615839, 0.0, 0.0, 18410.30489329158, -8785.867248280912, 6321.207442427569, -3203.004980445502, -27305.203951025484, -33053.04444468551, 0.058, 0.0, 1.03, 192.0, 0.0, 0.0, 0.0, 0.0, 0.0, 0.0, 0.0, 0.0, 0.0, 1.747687454121489E9, 0.0, 2025-05-19 22:44:14.121
34.0, 20838.106672538124, 16855.00345885795, 47470.478411969954, 28927.024176958108, 33349.562686629615, -808.3508382261799, 9314.106024993185, -89.60814352132601, 0.0, 0.0, 18392.937587849807, -8808.062530525032, 6305.293000375391, -3237.0466872509346, -27346.442919545523, -33081.11823572138, 0.062, -0.002, 1.038, 192.0, 0.5, 120.0, 127.5, 120.0, 16.0, 56.0, 0.0, 0.0, 0.0, 1.747687454130588E9, 0.0, 2025-05-19 22:44:14.130
36.0, 20852.881175623083, 16870.068534620827, 47491.44434826903, 28945.643180089377, 33363.64428563646, -801.9805910564174, 9375.193342589539, -86.4118440642171, 0.0, 0.0, 18398.3914134969, -8801.468765910717, 6300.353264850768, -3238.5666058738957, -27333.747128694908, -33089.96952652568, 0.062, -0.002, 1.038, 192.0, 0.0, 0.0, 0.0, 0.0, 0.0, 0.0, 0.0, 0.0, 0.0, 1.747687454138563E9, 0.0, 2025-05-19 22:44:14.138
38.0, 20839.872460350092, 16857.462150748033, 47479.977903363455, 28930.198124670762, 33359.95624780133, -800.8853555781074, 9331.316868223772, -99.0182279370103, 0.0, 0.0, 18409.768451424654, -8799.41240542083, 6320.626297071731, -3210.0010764600133, -27316.960968608975, -33060.21935465567, 0.062, -0.002, 1.038, 192.0, 0.0, 0.0, 0.0, 0.0, 0.0, 0.0, 0.0, 0.0, 0.0, 1.747687454146568E9, 0.0, 2025-05-19 22:44:14.146
40.0, 20843.247573762845, 16862.3795345282, 47477.92154287357, 28931.248656660162, 33344.89117203846, -808.2390795039034, 9361.290557538337, -88.11057664282045, 0.0, 0.0, 18393.719898905743, -8811.728216615704, 6296.2181921265355, -3259.1525625172335, -27357.26116386189, -33105.70515462222, 0.062, -0.002, 1.038, 192.0, 0.0, 0.0, 0.0, 0.0, 0.0, 0.0, 0.0, 0.0, 0.0, 1.747687454154611E9, 0.0, 2025-05-19 22:44:14.154
42.0, 20847.114425553613, 16863.653583962154, 47481.8554498977, 28934.10967995044, 33372.20500376284, -810.9436405829955, 9361.536426727347, -99.80053899294603, 0.0, 0.0, 18398.749041408188, -8804.463899667728, 6307.908154476661, -3217.623021319273, -27316.22336104195, -33070.903488505304, 0.062, -0.002, 1.038, 192.0, 0.0, 0.0, 0.0, 0.0, 0.0, 0.0, 0.0, 0.0, 0.0, 1.747687454162634E9, 0.0, 2025-05-19 22:44:14.162
44.0, 20850.55659419973, 16866.156979341147, 47485.297618543824, 28939.988188742187, 33362.012608291225, -800.2371549889035, 9326.108911765685, -75.43713753666134, 0.0, 0.0, 18397.96673035225, -8804.374492689907, 6310.612715555753, -3231.659916837206, -27337.345759552212, -33075.88792751884, 0.06, -0.006, 1.036, 192.0, 0.5, 112.0, 127.5, 104.0, 16.0, 48.0, 0.0, 0.0, 0.0, 1.747687454169768E9, 0.0, 2025-05-19 22:44:14.169
46.0, 20856.099826824648, 16870.113238109738, 47487.15281333361, 28944.30207542206, 33363.376064703, -809.2896114933028, 9386.52567702838, -89.74225398805785, 0.0, 0.0, 18404.806364155575, -8792.572771617504, 6306.947029465084, -3232.621041848784, -27326.84043965822, -33083.04048574454, 0.06, -0.006, 1.036, 192.0, 0.0, 0.0, 0.0, 0.0, 0.0, 0.0, 0.0, 0.0, 0.0, 1.747687454177705E9, 0.0, 2025-05-19 22:44:14.177
48.0, 20843.336980740667, 16860.05495310485, 47476.31221727279, 28932.701520049755, 33361.9232013134, -765.3237301497138, 9328.411141444582, -96.31366685791814, 0.0, 0.0, 18400.62658794243, -8800.664103110326, 6315.351285380279, -3214.5384805844405, -27324.493506490413, -33063.080377945946, 0.06, -0.006, 1.036, 192.0, 0.0, 0.0, 0.0, 0.0, 0.0, 0.0, 0.0, 0.0, 0.0, 1.747687454186776E9, 0.0, 2025-05-19 22:44:14.186
50.0, 20854.82577739069, 16870.873197421217, 47483.53183073185, 28942.24571493217, 33351.529640141685, -814.5646231847553, 9364.173932573072, -75.41478579220603, 0.0, 0.0, 18394.613968683956, -8804.9779897902, 6299.369788094734, -3249.898940312736, -27350.08625389174, -33096.80916032901, 0.06, -0.006, 1.036, 192.0, 0.0, 0.0, 0.0, 0.0, 0.0, 0.0, 0.0, 0.0, 0.0, 1.747687454194863E9, 0.0, 2025-05-19 22:44:14.194
52.0, 20853.50702446783, 16867.028697374906, 47487.08575810025, 28944.749110311164, 33367.80171010515, -780.7017303349651, 9366.945548885531, -89.04934990994333, 0.0, 0.0, 18410.93074213633, -8785.710786069725, 6320.067503460348, -3204.033160690446, -27309.65194817209, -33056.643075542815, 0.06, -0.006, 1.036, 192.0, 0.0, 0.0, 0.0, 0.0, 0.0, 0.0, 0.0, 0.0, 0.0, 1.747687454201836E9, 0.0, 2025-05-19 22:44:14.201
54.0, 20843.046408062746, 16856.277508291903, 47469.91961835857, 28930.242828159673, 33347.77454707319, -817.5821086862218, 9323.516109408869, -82.38853006226184, 0.0, 0.0, 18397.430288485324, -8804.374492689907, 6311.260916144957, -3234.7444575720383, -27346.3535125677, -33078.190157197736, 0.062, -0.006, 1.038, 192.0, 0.5, 120.0, 127.5, 104.0, 16.0, 56.0, 0.0, 0.0, 0.0, 1.747687454209907E9, 0.0, 2025-05-19 22:44:14.209
56.0, 20848.813158132216, 16860.792560671875, 47477.94389461802, 28935.830764273498, 33365.790053104174, -813.9164225955514, 9380.46835428099, -91.19511737765282, 0.0, 0.0, 18391.238855271204, -8805.290914212575, 6296.776985737919, -3243.104009998323, -27342.911343921583, -33089.94717478123, 0.062, -0.006, 1.038, 192.0, 0.0, 0.0, 0.0, 0.0, 0.0, 0.0, 0.0, 0.0, 0.0, 1.747687454218853E9, 0.0, 2025-05-19 22:44:14.218
58.0, 20846.60033543114, 16859.25029030446, 47479.93319987455, 28933.372072383416, 33371.08741654008, -783.7192158364315, 9329.126397267151, -96.29131511346283, 0.0, 0.0, 18395.35157625098, -8806.386149690885, 6311.395026611689, -3212.9291549836585, -27322.325387278248, -33061.627514556356, 0.062, -0.006, 1.038, 192.0, 0.0, 0.0, 0.0, 0.0, 0.0, 0.0, 0.0, 0.0, 0.0, 1.747687454225927E9, 0.0, 2025-05-19 22:44:14.225
60.0, 20848.544937198752, 16861.66427870563, 47476.96041786199, 28933.483831105692, 33354.815346576615, -793.285762463303, 9356.95431911401, -80.57803876138196, 0.0, 0.0, 18392.848180871988, -8809.35893170344, 6298.34160784979, -3251.0612310244123, -27350.622695758666, -33097.43500917376, 0.062, -0.006, 1.038, 192.0, 0.0, 0.0, 0.0, 0.0, 0.0, 0.0, 0.0, 0.0, 0.0, 1.747687454233918E9, 0.0, 2025-05-19 22:44:14.233
62.0, 20855.138701813066, 16870.940252654585, 47487.42103426708, 28944.145613210872, 33379.22345152181, -796.996152042884, 9378.657862980112, -80.53333527247135, 0.0, 0.0, 18405.856896144975, -8793.869172795912, 6316.491224347499, -3209.4199311041752, -27314.032890085327, -33059.95113372221, 0.062, -0.006, 1.038, 192.0, 0.0, 0.0, 0.0, 0.0, 0.0, 0.0, 0.0, 0.0, 0.0, 1.747687454241942E9, 0.0, 2025-05-19 22:44:14.241
64.0, 20843.918126096505, 16862.826569417306, 47472.62417943766, 28929.5275723371, 33347.5733813731, -810.1836812715151, 9326.08656002123, -74.40895729171721, 0.0, 0.0, 18396.15623905137, -8805.201507234753, 6310.746826022485, -3234.6326988497617, -27346.12999512315, -33077.609011841894, 0.066, -0.006, 1.042, 192.0, 1.0, 8.0, 127.5, 104.0, 16.0, 72.0, 0.0, 0.0, 0.0, 1.747687454250919E9, 0.0, 2025-05-19 22:44:14.250
66.0, 20857.060951836225, 16874.158903856147, 47488.82919416776, 28949.331217924504, 33361.43146293538, -801.9805910564174, 9391.443060808548, -70.13977410075356, 0.0, 0.0, 18402.92881762133, -8794.852649551947, 6306.276477131424, -3231.235233692555, -27334.26121881738, -33077.36314265289, 0.066, -0.006, 1.042, 192.0, 0.0, 0.0, 0.0, 0.0, 0.0, 0.0, 0.0, 0.0, 0.0, 1.747687454257997E9, 0.0, 2025-05-19 22:44:14.257
68.0, 20843.35933248512, 16858.400924015157, 47474.054691082805, 28931.226304915705, 33363.331361214085, -772.9680267534288, 9331.048647290309, -88.82583246539026, 0.0, 0.0, 18400.470125731244, -8799.077129254, 6316.960610981061, -3206.0448176914238, -27319.84434364371, -33053.44677608571, 0.066, -0.006, 1.042, 192.0, 0.0, 0.0, 0.0, 0.0, 0.0, 0.0, 0.0, 0.0, 0.0, 1.747687454265954E9, 0.0, 2025-05-19 22:44:14.265
70.0, 20854.714018668416, 16870.515569509935, 47478.86031614069, 28931.360415382438, 33354.77064308771, -802.1147015231493, 9348.795932387822, -77.2029253486306, 0.0, 0.0, 18390.255378515172, -8813.35989396094, 6293.848907214273, -3252.5364461584627, -27356.03181791685, -33098.105561507415, 0.066, -0.006, 1.042, 192.0, 0.0, 0.0, 0.0, 0.0, 0.0, 0.0, 0.0, 0.0, 0.0, 1.747687454275044E9, 0.0, 2025-05-19 22:44:14.275
72.0, 20848.03084707628, 16865.82170317432, 47484.20238306551, 28941.19518294277, 33369.54514617266, -799.0301607883168, 9374.008700133409, -89.13875688776457, 0.0, 0.0, 18399.441945486302, -8798.920667042812, 6308.444596343589, -3210.0010764600133, -27318.145611065105, -33061.26988664507, 0.066, -0.006, 1.042, 192.0, 0.0, 0.0, 0.0, 0.0, 0.0, 0.0, 0.0, 0.0, 0.0, 1.747687454283074E9, 0.0, 2025-05-19 22:44:14.283
74.0, 20837.681989393473, 16855.919880380618, 47477.0051213509, 28929.43816535928, 33350.121480241, -792.123471751627, 9328.455844933493, -78.23110559357472, 0.0, 0.0, 18393.07169831654, -8807.146109002366, 6305.158889908658, -3228.8212452913817, -27339.759747953387, -33073.63040132885, 0.068, -0.002, 1.036, 192.0, 1.0, 16.0, 127.5, 120.0, 16.0, 48.0, 0.0, 0.0, 0.0, 1.747687454290045E9, 0.0, 2025-05-19 22:44:14.290
76.0, 20854.26698377931, 16872.907206166652, 47490.23735406844, 28946.7831190566, 33369.23222175029, -804.1040067796716, 9394.214677121005, -70.38564328976194, 0.0, 0.0, 18398.41376524136, -8800.328826943496, 6300.308561361857, -3227.234271435055, -27327.734509436432, -33076.983162997145, 0.068, -0.002, 1.036, 192.0, 0.0, 0.0, 0.0, 0.0, 0.0, 0.0, 0.0, 0.0, 0.0, 1.747687454299094E9, 0.0, 2025-05-19 22:44:14.299
78.0, 20837.167899271, 16856.14339782517, 47479.12853707415, 28932.14272643837, 33367.19821300486, -791.832899073708, 9334.602574658702, -87.08239639787632, 0.0, 0.0, 18397.296178018594, -8803.145146744866, 6312.624372556731, -3204.2790298794544, -27319.285550032324, -33051.323360362454, 0.068, -0.002, 1.036, 192.0, 0.0, 0.0, 0.0, 0.0, 0.0, 0.0, 0.0, 0.0, 0.0, 1.747687454307128E9, 0.0, 2025-05-19 22:44:14.307
80.0, 20847.159129042524, 16863.00538337295, 47480.469641741474, 28934.467307861723, 33350.970846530305, -647.0606502366842, 9356.172008058073, -74.6771782251809, 0.0, 0.0, 18390.657709915366, -8811.41529219333, 6295.458232815055, -3246.389716433253, -27350.7568062254, -33091.958831782205, 0.068, -0.002, 1.036, 192.0, 0.0, 0.0, 0.0, 0.0, 0.0, 0.0, 0.0, 0.0, 0.0, 1.747687454314166E9, 0.0, 2025-05-19 22:44:14.314
82.0, 20846.332114497676, 16861.552519983354, 47481.810746408795, 28936.54602009607, 33373.36729447452, -474.92986618636445, 9367.370232030182, -94.36906509030642, 0.0, 0.0, 18399.576055953035, -8801.513469399628, 6310.1880324111025, -3208.7046752816054, -27316.491581975413, -33061.11342443388, 0.068, -0.002, 1.036, 192.0, 0.0, 0.0, 0.0, 0.0, 0.0, 0.0, 0.0, 0.0, 0.0, 1.747687454322144E9, 0.0, 2025-05-19 22:44:14.322
84.0, 20847.85203312064, 16864.659412462643, 47481.810746408795, 28933.126203194406, 33356.71524485532, -449.3371187850379, 9327.338257710726, -76.44296603715016, 0.0, 0.0, 18394.25634077267, -8810.208297992742, 6308.176375410125, -3232.330469170865, -27345.146518367117, -33078.10075021991, 0.062, -0.004, 1.036, 192.0, 0.5, 96.0, 127.5, 104.0, 16.0, 48.0, 0.0, 0.0, 0.0, 1.747687454330193E9, 0.0, 2025-05-19 22:44:14.330
86.0, 20858.066780336714, 16876.327023068312, 47491.310237802296, 28944.704406822257, 33372.853204352046, -415.9212608243538, 9389.118479385195, -78.7898992049574, 0.0, 0.0, 18404.73930892221, -8799.568867632017, 6309.383369610712, -3227.390733646242, -27327.30982629178, -33080.22416594317, 0.062, -0.004, 1.036, 192.0, 0.0, 0.0, 0.0, 0.0, 0.0, 0.0, 0.0, 0.0, 0.0, 1.747687454338275E9, 0.0, 2025-05-19 22:44:14.338
88.0, 20845.79567263075, 16864.212377573538, 47486.59401972223, 28938.267104419127, 33366.84058509357, -411.8085398445773, 9337.932984582541, -86.00951266402157, 0.0, 0.0, 18405.074585089038, -8799.59121937647, 6322.056808716871, -3200.590992044329, -27315.195180797004, -33050.8986772178, 0.062, -0.004, 1.036, 192.0, 0.0, 0.0, 0.0, 0.0, 0.0, 0.0, 0.0, 0.0, 0.0, 1.747687454345285E9, 0.0, 2025-05-19 22:44:14.345
90.0, 20858.714980925917, 16874.516531767433, 47489.05271161231, 28945.687883578288, 33350.99319827476, -404.6783333633344, 9369.493647753436, -67.23404732156365, 0.0, 0.0, 18401.006567598175, -8802.452242666752, 6307.394064354189, -3239.8630070523036, -27346.442919545523, -33085.27566019007, 0.062, -0.004, 1.036, 192.0, 0.0, 0.0, 0.0, 0.0, 0.0, 0.0, 0.0, 0.0, 0.0, 1.747687454354331E9, 0.0, 2025-05-19 22:44:14.354
92.0, 20863.341792028164, 16883.457229549556, 47499.490976272944, 28957.511956395145, 33378.575250932605, -339.83592269848856, 9372.220560576983, -77.73936721555796, 0.0, 0.0, 18420.720806207755, -8780.905161011835, 6330.3940093987, -3196.5676780423737, -27309.45078247199, -33045.333092848436, 0.062, -0.004, 1.036, 192.0, 0.0, 0.0, 0.0, 0.0, 0.0, 0.0, 0.0, 0.0, 0.0, 1.747687454362361E9, 0.0, 2025-05-19 22:44:14.362
94.0, 20863.565309472717, 16881.91495918214, 47489.2091738235, 28947.16309871234, 33367.958172316336, -385.61229534295745, 9326.13126351014, -71.57028574589322, 0.0, 0.0, 18410.32724503604, -8792.349254172952, 6326.057770974371, -3220.618155076284, -27335.110585106682, -33063.3038953905, 0.06, -0.003, 1.033, 192.0, 0.5, 104.0, 127.5, 120.0, 16.0, 24.0, 0.0, 0.0, 0.0, 1.747687454369419E9, 0.0, 2025-05-19 22:44:14.369
96.0, 20869.197949075457, 16887.61465401824, 47496.54054600484, 28951.812261559044, 33378.39643697697, -416.7482753692002, 9387.911485184608, -79.50515502752722, 0.0, 0.0, 18414.88700090492, -8783.430908135284, 6320.983924983016, -3220.4840446095523, -27322.59360821171, -33068.176575681755, 0.06, -0.003, 1.033, 192.0, 0.0, 0.0, 0.0, 0.0, 0.0, 0.0, 0.0, 0.0, 0.0, 1.74768745437837E9, 0.0, 2025-05-19 22:44:14.378
98.0, 20845.393341230552, 16865.598185729767, 47482.30248478681, 28934.780232284098, 33371.22152700681, -393.0554262465747, 9327.584126899736, -92.737387745069, 0.0, 0.0, 18405.11928857795, -8796.953713530746, 6323.6884860621085, -3204.8601752352924, -27318.905570376584, -33053.11149991888, 0.06, -0.003, 1.033, 192.0, 0.0, 0.0, 0.0, 0.0, 0.0, 0.0, 0.0, 0.0, 0.0, 1.747687454386427E9, 0.0, 2025-05-19 22:44:14.386
100.0, 20848.142605798555, 16866.782828185897, 47480.894324886125, 28933.43912761678, 33351.93197154188, -422.1797492718398, 9357.177836558561, -75.72771021458033, 0.0, 0.0, 18395.329224506524, -8808.576620647505, 6301.359093351257, -3245.942681544147, -27350.153309125104, -33092.45057016022, 0.06, -0.003, 1.033, 192.0, 0.0, 0.0, 0.0, 0.0, 0.0, 0.0, 0.0, 0.0, 0.0, 1.747687454394448E9, 0.0, 2025-05-19 22:44:14.394
102.0, 20850.467187221908, 16871.119066610227, 47486.6610749556, 28940.83755503149, 33377.77058813222, -396.0282082591305, 9373.740479199943, -83.70728298512495, 0.0, 0.0, 18403.912294377362, -8799.680626354293, 6314.099587690782, -3204.7037130241056, -27313.675262174045, -33056.26309588708, 0.06, -0.003, 1.033, 192.0, 0.0, 0.0, 0.0, 0.0, 0.0, 0.0, 0.0, 0.0, 0.0, 1.747687454401577E9, 0.0, 2025-05-19 22:44:14.401
104.0, 20848.25436452083, 16870.359107298747, 47484.3588452767, 28937.998883485663, 33357.13992799997, -395.20119371428416, 9330.825129845754, -70.76562294550216, 0.0, 0.0, 18396.960901851762, -8807.74960610266, 6312.15498592317, -3223.881509766759, -27340.676169476053, -33068.48950010413, 0.06, -5.0E-4, 1.0314999999999999, 192.0, 0.5, 112.0, 0.0, 8.0, 16.0, 24.0, 0.0, 0.0, 0.0, 1.747687454410661E9, 0.0, 2025-05-19 22:44:14.410
106.0, 20854.959887857425, 16877.511665524446, 47490.08089185726, 28946.35843591195, 33368.24874499426, -399.67154260534556, 9390.95132243053, -72.86668692430102, 0.0, 0.0, 18404.649901944387, -8796.417271663819, 6309.986866711005, -3222.7639225439934, -27328.248599558905, -33072.06577921698, 0.06, -5.0E-4, 1.0314999999999999, 192.0, 0.0, 0.0, 0.0, 0.0, 0.0, 0.0, 0.0, 0.0, 0.0, 1.747687454418552E9, 0.0, 2025-05-19 22:44:14.418
108.0, 20842.107634795622, 16866.112275852236, 47481.25195279741, 28937.90947650784, 33362.25847748023, -394.9776762697311, 9342.582147429246, -81.06977713939871, 0.0, 0.0, 18400.313663520057, -8797.713672842227, 6321.118035449748, -3198.422872832164, -27316.715099419966, -33046.13775564882, 0.06, -5.0E-4, 1.0314999999999999, 192.0, 0.0, 0.0, 0.0, 0.0, 0.0, 0.0, 0.0, 0.0, 0.0, 1.747687454425672E9, 0.0, 2025-05-19 22:44:14.425
110.0, 20855.384571002076, 16880.596206259277, 47488.20334532301, 28940.502278864657, 33357.43050067789, -421.1292172824404, 9368.75604018641, -59.45564025111678, 0.0, 0.0, 18398.659634430365, -8804.329789200996, 6305.941200964595, -3238.3877919182532, -27347.113471879184, -33085.2086049567, 0.06, -5.0E-4, 1.0314999999999999, 192.0, 0.0, 0.0, 0.0, 0.0, 0.0, 0.0, 0.0, 0.0, 0.0, 1.747687454433603E9, 0.0, 2025-05-19 22:44:14.433
112.0, 20855.563384957717, 16879.523322525423, 47490.326761046264, 28944.34677891097, 33378.19527127687, -381.9242575078318, 9386.771546217387, -74.63247473627028, 0.0, 0.0, 18410.818983414054, -8795.45614665224, 6321.185090683114, -3196.2771053644547, -27306.88033185963, -33049.378758594845, 0.06, -5.0E-4, 1.0314999999999999, 192.0, 0.0, 0.0, 0.0, 0.0, 0.0, 0.0, 0.0, 0.0, 0.0, 1.74768745444268E9, 0.0, 2025-05-19 22:44:14.442
114.0, 20843.962829585413, 16863.988860128982, 47482.235429553446, 28934.713177050733, 33363.24195423626, -396.8775745484322, 9334.200243258505, -69.24570432254129, 0.0, 0.0, 18397.519695463146, -8807.771957847113, 6310.813881255852, -3222.7192190550827, -27339.78209969784, -33069.18240418225, 0.059, -0.0022500000000000003, 1.02975, 192.0, 0.5, 104.0, 127.5, 112.0, 16.0, 16.0, 0.0, 0.0, 0.0, 1.747687454449724E9, 0.0, 2025-05-19 22:44:14.449
116.0, 20858.782036159282, 16878.562197513842, 47491.77962443586, 28945.86669753393, 33367.68995138287, -386.7969377990887, 9406.418729593603, -65.15533508722008, 0.0, 0.0, 18406.77331766764, -8799.904143798845, 6308.53400332141, -3221.221652176577, -27327.108660591683, -33076.17850019676, 0.059, -0.0022500000000000003, 1.02975, 192.0, 0.0, 0.0, 0.0, 0.0, 0.0, 0.0, 0.0, 0.0, 0.0, 1.747687454457728E9, 0.0, 2025-05-19 22:44:14.457
118.0, 20849.483710465876, 16865.66524096313, 47487.15281333361, 28940.479927120203, 33379.11169279953, -419.6987056373007, 9335.027257803353, -84.89192544125622, 0.0, 0.0, 18410.796631669597, -8798.563039131528, 6326.102474463281, -3192.253791362499, -27314.211704040972, -33043.701415503194, 0.059, -0.0022500000000000003, 1.02975, 192.0, 0.0, 0.0, 0.0, 0.0, 0.0, 0.0, 0.0, 0.0, 0.0, 1.747687454466743E9, 0.0, 2025-05-19 22:44:14.466
120.0, 20851.428312233485, 16870.53792125439, 47482.88363014265, 28936.814241029533, 33362.23612573578, -440.5528832141022, 9365.671499451579, -72.68787296865857, 0.0, 0.0, 18397.229122785226, -8810.49887067066, 6300.062692172849, -3235.169140716689, -27345.16887011157, -33084.11336947839, 0.059, -0.0022500000000000003, 1.02975, 192.0, 0.0, 0.0, 0.0, 0.0, 0.0, 0.0, 0.0, 0.0, 0.0, 1.747687454474815E9, 0.0, 2025-05-19 22:44:14.474
122.0, 20849.528413954784, 16867.34162179728, 47481.09549058622, 28940.34581665347, 33373.0767217966, -414.42369394584824, 9393.09708989824, -80.95801841712218, 0.0, 0.0, 18401.297140276092, -8800.1276612434, 6311.707951034064, -3195.807718730893, -27309.78605863882, -33048.66350277227, 0.059, -0.0022500000000000003, 1.02975, 192.0, 0.0, 0.0, 0.0, 0.0, 0.0, 0.0, 0.0, 0.0, 0.0, 1.747687454481803E9, 0.0, 2025-05-19 22:44:14.481
124.0, 20851.584774444673, 16863.653583962154, 47478.0556533403, 28932.030967716095, 33359.75508210124, -417.3741242139488, 9325.326600709748, -75.0124543920105, 0.0, 0.0, 18389.651881414877, -8815.9303445733, 6302.566087551843, -3225.5355388564517, -27343.023102643863, -33070.54586059402, 0.0595, -0.003125, 1.030875, 192.0, 0.5, 112.0, 127.5, 112.0, 16.0, 32.0, 0.0, 0.0, 0.0, 1.747687454489864E9, 0.0, 2025-05-19 22:44:14.489
126.0, 20865.46520775142, 16880.19387485908, 47489.34328429023, 28946.604305100955, 33378.307029999145, -405.7288653527338, 9401.635456280168, -76.89000092625629, 0.0, 0.0, 18407.6450357014, -8800.59704787696, 6307.863450987751, -3223.6803440666613, -27326.21459081347, -33075.35148565191, 0.0595, -0.003125, 1.030875, 192.0, 0.0, 0.0, 0.0, 0.0, 0.0, 0.0, 0.0, 0.0, 0.0, 1.747687454498853E9, 0.0, 2025-05-19 22:44:14.498
128.0, 20855.339867513165, 16872.63898523319, 47482.79422316483, 28939.116470708428, 33370.46156769533, -396.31878093704955, 9336.927156082053, -91.03865516646566, 0.0, 0.0, 18407.957960123775, -8802.094614755466, 6323.0402854729045, -3200.456881577597, -27318.950273865496, -33049.91520046177, 0.0595, -0.003125, 1.030875, 192.0, 0.0, 0.0, 0.0, 0.0, 0.0, 0.0, 0.0, 0.0, 0.0, 1.747687454505931E9, 0.0, 2025-05-19 22:44:14.505
130.0, 20862.60418446114, 16878.428087047112, 47492.38312153616, 28945.598476600466, 33353.206020975835, -416.59181315801305, 9372.555836743813, -72.4420037796502, 0.0, 0.0, 18410.88603864742, -8802.943981044767, 6312.0655789453485, -3231.8610825373034, -27339.491527019924, -33081.811139799494, 0.0595, -0.003125, 1.030875, 192.0, 0.0, 0.0, 0.0, 0.0, 0.0, 0.0, 0.0, 0.0, 0.0, 1.747687454513889E9, 0.0, 2025-05-19 22:44:14.513
132.0, 20865.420504262507, 16883.948967927572, 47490.63968546864, 28947.274857434615, 33367.89111708297, -403.5160426516584, 9387.375043317681, -80.95801841712218, 0.0, 0.0, 18416.20575382778, -8794.584428618482, 6325.96836399655, -3195.6065530307956, -27310.613073183667, -33049.42346208375, 0.0595, -0.003125, 1.030875, 192.0, 0.0, 0.0, 0.0, 0.0, 0.0, 0.0, 0.0, 0.0, 0.0, 1.747687454521954E9, 0.0, 2025-05-19 22:44:14.521
134.0, 20859.36318151512, 16878.606901002753, 47490.93025814656, 28942.82686028801, 33354.50242215424, -407.3158392090606, 9330.914536823575, -71.25736132351892, 0.0, 0.0, 18413.054157859584, -8802.116966499922, 6324.403741884678, -3218.718256797583, -27338.41864328607, -33065.382607624844, 0.057749999999999996, -0.0015625, 1.0294375, 192.0, 0.5, 96.0, 0.0, 0.0, 16.0, 16.0, 0.0, 0.0, 0.0, 1.747687454530947E9, 0.0, 2025-05-19 22:44:14.530
136.0, 20870.986088631882, 16889.939235441594, 47507.62701125467, 28958.69659885128, 33379.335210244084, -404.49951940769193, 9404.205906892528, -66.49643975453851, 0.0, 0.0, 18427.448681288803, -8785.844896536457, 6329.142311709204, -3208.0788264368566, -27314.435221485524, -33061.202831411705, 0.057749999999999996, -0.0015625, 1.0294375, 192.0, 0.0, 0.0, 0.0, 0.0, 0.0, 0.0, 0.0, 0.0, 0.0, 1.747687454537995E9, 0.0, 2025-05-19 22:44:14.537
138.0, 20849.282544765778, 16865.66524096313, 47485.87876389966, 28940.077595720006, 33370.37216071751, -405.6841618638232, 9340.99517357292, -80.24276259455236, 0.0, 0.0, 18416.809250928076, -8793.98093151819, 6332.7856460554185, -3191.4491285621084, -27308.623767927143, -33041.37683407984, 0.057749999999999996, -0.0015625, 1.0294375, 192.0, 0.0, 0.0, 0.0, 0.0, 0.0, 0.0, 0.0, 0.0, 0.0, 1.747687454546042E9, 0.0, 2025-05-19 22:44:14.546
140.0, 20851.78594014477, 16868.839188675785, 47487.599848222715, 28937.618903829924, 33362.81727109161, -466.1232788709735, 9365.716202940488, -68.39633803323962, 0.0, 0.0, 18400.090146075505, -8810.476518926205, 6303.6166195412425, -3239.5053791410187, -27351.427358559056, -33087.3096689355, 0.057749999999999996, -0.0015625, 1.0294375, 192.0, 0.0, 0.0, 0.0, 0.0, 0.0, 0.0, 0.0, 0.0, 0.0, 1.747687454554065E9, 0.0, 2025-05-19 22:44:14.554
142.0, 20857.597393703152, 16876.014098645937, 47495.17708959307, 28950.11352898044, 33388.27590802621, -450.0970780965183, 9379.909560669608, -76.33120731487362, 0.0, 0.0, 18417.368044539457, -8794.316207685019, 6322.772064539441, -3192.0973291513124, -27304.578102180734, -33044.99781668161, 0.057749999999999996, -0.0015625, 1.0294375, 192.0, 0.0, 0.0, 0.0, 0.0, 0.0, 0.0, 0.0, 0.0, 0.0, 1.747687454562082E9, 0.0, 2025-05-19 22:44:14.562
144.0, 20844.722788896896, 16860.43493276059, 47475.61931319467, 28927.06888044702, 33361.29735246865, -508.9268695028865, 9326.332429210237, -78.94636141614454, 0.0, 0.0, 18403.040576343607, -8807.682550869293, 6313.9431254795945, -3221.489873110041, -27340.497355520412, -33067.17074718127, 0.057874999999999996, -7.8125E-4, 1.02871875, 192.0, 0.5, 104.0, 0.0, 0.0, 16.0, 16.0, 0.0, 0.0, 0.0, 1.747687454570047E9, 0.0, 2025-05-19 22:44:14.570
146.0, 20858.826739648193, 16879.523322525423, 47481.63193245315, 28939.20587768625, 33366.72882637129, -530.362192435526, 9412.967790719007, -70.02801537847702, 0.0, 0.0, 18403.6440734439, -8807.50373691365, 6303.370750352234, -3230.452922636619, -27338.79862294181, -33083.01813400008, 0.057874999999999996, -7.8125E-4, 1.02871875, 192.0, 0.0, 0.0, 0.0, 0.0, 0.0, 0.0, 0.0, 0.0, 0.0, 1.747687454578127E9, 0.0, 2025-05-19 22:44:14.578
148.0, 20859.586698959673, 16876.036450390395, 47488.024531367366, 28943.05037773256, 33384.118483557526, -543.2367972417828, 9334.93785082553, -81.963846917611, 0.0, 0.0, 18411.869515403454, -8796.819603064014, 6326.616564585754, -3197.3052856093987, -27321.94540762251, -33045.936589948724, 0.057874999999999996, -7.8125E-4, 1.02871875, 192.0, 0.0, 0.0, 0.0, 0.0, 0.0, 0.0, 0.0, 0.0, 0.0, 1.747687454587195E9, 0.0, 2025-05-19 22:44:14.587
150.0, 20870.002611875847, 16888.933406941105, 47497.14404310513, 28949.979418513707, 33374.48488169729, -584.1628413394501, 9361.357612771704, -65.98234963206644, 0.0, 0.0, 18415.334035794025, -8795.009111763133, 6318.458177859567, -3231.682268581661, -27341.12320436516, -33078.324267664466, 0.057874999999999996, -7.8125E-4, 1.02871875, 192.0, 0.0, 0.0, 0.0, 0.0, 0.0, 0.0, 0.0, 0.0, 0.0, 1.74768745459417E9, 0.0, 2025-05-19 22:44:14.594
152.0, 20869.399114775555, 16888.642834263188, 47499.60273499522, 28953.510994137647, 33387.82887313711, -576.6303034580116, 9385.497496783435, -79.90748642772274, 0.0, 0.0, 18428.54391676711, -8779.049966222045, 6337.814788557862, -3189.6386372612283, -27302.320575990747, -33042.87440095835, 0.057874999999999996, -7.8125E-4, 1.02871875, 192.0, 0.0, 0.0, 0.0, 0.0, 0.0, 0.0, 0.0, 0.0, 0.0, 1.747687454602201E9, 0.0, 2025-05-19 22:44:14.602
154.0, 20872.99774563286, 16889.693366252588, 47486.281095299855, 28939.094118963974, 33362.929029813895, -604.9946671717962, 9336.435417704037, -70.5644572454044, 0.0, 0.0, 18414.618779971457, -8796.439623408272, 6327.287116919412, -3217.354800385809, -27338.306884563794, -33063.37095062387, 0.0589375, -0.003390625, 1.030359375, 192.0, 0.5, 112.0, 127.5, 104.0, 16.0, 32.0, 0.0, 0.0, 0.0, 1.74768745461028E9, 0.0, 2025-05-19 22:44:14.610
156.0, 20877.66926022402, 16895.01308143295, 47505.30242983132, 28964.8880320654, 33378.23997476578, -627.9722604718519, 9404.76470050391, -60.7743931739799, 0.0, 0.0, 18423.87240217595, -8784.88377152488, 6326.482454119022, -3211.3421811273315, -27319.956102365984, -33063.75093027961, 0.0589375, -0.003390625, 1.030359375, 192.0, 0.0, 0.0, 0.0, 0.0, 0.0, 0.0, 0.0, 0.0, 0.0, 1.747687454618204E9, 0.0, 2025-05-19 22:44:14.618
158.0, 20863.74412342836, 16884.39600281668, 47490.617333724185, 28948.526555124114, 33371.19917526236, -637.002365231796, 9341.777484628856, -75.45948928111665, 0.0, 0.0, 18427.448681288803, -8775.764259787114, 6346.509617150977, -3182.5978377578067, -27306.947387092998, -33030.33507231892, 0.0589375, -0.003390625, 1.030359375, 192.0, 0.0, 0.0, 0.0, 0.0, 0.0, 0.0, 0.0, 0.0, 0.0, 1.747687454626181E9, 0.0, 2025-05-19 22:44:14.626
160.0, 20870.114370598123, 16895.348357599778, 47489.58915347924, 28945.889049278387, 33354.524773898695, -671.066423781684, 9376.422688534582, -66.92112289918934, 0.0, 0.0, 18414.88700090492, -8794.606780362938, 6320.358076138267, -3234.8562162943144, -27347.18052711255, -33082.97343051117, 0.0589375, -0.003390625, 1.030359375, 192.0, 0.0, 0.0, 0.0, 0.0, 0.0, 0.0, 0.0, 0.0, 0.0, 1.74768745463424E9, 0.0, 2025-05-19 22:44:14.634
162.0, 20870.404943276044, 16899.841058235295, 47496.67465647157, 28953.376883670913, 33384.252594024256, -671.6252173930666, 9387.218581106494, -83.1931928626529, 0.0, 0.0, 18422.061910875072, -8784.570847102505, 6332.159797210669, -3196.1206431532673, -27308.02027082685, -33053.089148174426, 0.0589375, -0.003390625, 1.030359375, 192.0, 0.0, 0.0, 0.0, 0.0, 0.0, 0.0, 0.0, 0.0, 0.0, 1.747687454642261E9, 0.0, 2025-05-19 22:44:14.642
164.0, 20864.638193206574, 16888.10639239626, 47485.90111564411, 28938.87060151942, 33366.415901948916, -706.1363108320608, 9330.646315890112, -77.44879453763897, 0.0, 0.0, 18417.435099772825, -8789.175306460298, 6332.651535588687, -3216.34897188532, -27334.26121881738, -33066.63430531434, 0.06146875, -0.0046953125, 1.0271796874999999, 192.0, 1.0, 0.0, 127.5, 104.0, 16.0, 0.0, 0.0, 0.0, 0.0, 1.747687454649281E9, 0.0, 2025-05-19 22:44:14.649
166.0, 20872.215434576923, 16897.762346000953, 47497.16639484959, 28954.82974706051, 33374.64134390847, -692.4346914809574, 9404.719997015, -79.50515502752722, 0.0, 0.0, 18420.16201259637, -8787.297759926052, 6322.816768028351, -3225.6472975787283, -27333.255390316892, -33078.92776476476, 0.06146875, -0.0046953125, 1.0271796874999999, 192.0, 0.0, 0.0, 0.0, 0.0, 0.0, 0.0, 0.0, 0.0, 0.0, 1.74768745465832E9, 0.0, 2025-05-19 22:44:14.658
168.0, 20865.75578042934, 16887.927578440616, 47499.17805185057, 28952.639276103888, 33380.676314911405, -701.1295200740719, 9338.089446793729, -83.70728298512495, 0.0, 0.0, 18430.26500109017, -8779.87698076689, 6344.006221771982, -3187.269352348966, -27309.339023749715, -33039.454584056686, 0.06146875, -0.0046953125, 1.0271796874999999, 192.0, 0.0, 0.0, 0.0, 0.0, 0.0, 0.0, 0.0, 0.0, 0.0, 1.747687454666379E9, 0.0, 2025-05-19 22:44:14.666
170.0, 20868.259175808333, 16891.39209883119, 47495.91469716009, 28950.582915614003, 33362.303180969146, -737.4511048139459, 9368.286653552848, -65.75883218751338, 0.0, 0.0, 18415.736367194222, -8792.326902428496, 6320.268669160446, -3230.7881988034487, -27344.31950382227, -33079.508910120596, 0.06146875, -0.0046953125, 1.0271796874999999, 192.0, 0.0, 0.0, 0.0, 0.0, 0.0, 0.0, 0.0, 0.0, 0.0, 1.747687454673394E9, 0.0, 2025-05-19 22:44:14.673
172.0, 20868.125065341603, 16895.19189538859, 47496.473490771474, 28955.81322381654, 33376.74240788727, -722.09545637315, 9389.252589851927, -79.12517537178701, 0.0, 0.0, 18425.12409986545, -8778.669986566305, 6333.791474555907, -3190.264486105977, -27308.288491760315, -33044.550781792495, 0.06146875, -0.0046953125, 1.0271796874999999, 192.0, 0.0, 0.0, 0.0, 0.0, 0.0, 0.0, 0.0, 0.0, 0.0, 1.747687454681408E9, 0.0, 2025-05-19 22:44:14.681
174.0, 20860.190196059968, 16886.72058424003, 47488.78449067885, 28947.073691734517, 33362.7278641138, -737.0040699248398, 9337.977688071453, -54.962939615600064, 0.0, 0.0, 18410.349596780492, -8790.69522508326, 6324.403741884678, -3218.561794586396, -27340.095024120215, -33061.87338374536, 0.06273437500000001, -0.00734765625, 1.02958984375, 192.0, 1.0, 0.0, 127.5, 88.0, 16.0, 32.0, 0.0, 0.0, 0.0, 1.747687454690429E9, 0.0, 2025-05-19 22:44:14.690
176.0, 20872.818931677215, 16903.842020492797, 47502.12848211867, 28961.870546563932, 33373.16612877442, -735.8417792131638, 9409.011531950418, -62.137849585753635, 0.0, 0.0, 18417.16687883936, -8780.011091233622, 6322.079160461326, -3209.6881520376387, -27318.436183743022, -33059.14647092181, 0.06273437500000001, -0.00734765625, 1.02958984375, 192.0, 0.0, 0.0, 0.0, 0.0, 0.0, 0.0, 0.0, 0.0, 0.0, 1.74768745469848E9, 0.0, 2025-05-19 22:44:14.698
178.0, 20860.011382104323, 16889.223979619026, 47494.037150625845, 28946.470194634225, 33369.96982931731, -722.3636773066137, 9345.063191063786, -76.66648348170322, 0.0, 0.0, 18420.340826552016, -8779.295835411052, 6336.697201335097, -3188.655160505195, -27310.16603829456, -33038.51581078956, 0.06273437500000001, -0.00734765625, 1.02958984375, 192.0, 0.0, 0.0, 0.0, 0.0, 0.0, 0.0, 0.0, 0.0, 0.0, 1.747687454705432E9, 0.0, 2025-05-19 22:44:14.705
180.0, 20877.490446268373, 16904.467869337543, 47501.860261185204, 28957.06492150604, 33350.92614304139, -745.0730496732057, 9376.266226323394, -52.303082025418526, 0.0, 0.0, 18414.03763461562, -8792.416309406319, 6320.447483116089, -3236.4431901506414, -27343.023102643863, -33082.235822944145, 0.06273437500000001, -0.00734765625, 1.02958984375, 192.0, 0.0, 0.0, 0.0, 0.0, 0.0, 0.0, 0.0, 0.0, 0.0, 1.747687454713509E9, 0.0, 2025-05-19 22:44:14.713
182.0, 20884.933577171993, 16913.96736073105, 47510.21981361149, 28969.514843167646, 33371.35563747354, -737.9428431919627, 9387.643264251145, -87.59648652034838, 0.0, 0.0, 18441.910259951386, -8757.994622945145, 6353.952748054594, -3184.2518668474995, -27302.521741690845, -33036.59356076641, 0.06273437500000001, -0.00734765625, 1.02958984375, 192.0, 0.0, 0.0, 0.0, 0.0, 0.0, 0.0, 0.0, 0.0, 0.0, 1.747687454722572E9, 0.0, 2025-05-19 22:44:14.722
184.0, 20872.617765977117, 16901.96447395855, 47505.861223442706, 28955.45559590526, 33369.67925663939, -752.8067532547419, 9325.550118154302, -66.11646009879829, 0.0, 0.0, 18425.101748120993, -8777.39593713235, 6344.900291550194, -3215.097274195823, -27335.781137440343, -33059.05706394399, 0.0613671875, -0.0076738281250000005, 1.0287949218749999, 192.0, 0.5, 112.0, 127.5, 96.0, 16.0, 16.0, 0.0, 0.0, 0.0, 1.747687454729553E9, 0.0, 2025-05-19 22:44:14.729
186.0, 20896.534132544297, 16922.796299790894, 47517.77470323738, 28971.526500168624, 33383.894966112966, -715.4569882699237, 9402.86480222521, -76.89000092625629, 0.0, 0.0, 18435.249440103704, -8767.717631783204, 6343.0003932714935, -3207.1177014252785, -27317.005672097883, -33057.67125578776, 0.0613671875, -0.0076738281250000005, 1.0287949218749999, 192.0, 0.0, 0.0, 0.0, 0.0, 0.0, 0.0, 0.0, 0.0, 0.0, 1.747687454737586E9, 0.0, 2025-05-19 22:44:14.737
188.0, 20868.61680371962, 16896.845924478286, 47498.999237894925, 28952.90749703735, 33374.46252995283, -789.4189106725348, 9338.067095049273, -91.03865516646566, 0.0, 0.0, 18436.322323837558, -8769.192846917254, 6354.757410854985, -3180.362663312276, -27308.199084782493, -33032.43613629772, 0.0613671875, -0.0076738281250000005, 1.0287949218749999, 192.0, 0.0, 0.0, 0.0, 0.0, 0.0, 0.0, 0.0, 0.0, 0.0, 1.747687454746563E9, 0.0, 2025-05-19 22:44:14.746
190.0, 20873.93651889998, 16900.802183246873, 47496.339380304744, 28951.87931679241, 33356.31291345512, -804.6851521355096, 9374.701604211523, -60.41676526269499, 0.0, 0.0, 18412.674178203844, -8791.544591372562, 6324.1578726956695, -3232.68809708215, -27348.968666668974, -33077.78782579754, 0.0613671875, -0.0076738281250000005, 1.0287949218749999, 192.0, 0.0, 0.0, 0.0, 0.0, 0.0, 0.0, 0.0, 0.0, 0.0, 1.747687454754594E9, 0.0, 2025-05-19 22:44:14.754
192.0, 20875.076457867202, 16902.67972978112, 47499.1109966172, 28956.550831383567, 33382.84443412357, -773.1021372201607, 9390.101956141229, -92.64798076724777, 0.0, 0.0, 18430.063835390072, -8771.45037310724, 6341.502826392988, -3180.876753434748, -27303.996956824896, -33036.3476915774, 0.0613671875, -0.0076738281250000005, 1.0287949218749999, 192.0, 0.0, 0.0, 0.0, 0.0, 0.0, 0.0, 0.0, 0.0, 0.0, 1.747687454761681E9, 0.0, 2025-05-19 22:44:14.761
194.0, 20852.61295468962, 16879.545674269877, 47483.44242375403, 28930.220476415216, 33359.33039895659, -790.6259048731214, 9320.900955307598, -63.16602983069776, 0.0, 0.0, 18408.941436879806, -8799.12183274291, 6325.431922129622, -3219.232346920055, -27344.095986377717, -33062.05219770101, 0.05868359375, -0.0068369140625, 1.0293974609375, 192.0, 0.5, 96.0, 127.5, 104.0, 16.0, 24.0, 0.0, 0.0, 0.0, 1.747687454769705E9, 0.0, 2025-05-19 22:44:14.769
196.0, 20874.405905533542, 16901.919770469638, 47490.43851976854, 28942.82686028801, 33367.62289614951, -788.7483583388756, 9404.496479570447, -81.60621900632609, 0.0, 0.0, 18411.467184003257, -8801.334655443985, 6314.434863857611, -3225.423780134175, -27335.602323484698, -33074.81504378498, 0.05868359375, -0.0068369140625, 1.0293974609375, 192.0, 0.0, 0.0, 0.0, 0.0, 0.0, 0.0, 0.0, 0.0, 0.0, 1.747687454778765E9, 0.0, 2025-05-19 22:44:14.778
198.0, 20861.196024560457, 16887.033508662404, 47482.52600223136, 28933.930865994796, 33372.80850086314, -769.3023406627585, 9339.698772394511, -77.60525674882612, 0.0, 0.0, 18418.999721884695, -8790.158783216331, 6334.417323400656, -3195.874773964259, -27322.92888437854, -33039.946322434706, 0.05868359375, -0.0068369140625, 1.0293974609375, 192.0, 0.0, 0.0, 0.0, 0.0, 0.0, 0.0, 0.0, 0.0, 0.0, 1.747687454785741E9, 0.0, 2025-05-19 22:44:14.785
200.0, 20872.863635166126, 16899.72929951302, 47480.84962139722, 28936.568371840523, 33361.14089025747, -793.7551490968644, 9377.38381354616, -49.062079079399005, 0.0, 0.0, 18397.36323325196, -8809.046007281066, 6308.802224254874, -3248.937815301158, -27354.80247197181, -33082.995782255624, 0.05868359375, -0.0068369140625, 1.0293974609375, 192.0, 0.0, 0.0, 0.0, 0.0, 0.0, 0.0, 0.0, 0.0, 0.0, 1.747687454793783E9, 0.0, 2025-05-19 22:44:14.793
202.0, 20879.055068380247, 16905.3395873713, 47482.2577812979, 28939.854078275454, 33371.579154918094, -757.5006195903563, 9396.248685866438, -90.92689644418913, 0.0, 0.0, 18421.21254458577, -8787.230704692687, 6329.432884387123, -3203.4967188235187, -27322.526552978346, -33046.18245913774, 0.05868359375, -0.0068369140625, 1.0293974609375, 192.0, 0.0, 0.0, 0.0, 0.0, 0.0, 0.0, 0.0, 0.0, 0.0, 1.747687454801804E9, 0.0, 2025-05-19 22:44:14.801
204.0, 20867.32040254121, 16888.15109588517, 47479.37440626317, 28931.20395317125, 33357.43050067789, -792.704617107465, 9332.568565913269, -45.374041244273336, 0.0, 0.0, 18404.515791477657, -8801.98285603319, 6321.207442427569, -3233.1798354601665, -27353.21549811548, -33063.81798551297, 0.05868359375, -0.0068369140625, 1.0293974609375, 192.0, 0.0, 0.0, 0.0, 0.0, 0.0, 0.0, 0.0, 0.0, 0.0, 1.747687454811883E9, 0.0, 2025-05-19 22:44:14.811
206.0, 20890.297995841265, 16913.006235719473, 47494.57359249277, 28951.655799347856, 33380.51985270022, -743.5531310502447, 9408.832717994776, -83.90844868522271, 0.0, 0.0, 18416.161050338873, -8791.142259972365, 6319.888689504706, -3222.942736499636, -27331.78017518284, -33064.3544273799, 0.054, -0.004, 1.032, 192.0, 0.5, 88.0, 127.5, 112.0, 16.0, 32.0, 0.0, 0.0, 0.0, 1.7476874548179E9, 0.0, 2025-05-19 22:44:14.817
208.0, 20863.006515861336, 16886.050031906372, 47473.138269560135, 28923.626711800902, 33358.9727710453, -784.0991954921717, 9330.087522278729, -89.11640514330927, 0.0, 0.0, 18417.815079428565, -8791.052852994544, 6330.259898931969, -3203.1614426566894, -27332.83070717224, -33047.36710159387, 0.054, -0.004, 1.032, 192.0, 0.0, 0.0, 0.0, 0.0, 0.0, 0.0, 0.0, 0.0, 0.0, 1.747687454825945E9, 0.0, 2025-05-19 22:44:14.825
210.0, 20874.964699144926, 16901.293921624892, 47478.41328125159, 28932.098022949463, 33358.592791389565, -815.7492656408865, 9376.020357134385, -49.665576179692295, 0.0, 0.0, 18390.7918203821, -8816.89146958488, 6298.252200871969, -3258.616120650306, -27364.301963365313, -33096.1609597398, 0.054, -0.004, 1.032, 192.0, 0.0, 0.0, 0.0, 0.0, 0.0, 0.0, 0.0, 0.0, 0.0, 1.747687454834967E9, 0.0, 2025-05-19 22:44:14.834
212.0, 20879.770324202815, 16904.467869337543, 47481.49782198642, 28937.641255574377, 33373.76962587472, -789.4859659059008, 9387.6656159956, -103.91325997272253, 0.0, 0.0, 18413.903524148885, -8782.603893590438, 6321.3415528943015, -3200.8592129777926, -27323.510029734378, -33050.33988360642, 0.054, -0.004, 1.032, 192.0, 0.0, 0.0, 0.0, 0.0, 0.0, 0.0, 0.0, 0.0, 0.0, 1.747687454840999E9, 0.0, 2025-05-19 22:44:14.840
214.0, 20855.853957635638, 16877.064630635337, 47468.10912705769, 28915.043641930064, 33353.58600063157, -805.6686288915431, 9323.672571620056, -52.705413425614054, 0.0, 0.0, 18391.484724460213, -8816.377379462407, 6303.6166195412425, -3242.6346233647614, -27360.658629019097, -33078.90541302031, 0.054, -0.004, 1.032, 192.0, 0.0, 0.0, 0.0, 0.0, 0.0, 0.0, 0.0, 0.0, 0.0, 1.747687454850017E9, 0.0, 2025-05-19 22:44:14.850
216.0, 20885.872350439116, 16907.73122402802, 47484.671769699075, 28937.753014296653, 33373.88138459699, -802.7852538568085, 9412.118424429706, -98.28062036998516, 0.0, 0.0, 18403.621721699445, -8805.469728168217, 6302.744901507485, -3234.8562162943144, -27342.665474732577, -33079.46420663169, 0.054, 0.0, 1.03, 192.0, 0.5, 88.0, 0.0, 0.0, 16.0, 24.0, 0.0, 0.0, 0.0, 1.747687454858054E9, 0.0, 2025-05-19 22:44:14.858
218.0, 20856.613916947117, 16882.11612488224, 47466.94683634601, 28919.96102571023, 33368.60637290554, -776.3878436550908, 9342.358629984694, -87.61883826480368, 0.0, 0.0, 18405.633378700422, -8802.385187433385, 6318.189956926103, -3209.7999107599153, -27340.005617142397, -33051.03278768454, 0.054, 0.0, 1.03, 192.0, 0.0, 0.0, 0.0, 0.0, 0.0, 0.0, 0.0, 0.0, 0.0, 1.74768745486607E9, 0.0, 2025-05-19 22:44:14.866
220.0, 20869.868501409113, 16894.00725293246, 47478.81561265178, 28929.974607226206, 33357.02816927769, -807.9038033370738, 9373.04757512183, -60.752041429524596, 0.0, 0.0, 18386.54498893559, -8821.339466731486, 6295.234715370502, -3261.4771439405854, -27371.07454193527, -33092.89760504933, 0.054, 0.0, 1.03, 192.0, 0.0, 0.0, 0.0, 0.0, 0.0, 0.0, 0.0, 0.0, 0.0, 1.747687454874129E9, 0.0, 2025-05-19 22:44:14.874
222.0, 20881.647870737062, 16906.233657149514, 47496.49584251593, 28945.263200433637, 33378.06116081013, -784.2109542144483, 9382.90469442662, -101.02988493798793, 0.0, 0.0, 18424.6994167208, -8784.280274424586, 6327.82355878634, -3193.3937303297203, -27314.904608119086, -33042.673235258255, 0.054, 0.0, 1.03, 192.0, 0.0, 0.0, 0.0, 0.0, 0.0, 0.0, 0.0, 0.0, 0.0, 1.747687454882146E9, 0.0, 2025-05-19 22:44:14.882
224.0, 20859.005553603834, 16886.56412202884, 47485.18585982155, 28929.818145015022, 33362.705512369335, -760.7416225363759, 9330.713371123478, -47.743326156535886, 0.0, 0.0, 18404.336977522013, -8810.610629392939, 6316.446520858589, -3230.2517569365214, -27349.12512888016, -33064.063854701984, 0.054, 0.0, 1.03, 192.0, 0.0, 0.0, 0.0, 0.0, 0.0, 0.0, 0.0, 0.0, 0.0, 1.747687454890198E9, 0.0, 2025-05-19 22:44:14.890
226.0, 20897.584664533697, 16923.869183524752, 47507.15762462111, 28964.30688670956, 33371.713265384824, -767.6483115730657, 9418.153395432639, -81.0250736504881, 0.0, 0.0, 18425.392320798914, -8784.123812213398, 6324.515500606954, -3213.420893361675, -27325.58874196872, -33054.09497667491, 0.058, -0.002, 1.034, 192.0, 0.5, 104.0, 127.5, 120.0, 16.0, 40.0, 0.0, 0.0, 0.0, 1.747687454898148E9, 0.0, 2025-05-19 22:44:14.898
228.0, 20871.50017875435, 16894.409584332658, 47492.919563403084, 28944.6820550778, 33367.89111708297, -796.0350270313057, 9351.366383000182, -71.45852702361668, 0.0, 0.0, 18429.39328305641, -8778.960559244224, 6338.060657746871, -3190.0186169169688, -27321.386614011124, -33029.68687172972, 0.058, -0.002, 1.034, 192.0, 0.0, 0.0, 0.0, 0.0, 0.0, 0.0, 0.0, 0.0, 0.0, 1.747687454906235E9, 0.0, 2025-05-19 22:44:14.906
230.0, 20884.66535623853, 16913.87795375323, 47498.77572045037, 28954.76269182714, 33364.31483797012, -786.2449629598813, 9374.053403622318, -53.93475937065594, 0.0, 0.0, 18412.249495059194, -8791.522239628106, 6319.6428203156975, -3234.587995360851, -27343.716006721977, -33065.69553204722, 0.058, -0.002, 1.034, 192.0, 0.0, 0.0, 0.0, 0.0, 0.0, 0.0, 0.0, 0.0, 0.0, 1.747687454914288E9, 0.0, 2025-05-19 22:44:14.914
232.0, 20883.23484459339, 16910.413433362657, 47500.675618729074, 28956.751997083666, 33371.91443108492, -773.8620965316411, 9381.00479614792, -97.69947501414717, 0.0, 0.0, 18438.177518627348, -8763.873131736891, 6339.82644555884, -3189.951561683603, -27315.73162266393, -33035.54302877701, 0.058, -0.002, 1.034, 192.0, 0.0, 0.0, 0.0, 0.0, 0.0, 0.0, 0.0, 0.0, 0.0, 1.747687454921304E9, 0.0, 2025-05-19 22:44:14.921
234.0, 20860.99485886036, 16885.40183131717, 47484.805880165804, 28929.415813614825, 33352.17784073089, -802.0923497786939, 9338.424722960559, -42.0883348093432, 0.0, 0.0, 18408.40499501288, -8801.625228121904, 6318.72639879303, -3230.363515658798, -27349.706274236, -33064.913220991286, 0.058, -0.002, 1.034, 192.0, 0.0, 0.0, 0.0, 0.0, 0.0, 0.0, 0.0, 0.0, 0.0, 1.747687454929331E9, 0.0, 2025-05-19 22:44:14.929
236.0, 20895.215379621433, 16916.78368053242, 47508.565784521794, 28960.037703518596, 33375.46835845332, -778.7347768228981, 9408.251572638937, -88.9599429321221, 0.0, 0.0, 18426.845184188507, -8781.93334125678, 6324.269631417947, -3218.4053323752087, -27325.007596612882, -33066.16491868078, 0.054, -0.002, 1.032, 192.0, 0.5, 88.0, 127.5, 120.0, 16.0, 32.0, 0.0, 0.0, 0.0, 1.747687454938372E9, 0.0, 2025-05-19 22:44:14.938
238.0, 20862.917108883514, 16880.99853765947, 47488.29275230083, 28930.689863048778, 33361.65498037994, -779.6288466011104, 9337.08361829324, -78.36521606030657, 0.0, 0.0, 18431.002608657196, -8781.396899389852, 6338.038306002415, -3194.332503596843, -27319.486715732422, -33041.95797943568, 0.054, -0.002, 1.032, 192.0, 0.0, 0.0, 0.0, 0.0, 0.0, 0.0, 0.0, 0.0, 0.0, 1.747687454946395E9, 0.0, 2025-05-19 22:44:14.946
240.0, 20873.31067005523, 16893.493162809988, 47487.465737755985, 28931.695691549266, 33348.75802382923, -818.0514953197832, 9384.29050258285, -63.411899019706134, 0.0, 0.0, 18400.850105386988, -8815.12568177291, 6303.326046863323, -3255.6209868932947, -27355.629486516656, -33101.0112882866, 0.054, -0.002, 1.032, 192.0, 0.0, 0.0, 0.0, 0.0, 0.0, 0.0, 0.0, 0.0, 0.0, 1.74768745495339E9, 0.0, 2025-05-19 22:44:14.953
242.0, 20887.50402778435, 16911.86629675225, 47507.20232811002, 28955.25443020516, 33384.36435274653, -765.3460818941692, 9379.909560669608, -106.86369024082306, 0.0, 0.0, 18434.824756959053, -8771.271559151597, 6337.412457157667, -3196.8582507202927, -27312.334157506724, -33058.54297382152, 0.054, -0.002, 1.032, 192.0, 0.0, 0.0, 0.0, 0.0, 0.0, 0.0, 0.0, 0.0, 0.0, 1.747687454961457E9, 0.0, 2025-05-19 22:44:14.961
244.0, 20862.917108883514, 16885.133610383702, 47486.07992959976, 28927.784136269587, 33357.45285242234, -786.4014251710684, 9317.45878666148, -52.75011691452467, 0.0, 0.0, 18414.77524218264, -8794.047986751555, 6328.114131464259, -3230.6317365922614, -27339.379768297647, -33080.760607810094, 0.054, -0.002, 1.032, 192.0, 0.0, 0.0, 0.0, 0.0, 0.0, 0.0, 0.0, 0.0, 0.0, 1.747687454970525E9, 0.0, 2025-05-19 22:44:14.970
246.0, 20894.18719937649, 16916.224886921034, 47503.91662167509, 28955.567354627536, 33362.504346669244, -758.4840963463898, 9426.982334492486, -84.4895940410607, 0.0, 0.0, 18423.291256820114, -8782.983873246178, 6325.543680851899, -3226.809588290404, -27329.41089027058, -33089.96952652568, 0.062, -0.004, 1.03, 192.0, 0.5, 120.0, 127.5, 112.0, 16.0, 24.0, 0.0, 0.0, 0.0, 1.747687454977544E9, 0.0, 2025-05-19 22:44:14.977
248.0, 20866.538091485276, 16889.648662763677, 47498.84277568373, 28942.379825398904, 33372.8755560965, -797.0632072762498, 9342.47038870697, -72.88903866875633, 0.0, 0.0, 18431.382588312936, -8775.585445831472, 6344.788532827918, -3195.9194774531697, -27315.910436619575, -33057.96182846568, 0.062, -0.004, 1.03, 192.0, 0.0, 0.0, 0.0, 0.0, 0.0, 0.0, 0.0, 0.0, 0.0, 1.747687454985577E9, 0.0, 2025-05-19 22:44:14.985
250.0, 20889.269815596323, 16915.666093309654, 47505.66005774261, 28954.807395316053, 33352.06608200861, -801.6229631451325, 9375.506267011913, -50.850218635823566, 0.0, 0.0, 18420.58669574102, -8786.515448870117, 6329.097608220292, -3241.44998090863, -27340.519707264866, -33098.865520818894, 0.062, -0.004, 1.03, 192.0, 0.0, 0.0, 0.0, 0.0, 0.0, 0.0, 0.0, 0.0, 0.0, 1.74768745499357E9, 0.0, 2025-05-19 22:44:14.993
252.0, 20892.689632497983, 16916.358997387768, 47512.18676712355, 28963.055189020062, 33367.15350951594, -785.5297071373114, 9384.446964794037, -102.50510007203819, 0.0, 0.0, 18449.688667021834, -8753.59132928745, 6354.511541665976, -3189.258657605488, -27309.339023749715, -33058.02888369905, 0.062, -0.004, 1.03, 192.0, 0.0, 0.0, 0.0, 0.0, 0.0, 0.0, 0.0, 0.0, 0.0, 1.74768745500271E9, 0.0, 2025-05-19 22:44:15.002
254.0, 20871.969565387913, 16892.017947675937, 47493.0089703809, 28936.322502651514, 33351.88726805297, -804.6180969021436, 9329.841653089721, -47.296291267429744, 0.0, 0.0, 18422.128966108437, -8786.202524447743, 6340.385239170223, -3223.97091674458, -27337.636332230133, -33082.302878177514, 0.062, -0.004, 1.03, 192.0, 0.0, 0.0, 0.0, 0.0, 0.0, 0.0, 0.0, 0.0, 0.0, 1.747687455009765E9, 0.0, 2025-05-19 22:44:15.009
0.0, 20904.446650081474, 16927.579573104333, 47510.35392407822, 28966.519709410633, 33369.09811128356, -766.8436487726747, 9409.05623543933, -88.66937025420312, 0.0, 0.0, 18431.762567968675, -8770.578655073483, 6338.1277129802365, -3220.68521030965, -27325.141707079616, -33088.561366625, 0.06, -0.004, 1.03, 192.0, 0.5, 112.0, 127.5, 112.0, 16.0, 24.0, 0.0, 0.0, 0.0, 1.747687455017692E9, 0.0, 2025-05-19 22:44:15.017
2.0, 20865.08522809568, 16887.547598784877, 47487.84571741173, 28936.031929973597, 33351.08260525258, -785.5520588817667, 9348.66182192109, -77.11351837080936, 0.0, 0.0, 18432.611934257977, -8768.656405050326, 6350.711745108574, -3193.3713785852647, -27318.83851514322, -33055.43608134223, 0.06, -0.004, 1.03, 192.0, 0.0, 0.0, 0.0, 0.0, 0.0, 0.0, 0.0, 0.0, 0.0, 1.747687455025753E9, 0.0, 2025-05-19 22:44:15.025
4.0, 20882.296071326266, 16904.646683293187, 47497.34520880523, 28947.498374879167, 33352.96015178682, -815.3692859851463, 9370.52182799838, -55.43232624916151, 0.0, 0.0, 18407.801497912587, -8799.010074020634, 6319.352247637778, -3248.066097267401, -27353.148442882117, -33103.38057319887, 0.06, -0.004, 1.03, 192.0, 0.0, 0.0, 0.0, 0.0, 0.0, 0.0, 0.0, 0.0, 0.0, 1.747687455033767E9, 0.0, 2025-05-19 22:44:15.033
6.0, 20881.670222481516, 16908.02179670594, 47501.234412340455, 28956.975514528218, 33369.008704305736, -795.476233419923, 9385.51984852789, -99.80053899294603, 0.0, 0.0, 18440.7032657508, -8760.900349724336, 6348.118942751759, -3189.9292099391473, -27311.03775632832, -33052.9997411966, 0.06, -0.004, 1.03, 192.0, 0.0, 0.0, 0.0, 0.0, 0.0, 0.0, 0.0, 0.0, 0.0, 1.747687455041749E9, 0.0, 2025-05-19 22:44:15.041
8.0, 20859.541995470765, 16885.267720850436, 47484.00121736541, 28933.43912761678, 33351.97667503079, -795.8785648201185, 9328.99228680042, -45.48579996654987, 0.0, 0.0, 18409.67904444683, -8795.433794907785, 6328.628221586731, -3227.6589545797056, -27344.92300092256, -33072.91514550628, 0.06, -0.004, 1.03, 192.0, 0.0, 0.0, 0.0, 0.0, 0.0, 0.0, 0.0, 0.0, 0.0, 1.74768745504978E9, 0.0, 2025-05-19 22:44:15.049
10.0, 20884.128914371602, 16908.088851939305, 47494.57359249277, 28950.515860380634, 33364.35954145903, -777.2372099443925, 9407.178688905084, -91.75391098903549, 0.0, 0.0, 18418.999721884695, -8784.347329657952, 6322.414436628156, -3229.1565214582115, -27338.686864219533, -33083.487520633644, 0.06, -0.01, 1.032, 192.0, 0.5, 112.0, 127.5, 88.0, 16.0, 32.0, 0.0, 0.0, 0.0, 1.747687455058852E9, 0.0, 2025-05-19 22:44:15.058
12.0, 20856.07747508019, 16876.125857368213, 47478.0556533403, 28925.906589735343, 33362.54905015815, -802.5170329233448, 9341.621022417668, -82.45558529562776, 0.0, 0.0, 18417.390396283914, -8791.008149505633, 6331.891576277206, -3206.0448176914238, -27332.58483798323, -33057.44773834321, 0.06, -0.01, 1.032, 192.0, 0.0, 0.0, 0.0, 0.0, 0.0, 0.0, 0.0, 0.0, 0.0, 1.747687455064852E9, 0.0, 2025-05-19 22:44:15.064
14.0, 20874.092981111167, 16893.068479665337, 47485.76700517738, 28940.323464909015, 33355.865878566015, -822.6336029331211, 9377.115592612696, -68.01635837749939, 0.0, 0.0, 18396.73738440721, -8812.376417204907, 6307.729340521019, -3256.6715188826943, -27362.17854764206, -33101.48067492017, 0.06, -0.01, 1.032, 192.0, 0.0, 0.0, 0.0, 0.0, 0.0, 0.0, 0.0, 0.0, 0.0, 1.747687455073917E9, 0.0, 2025-05-19 22:44:15.073
16.0, 20879.12212361361, 16900.086927424305, 47497.524022760874, 28951.365226669936, 33375.088378797576, -795.0291985308169, 9376.33328155676, -108.98710596407724, 0.0, 0.0, 18428.275695833647, -8770.265730651108, 6335.803131556885, -3201.2391926335326, -27322.3477390227, -33055.36902610886, 0.06, -0.01, 1.032, 192.0, 0.0, 0.0, 0.0, 0.0, 0.0, 0.0, 0.0, 0.0, 0.0, 1.747687455081912E9, 0.0, 2025-05-19 22:44:15.081
18.0, 20857.30682102523, 16878.33868006929, 47485.02939761036, 28933.662645061333, 33351.239067463765, -793.4422246744901, 9325.326600709748, -50.24672153553028, 0.0, 0.0, 18406.572151967546, -8799.255943209642, 6323.777893039929, -3229.40239064722, -27347.716968979475, -33070.009418727095, 0.06, -0.01, 1.032, 192.0, 0.0, 0.0, 0.0, 0.0, 0.0, 0.0, 0.0, 0.0, 0.0, 1.747687455089975E9, 0.0, 2025-05-19 22:44:15.089
20.0, 20890.0297749078, 16914.995540975993, 47506.330610076264, 28967.10085476647, 33368.69577988336, -781.4840413909009, 9405.368197604204, -89.09405339885396, 0.0, 0.0, 18424.27473357615, -8775.227817920188, 6327.756503552974, -3220.037009720446, -27332.137803094127, -33070.568212338476, 0.06, -0.006, 1.034, 192.0, 0.5, 112.0, 127.5, 104.0, 16.0, 40.0, 0.0, 0.0, 0.0, 1.747687455097957E9, 0.0, 2025-05-19 22:44:15.097
22.0, 20858.60322220364, 16882.406697560156, 47488.56097323429, 28940.546982353568, 33352.49076515326, -783.093366991683, 9344.884377108143, -68.77631768897983, 0.0, 0.0, 18425.772300454653, -8772.411498118818, 6344.20738747208, -3192.1196808957675, -27325.36522452417, -33037.53233403353, 0.06, -0.006, 1.034, 192.0, 0.0, 0.0, 0.0, 0.0, 0.0, 0.0, 0.0, 0.0, 0.0, 1.747687455106018E9, 0.0, 2025-05-19 22:44:15.106
24.0, 20873.98122238889, 16897.20355238957, 47498.082816372254, 28948.19127895728, 33354.07773900959, -802.5170329233448, 9375.483915267458, -43.56354994339347, 0.0, 0.0, 18405.476916489235, -8799.16653623182, 6315.865375502751, -3241.5840913753623, -27352.07555914826, -33082.48169213315, 0.06, -0.006, 1.034, 192.0, 0.0, 0.0, 0.0, 0.0, 0.0, 0.0, 0.0, 0.0, 0.0, 1.747687455114044E9, 0.0, 2025-05-19 22:44:15.114
26.0, 20879.792675947272, 16901.76330825845, 47505.570650764785, 28960.194165729783, 33362.638457135974, -777.6618930890434, 9384.268150838394, -90.92689644418913, 0.0, 0.0, 18438.356332582993, -8764.946015470745, 6342.240433960013, -3190.622114017262, -27316.379823253137, -33043.991988181115, 0.06, -0.006, 1.034, 192.0, 0.0, 0.0, 0.0, 0.0, 0.0, 0.0, 0.0, 0.0, 0.0, 1.747687455121076E9, 0.0, 2025-05-19 22:44:15.121
28.0, 20856.65862043603, 16881.06559289284, 47492.58428723625, 28936.456613118247, 33345.248799949746, -756.964177723429, 9350.494664966425, -31.35949747079581, 0.0, 0.0, 18411.847163658997, -8797.400748419852, 6328.605869842276, -3218.628849819762, -27343.380730555145, -33054.38554935283, 0.06, -0.006, 1.034, 192.0, 0.0, 0.0, 0.0, 0.0, 0.0, 0.0, 0.0, 0.0, 0.0, 1.74768745513016E9, 0.0, 2025-05-19 22:44:15.130
30.0, 20891.169713875024, 16911.978055474527, 47517.43942707055, 28967.860814077954, 33371.98148631829, -773.8620965316411, 9427.585831592778, -66.04940486543236, 0.0, 0.0, 18429.058006889583, -8778.848800521946, 6332.20450069958, -3210.0234282044685, -27319.44201224351, -33062.56628782347, 0.064, -0.006, 1.032, 192.0, 1.0, 0.0, 127.5, 104.0, 16.0, 32.0, 0.0, 0.0, 0.0, 1.747687455138143E9, 0.0, 2025-05-19 22:44:15.138
32.0, 20851.718884911406, 16872.728392211007, 47491.71256920249, 28937.753014296653, 33359.06217802312, -813.1117597951603, 9353.266281278882, -63.411899019706134, 0.0, 0.0, 18429.79561445661, -8776.323053398497, 6346.844893317806, -3185.4812127925416, -27314.30111101879, -33033.33020607593, 0.064, -0.006, 1.032, 192.0, 0.0, 0.0, 0.0, 0.0, 0.0, 0.0, 0.0, 0.0, 0.0, 1.747687455146146E9, 0.0, 2025-05-19 22:44:15.146
34.0, 20876.70813521244, 16899.77400300193, 47506.621182754185, 28953.175717970815, 33357.49755591125, -799.8348235887079, 9386.95036017303, -41.820113875879514, 0.0, 0.0, 18405.186343811314, -8802.429890922296, 6317.63116331472, -3238.6113093628064, -27348.07459689076, -33078.43602638674, 0.064, -0.006, 1.032, 192.0, 0.0, 0.0, 0.0, 0.0, 0.0, 0.0, 0.0, 0.0, 0.0, 1.747687455153199E9, 0.0, 2025-05-19 22:44:15.153
36.0, 20885.492370783373, 16907.97709321703, 47515.80774972532, 28964.195127987285, 33380.78807363368, -757.4782678459011, 9389.587866018757, -88.6246667652925, 0.0, 0.0, 18446.358257097992, -8758.978099701179, 6350.912910808673, -3180.362663312276, -27302.052355057283, -33036.59356076641, 0.064, -0.006, 1.032, 192.0, 0.0, 0.0, 0.0, 0.0, 0.0, 0.0, 0.0, 0.0, 0.0, 1.747687455162207E9, 0.0, 2025-05-19 22:44:15.162
38.0, 20866.403981018542, 16890.43097381961, 47501.77085420738, 28944.43618588879, 33357.49755591125, -770.5540383522557, 9329.506376922891, -36.925081840167266, 0.0, 0.0, 18423.02303588665, -8790.73992857217, 6340.072314747848, -3216.013695718491, -27334.998826384406, -33049.35640685039, 0.064, -0.006, 1.032, 192.0, 0.0, 0.0, 0.0, 0.0, 0.0, 0.0, 0.0, 0.0, 0.0, 1.747687455171283E9, 0.0, 2025-05-19 22:44:15.171
40.0, 20895.416545321532, 16920.516421856453, 47519.98752593846, 28972.286459480103, 33372.89790784096, -769.4364511294904, 9406.105805171228, -80.1086521278205, 0.0, 0.0, 18441.351466340002, -8766.488285838162, 6343.49213164951, -3209.554041570907, -27317.989148853918, -33059.727616277654, 0.06, -0.006, 1.034, 192.0, 0.5, 112.0, 127.5, 104.0, 16.0, 40.0, 0.0, 0.0, 0.0, 1.747687455177268E9, 0.0, 2025-05-19 22:44:15.177
42.0, 20848.88021336558, 16873.130723611204, 47487.06340635579, 28934.91434275083, 33353.40718667593, -785.864983304141, 9344.437342219037, -73.1125561133094, 0.0, 0.0, 18430.712035979275, -8775.45133536474, 6346.330803195335, -3190.4656518060747, -27322.906532634086, -33035.40891831028, 0.06, -0.006, 1.034, 192.0, 0.0, 0.0, 0.0, 0.0, 0.0, 0.0, 0.0, 0.0, 0.0, 1.747687455185304E9, 0.0, 2025-05-19 22:44:15.185
