%OpenBCI Raw EXG Data
%Number of channels = 16
%Sample Rate = 125 Hz
%Board = OpenBCI_GUI$BoardCytonSerialDaisy
Sample Index, EXG Channel 0, EXG Channel 1, EXG Channel 2, EXG Channel 3, EXG Channel 4, EXG Channel 5, EXG Channel 6, EXG Channel 7, EXG Channel 8, EXG Channel 9, EXG Channel 10, EXG Channel 11, EXG Channel 12, EXG Channel 13, EXG Channel 14, EXG Channel 15, Accel Channel 0, Accel Channel 1, Accel Channel 2, Not Used, Digital Channel 0 (D11), Digital Channel 1 (D12), Digital Channel 2 (D13), Digital Channel 3 (D17), Not Used, Digital Channel 4 (D18), Analog Channel 0, Analog Channel 1, Analog Channel 2, Timestamp, Marker Channel, Timestamp (Formatted)
18.0, -43208.09015132071, -38841.87803767658, -29082.56996662259, -70738.73379692243, -28219.814982392192, -28338.14511753859, -52191.882096753376, -99491.50377410695, -187500.02235174447, -187500.02235174447, -46285.14305176056, -44956.77887878167, -78002.26843384128, -47834.94595705819, -86705.14365495964, -30734.386233614237, 0.0, 0.0, 0.0, 193.0, 0.0, 1.0, 1.0, 0.0, 0.0, 1.0, 1.0, 256.0, 1.0, 1.750526839234068E9, 0.0, 2025-06-21 19:27:19.234
20.0, -43182.07272077474, -38810.29502276123, -29083.754609078722, -70719.19837226848, -28239.752738446325, -28414.67749055356, -52235.31153623004, -99484.17240192562, -187500.02235174447, -187500.02235174447, -46307.38303749359, -44955.907160747905, -78034.38789062356, -47824.79826507548, -86741.35348097724, -30731.74872776851, 0.0, 0.0, 0.0, 193.0, 0.0, 1.0, 1.0, 0.0, 0.0, 1.0, 1.0, 256.0, 1.0, 1.750526839234689E9, 0.0, 2025-06-21 19:27:19.234
0.0, -20783.72487827836, -18631.45305293239, -13783.046756153914, -34627.88130377309, -13269.761296482242, -13617.710902418006, -25390.866445406253, -48524.20670082649, -93750.01117587223, -93750.01117587223, -23149.500566661427, -22469.225224164158, -39011.304260647805, -23899.82627628163, -43367.14516486468, -15354.486150084276, 0.0, 0.0, 0.0, 193.0, 0.0, 1.0, 1.0, 0.0, 0.0, 1.0, 1.0, 256.0, 1.0, 1.750526839358203E9, 0.0, 2025-06-21 19:27:19.358
2.0, -41549.03191912555, -37238.65446313077, -27561.511404694487, -69242.46331959526, -26539.34377900884, -27251.269191654825, -50744.85251246125, -97023.04417169621, -187500.02235174447, -187500.02235174447, -44794.79578671406, -43478.07687259637, -76552.53428847007, -46276.04589176725, -85870.46246176511, -29458.012218238382, 0.0, 0.0, 0.0, 193.0, 0.0, 1.0, 1.0, 0.0, 0.0, 1.0, 1.0, 256.0, 1.0, 1.750526839364177E9, 0.0, 2025-06-21 19:27:19.364
4.0, -41554.08341337245, -37256.98289358412, -27563.523061695465, -69246.24076440821, -26546.20576455662, -27302.387631224112, -50762.48803883649, -97041.57376784967, -187500.02235174447, -187500.02235174447, -44781.18357434077, -43457.043881063924, -76559.75390192913, -46241.17717041697, -85914.80832276444, -29422.562351532266, 0.0, 0.0, 0.0, 193.0, 0.0, 1.0, 1.0, 0.0, 0.0, 1.0, 1.0, 256.0, 1.0, 1.750526839372144E9, 0.0, 2025-06-21 19:27:19.372
6.0, -41564.34286407744, -37257.13935579531, -27558.717436637573, -69254.80148253459, -26528.950217837122, -27247.558802075244, -50776.10025120977, -97043.40661089499, -187500.02235174447, -187500.02235174447, -44801.50131005065, -43493.29841057044, -76564.51482349812, -46269.67564459749, -85865.70154019613, -29451.97724723545, 0.0, 0.0, 0.0, 193.0, 0.0, 1.0, 1.0, 0.0, 0.0, 1.0, 1.0, 256.0, 1.0, 1.750526839380233E9, 0.0, 2025-06-21 19:27:19.380
8.0, -41544.38275627884, -37250.76910862554, -27558.35980872629, -69244.27381089613, -26543.54590696644, -27304.73456439192, -50746.28302410639, -97029.61558456607, -187500.02235174447, -187500.02235174447, -44785.18453659827, -43479.59679121933, -76564.31365779802, -46250.65431006603, -85888.58972651836, -29433.29118887081, 0.0, 0.0, 0.0, 193.0, 0.0, 1.0, 1.0, 0.0, 0.0, 1.0, 1.0, 256.0, 1.0, 1.750526839388253E9, 0.0, 2025-06-21 19:27:19.388
10.0, -41546.39441327982, -37257.005245328575, -27549.06148303288, -69248.90062199839, -26511.62761588426, -27256.745369046377, -50758.62118704572, -97031.58253807815, -187500.02235174447, -187500.02235174447, -44779.66365571781, -43479.55208773042, -76562.16789033031, -46251.05664146622, -85896.54694754446, -29432.151249903593, 0.0, 0.0, 0.0, 193.0, 0.0, 1.0, 1.0, 0.0, 0.0, 1.0, 1.0, 256.0, 1.0, 1.750526839396284E9, 0.0, 2025-06-21 19:27:19.396
12.0, -41568.254419357116, -37268.963428612165, -27574.56482345639, -69271.0064972647, -26543.34474126634, -27283.411000181557, -50769.41707961763, -97049.03925049774, -187500.02235174447, -187500.02235174447, -44798.3720658269, -43497.14291061675, -76562.30200079703, -46271.57554287619, -85860.00184536004, -29457.11814846017, 0.0, 0.0, 0.0, 193.0, 0.0, 1.0, 1.0, 0.0, 0.0, 1.0, 1.0, 256.0, 1.0, 1.750526839403296E9, 0.0, 2025-06-21 19:27:19.403
14.0, -41551.60236973791, -37252.93722783771, -27564.998276829516, -69248.58769757602, -26556.24169781705, -27299.817180611753, -50761.86218999174, -97044.83712254014, -187500.02235174447, -187500.02235174447, -44795.71220823672, -43479.03799760795, -76575.60128874794, -46255.10230721263, -85924.26311066904, -29440.197877907503, 0.0, 0.0, 0.0, 193.0, 0.0, 1.0, 1.0, 0.0, 0.0, 1.0, 1.0, 256.0, 1.0, 1.750526839411339E9, 0.0, 2025-06-21 19:27:19.411
16.0, -41582.291314875045, -37270.215126301664, -27581.091532837338, -69271.72175308726, -26569.339820067864, -27240.741520016378, -50781.308207667855, -97059.47751515836, -187500.02235174447, -187500.02235174447, -44801.143682139365, -43484.29065755495, -76557.78694841707, -46273.408385921524, -85873.70346471113, -29457.252258926903, 0.0, 0.0, 0.0, 193.0, 0.0, 1.0, 1.0, 0.0, 0.0, 1.0, 1.0, 256.0, 1.0, 1.750526839420359E9, 0.0, 2025-06-21 19:27:19.420
18.0, -41544.65097721231, -37234.54174215099, -27555.856413347294, -69236.18247940332, -26553.224212315585, -27303.661680658064, -50765.41611736013, -97041.3055469162, -187500.02235174447, -187500.02235174447, -44804.18351938528, -43474.85822139481, -76571.37680904589, -46272.938999287966, -85909.91329072873, -29456.53700310433, 0.0, 0.0, 0.0, 193.0, 0.0, 1.0, 1.0, 0.0, 0.0, 1.0, 1.0, 256.0, 1.0, 1.750526839427392E9, 0.0, 2025-06-21 19:27:19.427
20.0, -41575.026997927074, -37265.543611710506, -27571.010896087995, -69262.95986926078, -26552.2183838151, -27259.137005703094, -50771.47344010752, -97047.78755280824, -187500.02235174447, -187500.02235174447, -44779.4177865288, -43462.45300322211, -76554.30007628204, -46251.83895252216, -85896.45754056664, -29434.92286621605, 0.0, 0.0, 0.0, 193.0, 0.0, 1.0, 1.0, 0.0, 0.0, 1.0, 1.0, 256.0, 1.0, 1.750526839435401E9, 0.0, 2025-06-21 19:27:19.435
22.0, -41592.70722779122, -37279.78167292853, -27606.59487326084, -69284.57400614907, -26578.50403529454, -27286.272023471836, -50779.29655066688, -97051.38618366554, -187500.02235174447, -187500.02235174447, -44831.4302958763, -43513.30322185793, -76585.59251851946, -46305.41608398153, -85896.77046498901, -29486.443637185534, 0.0, 0.0, 0.0, 193.0, 0.0, 1.0, 1.0, 0.0, 0.0, 1.0, 1.0, 256.0, 1.0, 1.750526839443477E9, 0.0, 2025-06-21 19:27:19.443
24.0, -41547.780221436056, -37241.38137595432, -27559.812672115884, -69241.16691841686, -26545.848136645334, -27282.941613547995, -50760.208160902046, -97035.22587242436, -187500.02235174447, -187500.02235174447, -44802.14951063985, -43474.43353825016, -76575.06484688103, -46265.09353698415, -85932.77912530651, -29444.914095987573, 0.0, 0.0, 0.0, 193.0, 0.0, 1.0, 1.0, 0.0, 0.0, 1.0, 1.0, 256.0, 1.0, 1.750526839452422E9, 0.0, 2025-06-21 19:27:19.452
26.0, -41576.70337876122, -37257.67579766224, -27563.83598611784, -69256.7460843022, -26542.696540677138, -27237.992255448375, -50778.178963444116, -97046.22293069637, -187500.02235174447, -187500.02235174447, -44795.80161521454, -43483.15071858773, -76555.574125716, -46276.51527840082, -85868.45080476413, -29457.453424626998, 0.0, 0.0, 0.0, 193.0, 0.0, 1.0, 1.0, 0.0, 0.0, 1.0, 1.0, 256.0, 1.0, 1.750526839459498E9, 0.0, 2025-06-21 19:27:19.459
28.0, -41544.87449465686, -37237.715689863646, -27546.893363820716, -69228.00174093268, -26546.742206423547, -27285.579119393722, -50745.38895432818, -97026.7545612758, -187500.02235174447, -187500.02235174447, -44783.19523134175, -43468.33151201386, -76556.49054723866, -46251.615435077605, -85882.8229764489, -29433.402947593087, 0.0, 0.0, 0.0, 193.0, 0.0, 1.0, 1.0, 0.0, 0.0, 1.0, 1.0, 256.0, 1.0, 1.750526839467517E9, 0.0, 2025-06-21 19:27:19.467
30.0, -41580.25730612961, -37272.40559725829, -27572.195538544125, -69260.0988459705, -26546.58574421236, -27254.465491111936, -50767.271312149926, -97044.30068067322, -187500.02235174447, -187500.02235174447, -44765.33618752196, -43454.94281708513, -76541.9619133427, -46232.795266246234, -85881.41481654822, -29410.96179615996, 0.0, 0.0, 0.0, 193.0, 0.0, 1.0, 1.0, 0.0, 0.0, 1.0, 1.0, 256.0, 1.0, 1.750526839476556E9, 0.0, 2025-06-21 19:27:19.476
32.0, -41598.026942971585, -37281.34629504041, -27601.431620291667, -69285.13279976044, -26577.25233760504, -27283.54511064829, -50787.186716459604, -97063.38907043805, -187500.02235174447, -187500.02235174447, -44835.92299651182, -43527.943614476164, -76600.00939369314, -46303.85146186966, -85892.25541260904, -29486.845968585727, 0.0, 0.0, 0.0, 193.0, 0.0, 1.0, 1.0, 0.0, 0.0, 1.0, 1.0, 256.0, 1.0, 1.750526839483592E9, 0.0, 2025-06-21 19:27:19.483
34.0, -41563.85112569942, -37261.073262819446, -27570.809730387897, -69254.06387496757, -26551.30196229243, -27295.369183465147, -50766.645463305176, -97050.6038726096, -187500.02235174447, -187500.02235174447, -44799.84728096095, -43484.00008487703, -76587.85004470946, -46270.01092076432, -85939.43994515418, -29451.01612222387, 0.0, 0.0, 0.0, 193.0, 0.0, 1.0, 1.0, 0.0, 0.0, 1.0, 1.0, 256.0, 1.0, 1.750526839491602E9, 0.0, 2025-06-21 19:27:19.491
36.0, -41584.66059978731, -37271.24330654661, -27581.158588070703, -69274.605128122, -26541.266029032, -27236.941723458975, -50789.913629283146, -97062.13737274855, -187500.02235174447, -187500.02235174447, -44803.15533914034, -43490.88442216926, -76566.21355607672, -46286.417101194515, -85876.83270893487, -29470.618602111175, 0.0, 0.0, 0.0, 193.0, 0.0, 1.0, 1.0, 0.0, 0.0, 1.0, 1.0, 256.0, 1.0, 1.750526839499655E9, 0.0, 2025-06-21 19:27:19.499
38.0, -41565.14752687782, -37252.870172604344, -27581.65032644872, -69262.57988960504, -26569.384523556775, -27299.325442233738, -50772.14399244118, -97054.26955870028, -187500.02235174447, -187500.02235174447, -44802.86476646242, -43485.028265121975, -76575.26601258112, -46281.946752303455, -85910.82971225139, -29464.628334597153, 0.0, 0.0, 0.0, 193.0, 0.0, 1.0, 1.0, 0.0, 0.0, 1.0, 1.0, 256.0, 1.0, 1.750526839508675E9, 0.0, 2025-06-21 19:27:19.508
40.0, -41580.346713107436, -37263.509602965074, -27586.858282906807, -69276.57208163406, -26559.14742459624, -27261.685104571, -50768.47830635051, -97058.98577678035, -187500.02235174447, -187500.02235174447, -44806.35163859745, -43492.426692536676, -76580.31750682801, -46290.5745256632, -85930.20867469415, -29471.333857933743, 0.0, 0.0, 0.0, 193.0, 0.0, 1.0, 1.0, 0.0, 0.0, 1.0, 1.0, 256.0, 1.0, 1.750526839515699E9, 0.0, 2025-06-21 19:27:19.515
42.0, -41576.27869561657, -37263.24138203161, -27592.736791698553, -69280.03660202463, -26562.45548277563, -27263.16031970505, -50776.92726575462, -97057.06352675719, -187500.02235174447, -187500.02235174447, -44820.54499632657, -43505.81538746541, -76575.44482653675, -46302.59976418016, -85882.80062470444, -29485.236642984946, 0.0, 0.0, 0.0, 193.0, 0.0, 1.0, 1.0, 0.0, 0.0, 1.0, 1.0, 256.0, 1.0, 1.750526839523677E9, 0.0, 2025-06-21 19:27:19.523
44.0, -41559.9619221642, -37253.40661447127, -27580.97977411506, -69256.70138081329, -26568.35634331183, -27285.668526371544, -50747.73588749598, -97040.23266318234, -187500.02235174447, -187500.02235174447, -44805.47992056369, -43487.21873607859, -76584.92196618581, -46272.715481843414, -85935.79661080797, -29452.267819913366, 0.0, 0.0, 0.0, 193.0, 0.0, 1.0, 1.0, 0.0, 0.0, 1.0, 1.0, 256.0, 1.0, 1.750526839531751E9, 0.0, 2025-06-21 19:27:19.531
46.0, -41595.501195848134, -37276.38420777133, -27587.193559073636, -69279.52251190216, -26552.866584404303, -27242.462604339435, -50782.11287046825, -97053.26373019979, -187500.02235174447, -187500.02235174447, -44814.91235672383, -43493.23135533707, -76565.56535548752, -46274.30245569974, -85871.6694559657, -29452.111357702182, 0.0, 0.0, 0.0, 193.0, 0.0, 1.0, 1.0, 0.0, 0.0, 1.0, 1.0, 256.0, 1.0, 1.75052683953978E9, 0.0, 2025-06-21 19:27:19.539
48.0, -41571.83069846997, -37257.51933545105, -27580.622146203776, -69261.1493779599, -26561.427302530683, -27308.199084782493, -50769.148858684166, -97048.94984351992, -187500.02235174447, -187500.02235174447, -44828.189292930285, -43517.95238470464, -76605.23970189568, -46285.59008664967, -85922.40791587924, -29464.69538983052, 0.0, 0.0, 0.0, 193.0, 0.0, 1.0, 1.0, 0.0, 0.0, 1.0, 1.0, 256.0, 1.0, 1.750526839547803E9, 0.0, 2025-06-21 19:27:19.547
50.0, -41578.15624215081, -37265.76712915506, -27567.948707097617, -69261.5517093601, -26550.16202332521, -27261.93097376001, -50785.644446092185, -97060.0139570253, -187500.02235174447, -187500.02235174447, -44791.59948725694, -43480.13323308626, -76570.7733119456, -46257.62805433608, -85903.78891274797, -29435.660473783075, 0.0, 0.0, 0.0, 193.0, 0.0, 1.0, 1.0, 0.0, 0.0, 1.0, 1.0, 256.0, 1.0, 1.750526839555835E9, 0.0, 2025-06-21 19:27:19.555
52.0, -41582.49248057514, -37269.05283558999, -27579.102227580814, -69270.22418620875, -26555.414683272207, -27269.39645640808, -50779.96710300054, -97052.41436391049, -187500.02235174447, -187500.02235174447, -44807.53628105358, -43498.171090861695, -76571.77914044609, -46287.51233667283, -85874.97751414508, -29468.4057794101, 0.0, 0.0, 0.0, 193.0, 0.0, 1.0, 1.0, 0.0, 0.0, 1.0, 1.0, 256.0, 1.0, 1.750526839564878E9, 0.0, 2025-06-21 19:27:19.564
54.0, -41567.673274001274, -37258.256943018074, -27575.99533510153, -69263.92099427235, -26554.565316982906, -27302.320575990747, -50766.734870283, -97050.53681737624, -187500.02235174447, -187500.02235174447, -44805.16699614131, -43495.53358501597, -76592.4768558117, -46270.837935309166, -85933.44967764016, -29453.2512966694, 0.0, 0.0, 0.0, 193.0, 0.0, 1.0, 1.0, 0.0, 0.0, 1.0, 1.0, 256.0, 1.0, 1.750526839570882E9, 0.0, 2025-06-21 19:27:19.570
56.0, -41608.84518728795, -37295.02556264705, -27607.488943039054, -69307.41748898238, -26577.185282371676, -27258.77937779181, -50806.02923703543, -97082.92449509198, -187500.02235174447, -187500.02235174447, -44813.03481018959, -43510.35279158984, -76579.55754751654, -46294.30726698724, -85879.15729035823, -29478.12878824816, 0.0, 0.0, 0.0, 193.0, 0.0, 1.0, 1.0, 0.0, 0.0, 1.0, 1.0, 256.0, 1.0, 1.750526839579927E9, 0.0, 2025-06-21 19:27:19.579
58.0, -41581.64311428584, -37265.85653613288, -27595.150780099724, -69275.11921824446, -26572.133788124775, -27295.749163120887, -50774.69209130909, -97068.88759957405, -187500.02235174447, -187500.02235174447, -44841.84620879248, -43526.91543423122, -76615.8791322564, -46318.76007542135, -85943.39620392278, -29498.804151869317, 0.0, 0.0, 0.0, 193.0, 0.0, 1.0, 1.0, 0.0, 0.0, 1.0, 1.0, 256.0, 1.0, 1.750526839587942E9, 0.0, 2025-06-21 19:27:19.587
60.0, -41575.585791538455, -37263.643713431804, -27573.424884489166, -69265.28445068414, -26546.988075612557, -27233.901886213054, -50767.36071912775, -97048.59221560863, -187500.02235174447, -187500.02235174447, -44791.37596981239, -43477.71924468509, -76566.48177701018, -46268.245132952354, -85908.97451746161, -29446.411662866078, 0.0, 0.0, 0.0, 193.0, 0.0, 1.0, 1.0, 0.0, 0.0, 1.0, 1.0, 256.0, 1.0, 1.75052683959698E9, 0.0, 2025-06-21 19:27:19.596
62.0, -41581.79957649703, -37262.70494016468, -27584.511349738998, -69271.6994013428, -26564.131863609775, -27270.022305252827, -50771.80871627435, -97059.27634945826, -187500.02235174447, -187500.02235174447, -44823.27190915011, -43518.310012615926, -76587.55947203154, -46304.83493862569, -85893.48475855408, -29485.281346473857, 0.0, 0.0, 0.0, 193.0, 0.0, 1.0, 1.0, 0.0, 0.0, 1.0, 1.0, 256.0, 1.0, 1.750526839603003E9, 0.0, 2025-06-21 19:27:19.603
64.0, -41575.719902005185, -37273.97021937015, -27570.899137365715, -69259.8976802704, -26560.57793624138, -27308.69082316051, -50781.665835579144, -97052.77199182178, -187500.02235174447, -187500.02235174447, -44785.83273718748, -43473.1594888162, -76572.76261720213, -46248.396783876036, -85914.0260117085, -29431.30188361429, 0.0, 0.0, 0.0, 193.0, 0.0, 1.0, 1.0, 0.0, 0.0, 1.0, 1.0, 256.0, 1.0, 1.750526839612038E9, 0.0, 2025-06-21 19:27:19.612
66.0, -41614.83545480197, -37305.307365096494, -27607.198370361137, -69304.77998313666, -26572.893747436257, -27264.613183094643, -50810.186661504114, -97088.8700591171, -187500.02235174447, -187500.02235174447, -44826.021173718116, -43515.33723060337, -76589.45937031024, -46300.58810717918, -85890.95901143063, -29483.090875517235, 0.0, 0.0, 0.0, 193.0, 0.0, 1.0, 1.0, 0.0, 0.0, 1.0, 1.0, 256.0, 1.0, 1.750526839620056E9, 0.0, 2025-06-21 19:27:19.620
68.0, -41584.99587595414, -37276.60772521588, -27601.364565058302, -69278.44962816831, -26576.537081782473, -27309.294320260804, -50773.93213199761, -97066.38420419506, -187500.02235174447, -187500.02235174447, -44852.0386042641, -43533.44214361216, -76621.84704802597, -46323.45394175696, -85952.67217787173, -29503.74388739394, 0.0, 0.0, 0.0, 193.0, 0.0, 1.0, 1.0, 0.0, 0.0, 1.0, 1.0, 256.0, 1.0, 1.7505268396271E9, 0.0, 2025-06-21 19:27:19.627
70.0, -41574.33409384896, -37271.131547824334, -27572.195538544125, -69264.45743613929, -26551.033741358966, -27253.05733121125, -50777.486059366, -97058.20346572441, -187500.02235174447, -187500.02235174447, -44792.24768784615, -43479.619142963784, -76568.44873052224, -46272.11198474312, -85908.54983431696, -29451.30669490179, 0.0, 0.0, 0.0, 193.0, 0.0, 1.0, 1.0, 0.0, 0.0, 1.0, 1.0, 256.0, 1.0, 1.75052683963612E9, 0.0, 2025-06-21 19:27:19.636
72.0, -41572.63536127035, -37253.451317960185, -27596.961271400603, -69285.15515150489, -26578.101703894343, -27267.49655812938, -50809.9407923151, -97088.7135969059, -187500.02235174447, -187500.02235174447, -44817.03577244709, -43505.88244269877, -76579.49049228316, -46317.7318951764, -85897.5304243005, -29496.188997768048, 0.0, 0.0, 0.0, 193.0, 0.0, 1.0, 1.0, 0.0, 0.0, 1.0, 1.0, 256.0, 1.0, 1.750526839644135E9, 0.0, 2025-06-21 19:27:19.644
74.0, -41560.341901819935, -37257.22876277313, -27568.663962920185, -69258.82479653654, -26557.627505973283, -27297.44789569949, -50773.99918723097, -97064.30549196071, -187500.02235174447, -187500.02235174447, -44796.06983614801, -43483.977733132575, -76583.3796958184, -46289.233420995886, -85948.71591910314, -29467.802282309807, 0.0, 0.0, 0.0, 193.0, 0.0, 1.0, 1.0, 0.0, 0.0, 1.0, 1.0, 256.0, 1.0, 1.750526839651193E9, 0.0, 2025-06-21 19:27:19.651
76.0, -41574.93759094925, -37267.39880650029, -27578.945765369626, -69276.23680546723, -26549.804395413925, -27233.700720512956, -50787.29847518188, -97061.84680007062, -187500.02235174447, -187500.02235174447, -44796.56157452602, -43489.766834946495, -76559.97741937368, -46290.127490774095, -85879.24669733604, -29470.752712577905, 0.0, 0.0, 0.0, 193.0, 0.0, 1.0, 1.0, 0.0, 0.0, 1.0, 1.0, 256.0, 1.0, 1.75052683965919E9, 0.0, 2025-06-21 19:27:19.659
78.0, -41554.17282035027, -37252.55724818197, -27576.531776968455, -69257.90837501388, -26563.126035109286, -27305.181599281026, -50758.68824227909, -97048.30164293072, -187500.02235174447, -187500.02235174447, -44805.43521707478, -43493.901907670726, -76579.6246027499, -46287.86996458411, -85920.01627922253, -29467.44465439852, 0.0, 0.0, 0.0, 193.0, 0.0, 1.0, 1.0, 0.0, 0.0, 1.0, 1.0, 256.0, 1.0, 1.750526839668218E9, 0.0, 2025-06-21 19:27:19.668
80.0, -41577.28452411706, -37279.62521071735, -27575.12361706777, -69271.40882866488, -26553.268915804496, -27261.662752826545, -50790.472422894534, -97065.66894837248, -187500.02235174447, -187500.02235174447, -44785.78803369857, -43483.41893952119, -76567.95699214423, -46265.384109662074, -85908.16985466122, -29447.283380899833, 0.0, 0.0, 0.0, 193.0, 0.0, 1.0, 1.0, 0.0, 0.0, 1.0, 1.0, 256.0, 1.0, 1.75052683967626E9, 0.0, 2025-06-21 19:27:19.676
82.0, -41569.2602478576, -37269.63398094582, -27576.107093823804, -69272.5040641432, -26552.2183838151, -27278.78418907931, -50783.208105946556, -97064.55136114972, -187500.02235174447, -187500.02235174447, -44812.14074041137, -43510.531605545475, -76577.03180039309, -46300.677514157, -85889.19322361865, -29481.459198172, 0.0, 0.0, 0.0, 193.0, 0.0, 1.0, 1.0, 0.0, 0.0, 1.0, 1.0, 256.0, 1.0, 1.750526839683286E9, 0.0, 2025-06-21 19:27:19.683
84.0, -41551.110631359894, -37258.72632965164, -27565.31120125189, -69263.0492762386, -26553.984171627068, -27325.700500691, -50767.65129180566, -97053.37548892206, -187500.02235174447, -187500.02235174447, -44771.6170277139, -43474.23237255006, -76564.38071303138, -46255.54934210174, -85921.06681121193, -29437.470965083954, 0.0, 0.0, 0.0, 193.0, 0.0, 1.0, 1.0, 0.0, 0.0, 1.0, 1.0, 256.0, 1.0, 1.7505268396913E9, 0.0, 2025-06-21 19:27:19.691
86.0, -41566.220410611684, -37268.38228325633, -27569.558032698398, -69272.7499333322, -26546.16106106771, -27247.96113347544, -50784.21393444705, -97059.58927388064, -187500.02235174447, -187500.02235174447, -44798.34971408245, -43505.12248338729, -76567.19703283274, -46286.37239770561, -85875.42454903419, -29470.283325944347, 0.0, 0.0, 0.0, 193.0, 0.0, 1.0, 1.0, 0.0, 0.0, 1.0, 1.0, 256.0, 1.0, 1.750526839700323E9, 0.0, 2025-06-21 19:27:19.700
88.0, -41553.36815754988, -37255.28416100552, -27586.210082317604, -69267.22905245174, -26564.40008454324, -27319.106736076683, -50767.00309121646, -97059.79043958074, -187500.02235174447, -187500.02235174447, -44805.54697579706, -43499.37808506228, -76582.93266092929, -46289.25577274034, -85918.8763402553, -29469.992753266426, 0.0, 0.0, 0.0, 193.0, 0.0, 1.0, 1.0, 0.0, 0.0, 1.0, 1.0, 256.0, 1.0, 1.750526839707364E9, 0.0, 2025-06-21 19:27:19.707
90.0, -41564.812250710995, -37264.26956227655, -27579.526910725464, -69273.19696822131, -26557.336933295363, -27263.428540638513, -50794.51808864094, -97062.83027682666, -187500.02235174447, -187500.02235174447, -44792.96294366872, -43490.63855298025, -76575.69069572577, -46277.49875515685, -85914.87537799781, -29457.87810777165, 0.0, 0.0, 0.0, 193.0, 0.0, 1.0, 1.0, 0.0, 0.0, 1.0, 1.0, 256.0, 1.0, 1.750526839715352E9, 0.0, 2025-06-21 19:27:19.715
92.0, -41571.83069846997, -37268.672855934245, -27599.017631890492, -69293.82762835355, -26572.06673289141, -27276.839587311697, -50824.69294365561, -97086.52312594929, -187500.02235174447, -187500.02235174447, -44816.32051662452, -43516.16424514821, -76583.89378594086, -46312.143959062574, -85897.86570046732, -29492.098628532724, 0.0, 0.0, 0.0, 193.0, 0.0, 1.0, 1.0, 0.0, 0.0, 1.0, 1.0, 256.0, 1.0, 1.75052683972447E9, 0.0, 2025-06-21 19:27:19.724
94.0, -41547.98138713615, -37248.01984405754, -27578.968117114084, -69276.77324733416, -26554.990000127556, -27322.660663445076, -50807.12447251374, -97084.28795150375, -187500.02235174447, -187500.02235174447, -44801.277792606095, -43502.97671591958, -76594.17558839031, -46292.58618266418, -85949.94526504818, -29476.363000436188, 0.0, 0.0, 0.0, 193.0, 0.0, 1.0, 1.0, 0.0, 0.0, 1.0, 1.0, 256.0, 1.0, 1.750526839732482E9, 0.0, 2025-06-21 19:27:19.732
96.0, -41562.375910565366, -37251.81964061494, -27585.31601253939, -69297.31450048859, -26554.364151282807, -27247.15647067505, -50812.31007722737, -97094.10036731964, -187500.02235174447, -187500.02235174447, -44800.74135073917, -43506.53064328797, -76571.93560265728, -46304.61142118114, -85887.7180084846, -29491.159855265603, 0.0, 0.0, 0.0, 193.0, 0.0, 1.0, 1.0, 0.0, 0.0, 1.0, 1.0, 256.0, 1.0, 1.75052683973942E9, 0.0, 2025-06-21 19:27:19.739
98.0, -41512.12918902984, -37215.45335238616, -27559.49974769351, -69260.36706690396, -26538.78498539746, -27303.125238791137, -50748.56290204083, -97043.60777659509, -187500.02235174447, -187500.02235174447, -44803.356504840434, -43507.80469272193, -76585.01137316364, -46305.103159559156, -85923.19022693518, -29491.31631747679, 0.0, 0.0, 0.0, 193.0, 0.0, 1.0, 1.0, 0.0, 0.0, 1.0, 1.0, 256.0, 1.0, 1.750526839747514E9, 0.0, 2025-06-21 19:27:19.747
100.0, -41559.17961110826, -37272.584411213924, -27587.774704429474, -69299.3038057451, -26562.902517664734, -27287.948404305986, -50792.2382107065, -97076.44248919994, -187500.02235174447, -187500.02235174447, -44765.38089101087, -43481.5637447314, -76553.38365475937, -46271.039101009264, -85902.00077319155, -29458.325142660757, 0.0, 0.0, 0.0, 193.0, 0.0, 1.0, 1.0, 0.0, 0.0, 1.0, 1.0, 256.0, 1.0, 1.75052683975556E9, 0.0, 2025-06-21 19:27:19.755
102.0, -41554.84337268393, -37264.26956227655, -27579.70572468111, -69284.93163406034, -26547.770386668493, -27281.01936352484, -50785.84561179228, -97070.7651461083, -187500.02235174447, -187500.02235174447, -44818.041600947574, -43534.582082579385, -76588.65470750985, -46331.589976738695, -85909.77918026199, -29515.567960210796, 0.0, 0.0, 0.0, 193.0, 0.0, 1.0, 1.0, 0.0, 0.0, 1.0, 1.0, 256.0, 1.0, 1.750526839763563E9, 0.0, 2025-06-21 19:27:19.763
104.0, -41538.16897132027, -37243.594198655395, -27567.725189653065, -69263.36220066097, -26549.200898313633, -27304.712212647464, -50765.8855039937, -97060.19277098094, -187500.02235174447, -187500.02235174447, -44776.98144638317, -43487.01757037849, -76569.7227799562, -46276.18000223399, -85933.60613985136, -29457.92281126056, 0.0, 0.0, 0.0, 193.0, 0.0, 1.0, 1.0, 0.0, 0.0, 1.0, 1.0, 256.0, 1.0, 1.750526839771595E9, 0.0, 2025-06-21 19:27:19.771
106.0, -41576.43515782776, -37271.28801003552, -27593.69791671013, -69302.16482903539, -26558.812148429413, -27263.76381680534, -50801.82710907783, -97079.16940202349, -187500.02235174447, -187500.02235174447, -44806.75396999764, -43514.37610559179, -76573.18730034678, -46306.24309852637, -85898.75977024552, -29486.73420986345, 0.0, 0.0, 0.0, 193.0, 0.0, 1.0, 1.0, 0.0, 0.0, 1.0, 1.0, 256.0, 1.0, 1.750526839779638E9, 0.0, 2025-06-21 19:27:19.779
108.0, -41536.35848001939, -37237.916855563744, -27567.50167220851, -69261.57406110455, -26548.48564249106, -27320.93957912202, -50766.95838772755, -97048.99454700883, -187500.02235174447, -187500.02235174447, -44798.9755629272, -43501.881480441276, -76577.74705621565, -46283.51137441533, -85912.03670645198, -29464.941259019528, 0.0, 0.0, 0.0, 193.0, 0.0, 1.0, 1.0, 0.0, 0.0, 1.0, 1.0, 256.0, 1.0, 1.750526839788647E9, 0.0, 2025-06-21 19:27:19.788
110.0, -41563.53820127704, -37260.87209711935, -27578.096399080325, -69281.37770669196, -26560.376770541287, -27285.713229860456, -50790.07009149434, -97067.83706758465, -187500.02235174447, -187500.02235174447, -44783.932838908775, -43489.96800064659, -76569.20868983373, -46275.8223743227, -85917.98227047709, -29455.86645077067, 0.0, 0.0, 0.0, 193.0, 0.0, 1.0, 1.0, 0.0, 0.0, 1.0, 1.0, 256.0, 1.0, 1.750526839795651E9, 0.0, 2025-06-21 19:27:19.795
112.0, -41560.18543960875, -37246.61168415686, -27581.31505028189, -69279.79073283562, -26562.611944986817, -27282.27106121434, -50786.22559144803, -97065.78070709476, -187500.02235174447, -187500.02235174447, -44811.80546424454, -43513.1691113912, -76575.93656491478, -46306.84659562667, -85891.16017713073, -29488.567052908787, 0.0, 0.0, 0.0, 193.0, 0.0, 1.0, 1.0, 0.0, 0.0, 1.0, 1.0, 256.0, 1.0, 1.750526839803724E9, 0.0, 2025-06-21 19:27:19.803
114.0, -41527.66365142628, -37228.55147463697, -27551.229602245046, -69247.33599988652, -26540.237848787052, -27290.87648282963, -50752.69797476506, -97040.03149748224, -187500.02235174447, -187500.02235174447, -44779.887173162366, -43476.80282316242, -76568.40402703334, -46269.00509226383, -85931.2368549391, -29448.646837311608, 0.0, 0.0, 0.0, 193.0, 0.0, 1.0, 1.0, 0.0, 0.0, 1.0, 1.0, 256.0, 1.0, 1.750526839811715E9, 0.0, 2025-06-21 19:27:19.811
116.0, -41559.04550064153, -37265.78948089951, -27578.610489202798, -69286.87623582795, -26543.076520332877, -27250.35277013216, -50780.056509978356, -97061.28800645925, -187500.02235174447, -187500.02235174447, -44771.05823410252, -43480.80378541992, -76541.04549182004, -46272.98370277687, -85861.92409538319, -29454.190069936525, 0.0, 0.0, 0.0, 193.0, 0.0, 1.0, 1.0, 0.0, 0.0, 1.0, 1.0, 256.0, 1.0, 1.750526839819707E9, 0.0, 2025-06-21 19:27:19.819
118.0, -41560.073680886475, -37263.75547215408, -27598.97292840158, -69290.98895680773, -26587.958823199133, -27332.808355427787, -50772.47926860801, -97062.47264891537, -187500.02235174447, -187500.02235174447, -44830.580929587, -43535.6773180577, -76609.88886474239, -46315.00498235285, -85942.79270682248, -29497.485398946454, 0.0, 0.0, 0.0, 193.0, 0.0, 1.0, 1.0, 0.0, 0.0, 1.0, 1.0, 256.0, 1.0, 1.750526839827701E9, 0.0, 2025-06-21 19:27:19.827
120.0, -41570.40018682482, -37275.06545484847, -27585.964213128595, -69294.56523592059, -26553.179508826677, -27271.20694770896, -50785.30916992536, -97060.5056954033, -187500.02235174447, -187500.02235174447, -44790.61601050091, -43499.22162285109, -76576.04832363705, -46269.429775408484, -85910.82971225139, -29451.999598979903, 0.0, 0.0, 0.0, 193.0, 0.0, 1.0, 1.0, 0.0, 0.0, 1.0, 1.0, 256.0, 1.0, 1.750526839835769E9, 0.0, 2025-06-21 19:27:19.835
122.0, -41578.91620146229, -37274.19373681471, -27606.885445938762, -69308.24450352722, -26573.206671858632, -27294.005727053373, -50800.30719045486, -97078.11887003409, -187500.02235174447, -187500.02235174447, -44839.92395876932, -43545.1768094512, -76606.87137924093, -46324.92915689101, -85907.27578488301, -29509.108306063215, 0.0, 0.0, 0.0, 193.0, 0.0, 1.0, 1.0, 0.0, 0.0, 1.0, 1.0, 256.0, 1.0, 1.750526839843775E9, 0.0, 2025-06-21 19:27:19.843
124.0, -41546.34970979091, -37235.99460554059, -27583.17024507168, -69273.62165136596, -26556.979305384077, -27313.94348310751, -50781.91170476815, -97063.6125878826, -187500.02235174447, -187500.02235174447, -44804.11646415192, -43506.86591945481, -76594.80143723506, -46282.88552557058, -85946.36898593533, -29465.96943926447, 0.0, 0.0, 0.0, 193.0, 0.0, 1.0, 1.0, 0.0, 0.0, 1.0, 1.0, 256.0, 1.0, 1.750526839850789E9, 0.0, 2025-06-21 19:27:19.850
126.0, -41575.026997927074, -37265.2977425215, -27611.98164367457, -69312.04430008463, -26572.804340458435, -27267.720075573932, -50815.081693539825, -97089.9205911065, -187500.02235174447, -187500.02235174447, -44817.996897458666, -43522.82506499589, -76585.81603596402, -46310.624040439616, -85904.75003775956, -29492.612718655197, 0.0, 0.0, 0.0, 193.0, 0.0, 1.0, 1.0, 0.0, 0.0, 1.0, 1.0, 256.0, 1.0, 1.750526839859844E9, 0.0, 2025-06-21 19:27:19.859
128.0, -41551.69177671573, -37259.21806802965, -27591.41803877569, -69281.66827936987, -26564.645953732248, -27321.207800055483, -50776.61434133224, -97060.0586605142, -187500.02235174447, -187500.02235174447, -44825.84235976248, -43532.57042557841, -76607.74309727468, -46318.60361321016, -85945.20669522366, -29500.74875363693, 0.0, 0.0, 0.0, 193.0, 0.0, 1.0, 1.0, 0.0, 0.0, 1.0, 1.0, 256.0, 1.0, 1.750526839867935E9, 0.0, 2025-06-21 19:27:19.867
130.0, -41558.84433494143, -37269.745739668106, -27589.74165794154, -69284.9539858048, -26571.798511957946, -27260.589869092688, -50788.796042060385, -97070.69809087492, -187500.02235174447, -187500.02235174447, -44803.1776908848, -43501.81442520791, -76581.74801847315, -46283.53372615978, -85925.53716010299, -29462.236697940436, 0.0, 0.0, 0.0, 193.0, 0.0, 1.0, 1.0, 0.0, 0.0, 1.0, 1.0, 256.0, 1.0, 1.750526839875933E9, 0.0, 2025-06-21 19:27:19.875
132.0, -41535.71027943019, -37243.54949516648, -27580.845663648328, -69281.75768634769, -26552.486604748563, -27286.58494789421, -50790.69594033909, -97062.53970414874, -187500.02235174447, -187500.02235174447, -44810.66552527732, -43512.207986379624, -76573.23200383568, -46303.270316513815, -85883.4711770381, -29483.180282495057, 0.0, 0.0, 0.0, 193.0, 0.0, 1.0, 1.0, 0.0, 0.0, 1.0, 1.0, 256.0, 1.0, 1.750526839882954E9, 0.0, 2025-06-21 19:27:19.882
134.0, -41522.7015641572, -37237.581579396916, -27575.03421008995, -69275.67801185585, -26559.862680418813, -27320.201971554994, -50771.65225406316, -97057.1082302461, -187500.02235174447, -187500.02235174447, -44791.75594946813, -43496.60646874982, -76582.10564638444, -46279.80098483575, -85937.80826780896, -29461.49909037341, 0.0, 0.0, 0.0, 193.0, 0.0, 1.0, 1.0, 0.0, 0.0, 1.0, 1.0, 256.0, 1.0, 1.750526839891973E9, 0.0, 2025-06-21 19:27:19.891
136.0, -41549.54600924802, -37246.9916638126, -27589.406381774712, -69294.96756732078, -26568.713971223115, -27254.264325411837, -50795.05453050787, -97065.35602395011, -187500.02235174447, -187500.02235174447, -44795.15341462534, -43503.80373046443, -76561.7208554412, -46287.31117097273, -85879.11258686932, -29470.73036083345, 0.0, 0.0, 0.0, 193.0, 0.0, 1.0, 1.0, 0.0, 0.0, 1.0, 1.0, 256.0, 1.0, 1.750526839899975E9, 0.0, 2025-06-21 19:27:19.899
138.0, -41555.29040757303, -37255.17240228324, -27611.355794829822, -69298.52149468916, -26589.34463135536, -27338.50805026389, -50794.56279212985, -97074.56494266569, -187500.02235174447, -187500.02235174447, -44832.25731042115, -43526.15547491974, -76607.27371064112, -46314.75911316385, -85944.55849463446, -29496.680736146063, 0.0, 0.0, 0.0, 193.0, 0.0, 1.0, 1.0, 0.0, 0.0, 1.0, 1.0, 256.0, 1.0, 1.75052683990705E9, 0.0, 2025-06-21 19:27:19.907
140.0, -41553.12228836087, -37254.94888483869, -27593.139123098746, -69292.37476496396, -26561.53906125296, -27295.480942187423, -50789.04191124939, -97070.29575947473, -187500.02235174447, -187500.02235174447, -44806.59750778646, -43508.028210166485, -76589.99581217716, -46290.127490774095, -85936.62362535282, -29471.13269223365, 0.0, 0.0, 0.0, 193.0, 0.0, 1.0, 1.0, 0.0, 0.0, 1.0, 1.0, 256.0, 1.0, 1.750526839916054E9, 0.0, 2025-06-21 19:27:19.916
142.0, -41562.33120707646, -37262.101443064385, -27614.730908242575, -69309.76442215018, -26587.467084821117, -27298.565482922255, -50809.985495804016, -97082.87979160307, -187500.02235174447, -187500.02235174447, -44829.10571445295, -43537.13018144729, -76595.94137620227, -46322.31400278974, -85908.5274825725, -29504.906178105615, 0.0, 0.0, 0.0, 193.0, 0.0, 1.0, 1.0, 0.0, 0.0, 1.0, 1.0, 256.0, 1.0, 1.750526839924056E9, 0.0, 2025-06-21 19:27:19.924
144.0, -41548.94251214773, -37248.44452720219, -27608.02538490598, -69296.9568725773, -26588.31645111042, -27320.35843376618, -50785.2868181809, -97080.37639622408, -187500.02235174447, -187500.02235174447, -44815.87348173541, -43518.60058529384, -76603.54096931708, -46302.577412435705, -85970.6429804138, -29481.235680727445, 0.0, 0.0, 0.0, 193.0, 0.0, 1.0, 1.0, 0.0, 0.0, 1.0, 1.0, 256.0, 1.0, 1.750526839931108E9, 0.0, 2025-06-21 19:27:19.931
146.0, -41570.80251822502, -37270.86332689087, -27612.875713452784, -69316.64875944243, -26590.059887177933, -27269.44115989699, -50806.65508588017, -97084.60087592613, -187500.02235174447, -187500.02235174447, -44823.562481828034, -43529.28471914348, -76588.74411448766, -46322.20224406746, -85915.90355824275, -29501.151085037123, 0.0, 0.0, 0.0, 193.0, 0.0, 1.0, 1.0, 0.0, 0.0, 1.0, 1.0, 256.0, 1.0, 1.750526839941142E9, 0.0, 2025-06-21 19:27:19.941
148.0, -41530.81524739447, -37235.189942740195, -27584.086666594347, -69281.13183750294, -26559.39329378525, -27314.815201141264, -50783.94571351358, -97066.20539023941, -187500.02235174447, -187500.02235174447, -44817.147531169365, -43521.34984986184, -76594.75673374615, -46308.8806043721, -85933.02499449551, -29491.606890154708, 0.0, 0.0, 0.0, 193.0, 0.0, 1.0, 1.0, 0.0, 0.0, 1.0, 1.0, 256.0, 1.0, 1.750526839948202E9, 0.0, 2025-06-21 19:27:19.948
150.0, -41568.6120472684, -37269.96925711266, -27606.438411049654, -69310.99376809523, -26578.191110872165, -27298.632538155623, -50806.78919634691, -97089.63001842858, -187500.02235174447, -187500.02235174447, -44803.87059496291, -43509.92810844519, -76590.10757089945, -46299.917554845524, -85936.69068058618, -29484.163759251092, 0.0, 0.0, 0.0, 193.0, 0.0, 1.0, 1.0, 0.0, 0.0, 1.0, 1.0, 256.0, 1.0, 1.750526839956138E9, 0.0, 2025-06-21 19:27:19.956
152.0, -41561.548896020526, -37256.35704473937, -27617.167248388203, -69316.78286990916, -26583.332012096886, -27307.68499466002, -50803.52584165643, -97092.78161439676, -187500.02235174447, -187500.02235174447, -44832.34671739897, -43537.867789014315, -76600.81405649353, -46336.64147098559, -85918.45165711065, -29521.13354458017, 0.0, 0.0, 0.0, 193.0, 0.0, 1.0, 1.0, 0.0, 0.0, 1.0, 1.0, 256.0, 1.0, 1.750526839963183E9, 0.0, 2025-06-21 19:27:19.963
154.0, -41532.871607884364, -37232.887713061304, -27595.977794644572, -69292.88885508644, -26574.748942226048, -27328.248599558905, -50786.87379203723, -97073.91674207649, -187500.02235174447, -187500.02235174447, -44810.352600854945, -43513.66084976922, -76601.32814661601, -46307.89712761607, -85970.97825658062, -29492.411552955098, 0.0, 0.0, 0.0, 193.0, 0.0, 1.0, 1.0, 0.0, 0.0, 1.0, 1.0, 256.0, 1.0, 1.750526839971192E9, 0.0, 2025-06-21 19:27:19.971
156.0, -41576.52456480558, -37272.874983891845, -27620.94469320115, -69329.3669020375, -26585.03074467549, -27278.49361640139, -50830.10206581379, -97103.30928603522, -187500.02235174447, -187500.02235174447, -44823.47307485021, -43532.771591278506, -76591.35926858893, -46326.29261330279, -85919.6810030557, -29510.047079330336, 0.0, 0.0, 0.0, 193.0, 0.0, 1.0, 1.0, 0.0, 0.0, 1.0, 1.0, 256.0, 1.0, 1.750526839980233E9, 0.0, 2025-06-21 19:27:19.980
158.0, -41545.00860512359, -37245.38233821182, -27613.434507064165, -69307.5068959602, -26591.713916267625, -27335.825840929254, -50797.78144333142, -97083.32682649218, -187500.02235174447, -187500.02235174447, -44836.41473488983, -43544.57331235091, -76616.39322237889, -46334.9874418959, -85963.8927535883, -29517.35609976722, 0.0, 0.0, 0.0, 193.0, 0.0, 1.0, 1.0, 0.0, 0.0, 1.0, 1.0, 256.0, 1.0, 1.750526839987207E9, 0.0, 2025-06-21 19:27:19.987
160.0, -41546.640282468834, -37253.719538893645, -27593.586157987855, -69303.39417498042, -26558.655686218226, -27294.40805845357, -50797.66968460914, -97077.89535258953, -187500.02235174447, -187500.02235174447, -44798.90850769383, -43514.06318116942, -76588.20767262075, -46299.93990658998, -85940.64693935477, -29480.96745979398, 0.0, 0.0, 0.0, 193.0, 0.0, 1.0, 1.0, 0.0, 0.0, 1.0, 1.0, 256.0, 1.0, 1.750526839995305E9, 0.0, 2025-06-21 19:27:19.995
162.0, -41572.27773335907, -37275.82541415995, -27622.71048101312, -69321.05205310012, -26592.20565464564, -27302.857017857674, -50811.48306268252, -97099.30832377772, -187500.02235174447, -187500.02235174447, -44829.508045853145, -43541.935806505186, -76598.60123379246, -46329.488912759894, -85909.24273839507, -29511.566997953298, 0.0, 0.0, 0.0, 193.0, 0.0, 1.0, 1.0, 0.0, 0.0, 1.0, 1.0, 256.0, 1.0, 1.750526840003327E9, 0.0, 2025-06-21 19:27:20.003
164.0, -41567.49446004564, -37271.89150713581, -27620.676472267685, -69307.77511689367, -26602.956843728643, -27346.64408524562, -50794.11575724075, -97093.5192219638, -187500.02235174447, -187500.02235174447, -44831.69851680977, -43531.2740244, -76621.37766139241, -46313.99915385237, -85979.65073342928, -29493.395029711133, 0.0, 0.0, 0.0, 193.0, 0.0, 1.0, 1.0, 0.0, 0.0, 1.0, 1.0, 256.0, 1.0, 1.750526840012344E9, 0.0, 2025-06-21 19:27:20.012
166.0, -41583.61006779791, -37281.79332992951, -27619.84945772284, -69327.55641073661, -26582.147369640756, -27280.751142591376, -50815.95341157358, -97098.70482667742, -187500.02235174447, -187500.02235174447, -44841.91326402584, -43548.507219375046, -76609.66534729784, -46333.44517152848, -85926.29711941446, -29513.869227632193, 0.0, 0.0, 0.0, 193.0, 0.0, 1.0, 1.0, 0.0, 0.0, 1.0, 1.0, 256.0, 1.0, 1.750526840019359E9, 0.0, 2025-06-21 19:27:20.019
168.0, -41575.18346013826, -37275.15486182629, -27630.757109017028, -69328.89751540394, -26615.295006667973, -27348.27576259086, -50818.25564125248, -97105.85738490312, -187500.02235174447, -187500.02235174447, -44841.57798785901, -43550.317710675925, -76624.30573991606, -46332.12641860562, -85956.11434651785, -29514.763297410405, 0.0, 0.0, 0.0, 193.0, 0.0, 1.0, 1.0, 0.0, 0.0, 1.0, 1.0, 256.0, 1.0, 1.750526840027424E9, 0.0, 2025-06-21 19:27:20.027
170.0, -41586.29227713255, -37275.08780659292, -27626.4208705927, -69324.78479442415, -26599.134695426786, -27288.82012233974, -50804.82224283484, -97093.58627719716, -187500.02235174447, -187500.02235174447, -44829.39628713087, -43538.024251225506, -76615.20857992275, -46312.79215965178, -85958.37187270784, -29492.92564307757, 0.0, 0.0, 0.0, 193.0, 0.0, 1.0, 1.0, 0.0, 0.0, 1.0, 1.0, 256.0, 1.0, 1.750526840036482E9, 0.0, 2025-06-21 19:27:20.036
172.0, -41571.9648089367, -37263.5990099429, -27636.590914319866, -69335.84890792954, -26602.286291394987, -27312.289454017813, -50810.7901586044, -97098.23544004386, -187500.02235174447, -187500.02235174447, -44857.35831944446, -43558.2302282131, -76623.72459456022, -46346.85621820167, -85931.97446250611, -29525.98387312697, 0.0, 0.0, 0.0, 193.0, 0.0, 1.0, 1.0, 0.0, 0.0, 1.0, 1.0, 256.0, 1.0, 1.750526840043433E9, 0.0, 2025-06-21 19:27:20.043
174.0, -41563.426442554766, -37269.70103617919, -27607.17601861668, -69307.77511689367, -26587.78000924349, -27350.019198658374, -50777.821335532826, -97077.35891072261, -187500.02235174447, -187500.02235174447, -44829.172769686316, -43537.33134714739, -76624.55160910507, -46313.57447070772, -85975.13568104932, -29493.50678843341, 0.0, 0.0, 0.0, 193.0, 0.0, 1.0, 1.0, 0.0, 0.0, 1.0, 1.0, 256.0, 1.0, 1.750526840051495E9, 0.0, 2025-06-21 19:27:20.051
176.0, -41619.417562415314, -37326.31800488449, -27643.05056846745, -69360.45817857483, -26601.70514603915, -27321.587779711223, -50824.91646110016, -97112.51820475081, -187500.02235174447, -187500.02235174447, -44838.91813026883, -43554.47513514461, -76614.73919328919, -46339.43543904251, -85926.61004383684, -29522.45229750303, 0.0, 0.0, 0.0, 193.0, 0.0, 1.0, 1.0, 0.0, 0.0, 1.0, 1.0, 256.0, 1.0, 1.75052684005951E9, 0.0, 2025-06-21 19:27:20.059
178.0, -41583.09597767544, -37293.371533557365, -27626.107946170327, -69327.7128729478, -26601.392221616774, -27363.542004053834, -50804.88929806821, -97100.53766972276, -187500.02235174447, -187500.02235174447, -44852.39623217538, -43568.221457984626, -76639.12494648993, -46353.58409328271, -85971.02296006953, -29538.791422699862, 0.0, 0.0, 0.0, 193.0, 0.0, 1.0, 1.0, 0.0, 0.0, 1.0, 1.0, 256.0, 1.0, 1.750526840068612E9, 0.0, 2025-06-21 19:27:20.068
180.0, -41589.354466122924, -37302.55810052849, -27607.6677569947, -69315.39706175293, -26571.30677357993, -27313.54115170731, -50794.741606085496, -97083.4609369589, -187500.02235174447, -187500.02235174447, -44822.71311553873, -43539.92414950421, -76613.3310333885, -46320.34704927767, -85958.97536980813, -29502.53689319335, 0.0, 0.0, 0.0, 193.0, 0.0, 1.0, 1.0, 0.0, 0.0, 1.0, 1.0, 256.0, 1.0, 1.750526840075599E9, 0.0, 2025-06-21 19:27:20.075
182.0, -41600.50798660612, -37293.013905646076, -27632.165268917714, -69330.37273053799, -26601.436925105685, -27316.02219534185, -50815.372266217746, -97099.3753790111, -187500.02235174447, -187500.02235174447, -44833.95604299975, -43550.161248464734, -76605.06088794004, -46326.51613074734, -85908.21455815012, -29509.2647682744, 0.0, 0.0, 0.0, 193.0, 0.0, 1.0, 1.0, 0.0, 0.0, 1.0, 1.0, 256.0, 1.0, 1.750526840083565E9, 0.0, 2025-06-21 19:27:20.083
184.0, -41600.91031800632, -37306.492007552624, -27637.149707931247, -69336.27359107419, -26618.424250891716, -27374.583765814754, -50818.97089707505, -97110.52889949428, -187500.02235174447, -187500.02235174447, -44843.90256928236, -43553.469306644125, -76641.04719651309, -46328.4830842594, -85992.65944870228, -29511.008204341913, 0.0, 0.0, 0.0, 193.0, 0.0, 1.0, 1.0, 0.0, 0.0, 1.0, 1.0, 256.0, 1.0, 1.750526840091594E9, 0.0, 2025-06-21 19:27:20.091
186.0, -41615.506007135635, -37315.56681580148, -27646.828013280396, -69348.85762320252, -26600.386393116285, -27311.82006738425, -50835.51118797198, -97114.59691698515, -187500.02235174447, -187500.02235174447, -44855.8384008215, -43569.09317601838, -76629.96073126326, -46351.03599441481, -85947.44186966919, -29532.957617397027, 0.0, 0.0, 0.0, 193.0, 0.0, 1.0, 1.0, 0.0, 0.0, 1.0, 1.0, 256.0, 1.0, 1.750526840099616E9, 0.0, 2025-06-21 19:27:20.099
188.0, -41575.33992234945, -37290.354048055895, -27618.396594333244, -69317.31931177608, -26597.011279703533, -27361.21742263048, -50797.75909158696, -97090.14410855105, -187500.02235174447, -187500.02235174447, -44849.28933969609, -43557.157344479245, -76632.15120221987, -46339.055459386764, -85959.5341634195, -29522.631111458675, 0.0, 0.0, 0.0, 193.0, 0.0, 1.0, 1.0, 0.0, 0.0, 1.0, 1.0, 256.0, 1.0, 1.750526840107692E9, 0.0, 2025-06-21 19:27:20.107
190.0, -41574.3117421045, -37271.57858271344, -27609.32178608439, -69318.6604164434, -26585.611890031327, -27309.696651660997, -50776.502582609966, -97072.17330600898, -187500.02235174447, -187500.02235174447, -44809.74910375466, -43528.144780176255, -76599.65176578186, -46309.12647356111, -85945.29610220148, -29493.395029711133, 0.0, 0.0, 0.0, 193.0, 0.0, 1.0, 1.0, 0.0, 0.0, 1.0, 1.0, 256.0, 1.0, 1.750526840115701E9, 0.0, 2025-06-21 19:27:20.115
192.0, -41611.929728022784, -37314.00219368961, -27651.208955193637, -69360.14525415245, -26612.54574209997, -27339.893858420117, -50832.09137107032, -97125.41516130151, -187500.02235174447, -187500.02235174447, -44862.49922066918, -43575.44107144369, -76631.72651907522, -46363.396509098595, -85937.49534338657, -29547.62036175971, 0.0, 0.0, 0.0, 193.0, 0.0, 1.0, 1.0, 0.0, 0.0, 1.0, 1.0, 256.0, 1.0, 1.750526840123745E9, 0.0, 2025-06-21 19:27:20.123
194.0, -41585.55466956552, -37290.644620733816, -27630.80181250594, -69335.7147974628, -26601.727497783602, -27362.692637764532, -50807.1915277471, -97106.95262038143, -187500.02235174447, -187500.02235174447, -44842.13678147039, -43555.43626015619, -76639.01318776765, -46332.37228779463, -85984.545765465, -29517.780782911872, 0.0, 0.0, 0.0, 193.0, 0.0, 1.0, 1.0, 0.0, 0.0, 1.0, 1.0, 256.0, 1.0, 1.750526840130726E9, 0.0, 2025-06-21 19:27:20.130
196.0, -41625.854864818444, -37322.07117343797, -27655.232269195592, -69373.35513512554, -26611.94224499968, -27315.016366841362, -50844.80951366539, -97133.39473407206, -187500.02235174447, -187500.02235174447, -44851.90449379737, -43573.451766187165, -76631.68181558631, -46364.42468934354, -85948.17947723622, -29551.75543448394, 0.0, 0.0, 0.0, 193.0, 0.0, 1.0, 1.0, 0.0, 0.0, 1.0, 1.0, 256.0, 1.0, 1.7505268401398E9, 0.0, 2025-06-21 19:27:20.139
198.0, -41584.392378853845, -37286.84482417641, -27636.948542231148, -69342.73324522177, -26599.291157637974, -27368.79466400083, -50804.12933875673, -97111.51237625032, -187500.02235174447, -187500.02235174447, -44860.554618901566, -43578.346798222876, -76649.11617626145, -46366.70456727798, -85980.74596890759, -29556.941039197573, 0.0, 0.0, 0.0, 193.0, 0.0, 1.0, 1.0, 0.0, 0.0, 1.0, 1.0, 256.0, 1.0, 1.75052684014782E9, 0.0, 2025-06-21 19:27:20.147
200.0, -41595.34473363695, -37301.887548194834, -27627.694920026654, -69341.92858242137, -26594.776105258003, -27324.58291346823, -50800.73187359952, -97093.5639254527, -187500.02235174447, -187500.02235174447, -44834.626595333415, -43553.64812059976, -76627.14441146188, -46328.52778774832, -85963.06573904345, -29517.043175344847, 0.0, 0.0, 0.0, 193.0, 0.0, 1.0, 1.0, 0.0, 0.0, 1.0, 1.0, 256.0, 1.0, 1.750526840155845E9, 0.0, 2025-06-21 19:27:20.155
202.0, -41632.828609088494, -37336.57745558947, -27670.073827513916, -69379.30069915066, -26625.9344370287, -27355.875355705663, -50839.556853718386, -97130.95839392644, -187500.02235174447, -187500.02235174447, -44866.81310734905, -43592.048417573984, -76641.7848040801, -46365.22935214393, -85940.51282888805, -29553.230649617988, 0.0, 0.0, 0.0, 193.0, 0.0, 1.0, 1.0, 0.0, 0.0, 1.0, 1.0, 256.0, 1.0, 1.750526840163842E9, 0.0, 2025-06-21 19:27:20.163
204.0, -41597.602259826934, -37303.83214996244, -27639.429585865688, -69339.9169254204, -26612.36692814433, -27358.244640617926, -50797.78144333142, -97104.65039070253, -187500.02235174447, -187500.02235174447, -44854.65375836537, -43569.36139695185, -76651.57486815154, -46339.480142531414, -85998.13562609382, -29521.44646900254, 0.0, 0.0, 0.0, 193.0, 0.0, 1.0, 1.0, 0.0, 0.0, 1.0, 1.0, 256.0, 1.0, 1.750526840171874E9, 0.0, 2025-06-21 19:27:20.171
206.0, -41625.0278502736, -37321.534731571046, -27652.684170327684, -69367.5213298227, -26607.181323430697, -27306.16507603706, -50833.7006966711, -97128.11972238061, -187500.02235174447, -187500.02235174447, -44866.92486607133, -43584.60528667036, -76640.33194069052, -46363.21769514295, -85947.03953826899, -29546.435719303576, 0.0, 0.0, 0.0, 193.0, 0.0, 1.0, 1.0, 0.0, 0.0, 1.0, 1.0, 256.0, 1.0, 1.750526840178895E9, 0.0, 2025-06-21 19:27:20.178
208.0, -41595.05416095903, -37297.841882448425, -27639.295475398958, -69341.23567834326, -26606.60017807486, -27384.016201974893, -50796.17211773063, -97094.43564348646, -187500.02235174447, -187500.02235174447, -44858.56531364505, -43573.384710953804, -76642.27654245813, -46351.25951185936, -85966.48555594511, -29534.18696334207, 0.0, 0.0, 0.0, 193.0, 0.0, 1.0, 1.0, 0.0, 0.0, 1.0, 1.0, 256.0, 1.0, 1.750526840186868E9, 0.0, 2025-06-21 19:27:20.186
210.0, -41630.19110324277, -37334.901074755326, -27664.307077444446, -69367.18605365587, -26625.576809117414, -27341.45848053199, -50811.61717314925, -97111.60178322814, -187500.02235174447, -187500.02235174447, -44855.05608976556, -43574.09996677637, -76647.05981577156, -46339.614252998144, -85978.71196016217, -29520.775916668885, 0.0, 0.0, 0.0, 193.0, 0.0, 1.0, 1.0, 0.0, 0.0, 1.0, 1.0, 256.0, 1.0, 1.750526840195885E9, 0.0, 2025-06-21 19:27:20.195
212.0, -41623.1726554838, -37318.85252223641, -27660.574336120408, -69369.2200624013, -26614.155067700754, -27343.64895148861, -50823.24008026601, -97113.21110882892, -187500.02235174447, -187500.02235174447, -44888.226078537235, -43605.37005726934, -76661.16376652286, -46372.068985947255, -85950.95109354868, -29554.99643742996, 0.0, 0.0, 0.0, 193.0, 0.0, 1.0, 1.0, 0.0, 0.0, 1.0, 1.0, 256.0, 1.0, 1.75052684020393E9, 0.0, 2025-06-21 19:27:20.203
214.0, -41584.19121315375, -37284.11791135286, -27633.394614862755, -69337.01119864121, -26593.323241868406, -27366.447730833024, -50792.59583861779, -97091.14993705154, -187500.02235174447, -187500.02235174447, -44846.87535129492, -43566.8356498284, -76647.59625763849, -46325.085619102196, -85979.82954738493, -29510.091782819247, 0.0, 0.0, 0.0, 193.0, 0.0, 1.0, 1.0, 0.0, 0.0, 1.0, 1.0, 256.0, 1.0, 1.750526840210976E9, 0.0, 2025-06-21 19:27:20.210
216.0, -41630.21345498723, -37329.715470041694, -27666.765769334528, -69379.03247821718, -26623.431041649706, -27327.913323392073, -50819.3955802197, -97111.57943148368, -187500.02235174447, -187500.02235174447, -44850.898665296874, -43570.99307429708, -76627.52439111762, -46342.140000121595, -85928.48759037109, -29526.36385278271, 0.0, 0.0, 0.0, 193.0, 0.0, 1.0, 1.0, 0.0, 0.0, 1.0, 1.0, 256.0, 1.0, 1.750526840218995E9, 0.0, 2025-06-21 19:27:20.218
218.0, -41612.980260012184, -37325.20041766172, -27672.57722289291, -69372.3269548806, -26632.30468419846, -27399.081277737772, -50809.73962661501, -97116.7203327084, -187500.02235174447, -187500.02235174447, -44902.419436266355, -43623.720839467154, -76689.79635117011, -46389.03395998883, -86007.7021727207, -29571.3802661157, 0.0, 0.0, 0.0, 193.0, 0.0, 1.0, 1.0, 0.0, 0.0, 1.0, 1.0, 256.0, 1.0, 1.750526840228052E9, 0.0, 2025-06-21 19:27:20.228
220.0, -41638.349489968954, -37336.33158640046, -27667.592783879376, -69381.24530091826, -26615.22795143461, -27338.59745724171, -50827.26339426797, -97121.59301299966, -187500.02235174447, -187500.02235174447, -44856.710118855255, -43582.884202347304, -76653.05008328559, -46342.698793732976, -85975.33684674941, -29523.301663792332, 0.0, 0.0, 0.0, 193.0, 0.0, 1.0, 1.0, 0.0, 0.0, 1.0, 1.0, 256.0, 1.0, 1.7505268402351E9, 0.0, 2025-06-21 19:27:20.235
222.0, -41633.09683002196, -37333.47056311018, -27686.703525388664, -69393.31524292413, -26636.931495300712, -27354.064864404783, -50828.515091957466, -97125.23634734588, -187500.02235174447, -187500.02235174447, -44916.38927655092, -43634.94141518372, -76688.61170871397, -46404.568422385266, -85973.16872753725, -29586.512397111943, 0.0, 0.0, 0.0, 193.0, 0.0, 1.0, 1.0, 0.0, 0.0, 1.0, 1.0, 256.0, 1.0, 1.750526840243116E9, 0.0, 2025-06-21 19:27:20.243
224.0, -41610.99095475566, -37313.555158800504, -27658.339161674878, -69361.48635881978, -26623.140468971786, -27371.588632057745, -50797.6920363536, -97105.65621920303, -187500.02235174447, -187500.02235174447, -44878.525421443635, -43593.61303968585, -76677.1005603195, -46362.41303234256, -86016.93344318074, -29543.172364613103, 0.0, 0.0, 0.0, 193.0, 0.0, 1.0, 1.0, 0.0, 0.0, 1.0, 1.0, 256.0, 1.0, 1.75052684025118E9, 0.0, 2025-06-21 19:27:20.251
226.0, -41653.97335934322, -37348.78150806207, -27690.413914968245, -69400.11017323854, -26649.00143730658, -27321.341910522213, -50854.80074343691, -97139.98849868638, -187500.02235174447, -187500.02235174447, -44871.57402891803, -43594.26124027506, -76652.78186235212, -46368.716224278956, -85953.90152381678, -29550.03435016088, 0.0, 0.0, 0.0, 193.0, 0.0, 1.0, 1.0, 0.0, 0.0, 1.0, 1.0, 256.0, 1.0, 1.750526840260188E9, 0.0, 2025-06-21 19:27:20.260
228.0, -41616.981222269686, -37304.77092322957, -27675.170025249725, -69368.5271583232, -26631.142393486785, -27378.85294900572, -50835.57824320534, -97127.15859736904, -187500.02235174447, -187500.02235174447, -44917.41745679587, -43627.90061568029, -76703.40856354339, -46402.04267526182, -86021.98493742764, -29583.249042421467, 0.0, 0.0, 0.0, 193.0, 0.0, 1.0, 1.0, 0.0, 0.0, 1.0, 1.0, 256.0, 1.0, 1.750526840267187E9, 0.0, 2025-06-21 19:27:20.267
230.0, -41653.83924887649, -37347.68627258376, -27699.91340636175, -69404.9828535298, -26649.694341384693, -27359.764559240888, -50878.04655767042, -97161.46852510794, -187500.02235174447, -187500.02235174447, -44870.12116552844, -43587.26514426055, -76666.12585379193, -46363.6423782876, -86000.7507801951, -29545.429890803087, 0.0, 0.0, 0.0, 193.0, 0.0, 1.0, 1.0, 0.0, 0.0, 1.0, 1.0, 256.0, 1.0, 1.750526840275232E9, 0.0, 2025-06-21 19:27:20.275
232.0, -41634.035603289085, -37329.5590078305, -27687.798760866972, -69388.84489403307, -26637.69145461219, -27337.41281478558, -50859.4052027947, -97152.5278273258, -187500.02235174447, -187500.02235174447, -44924.99469816622, -43641.69164200922, -76698.1559035964, -46423.12037028318, -85997.1968528267, -29606.00311827697, 0.0, 0.0, 0.0, 193.0, 0.0, 1.0, 1.0, 0.0, 0.0, 1.0, 1.0, 256.0, 1.0, 1.750526840283277E9, 0.0, 2025-06-21 19:27:20.283
234.0, -41604.77716979709, -37308.52601629806, -27653.958219761636, -69356.30075410614, -26620.97234975962, -27375.924870482075, -50809.18083300362, -97119.64841123205, -187500.02235174447, -187500.02235174447, -44863.61680789194, -43574.077615031914, -76660.94024907831, -46357.585055540214, -86008.7527047101, -29538.74671921095, 0.0, 0.0, 0.0, 193.0, 0.0, 1.0, 1.0, 0.0, 0.0, 1.0, 1.0, 256.0, 1.0, 1.750526840292261E9, 0.0, 2025-06-21 19:27:20.292
236.0, -41628.782943342085, -37327.703813040716, -27668.598612379865, -69382.38523988548, -26602.487457095085, -27318.950273865496, -50818.05447555238, -97124.36462931213, -187500.02235174447, -187500.02235174447, -44865.27083698164, -43588.94152509469, -76644.15408899238, -46365.31875912175, -85943.77618357852, -29547.03921640387, 0.0, 0.0, 0.0, 193.0, 0.0, 1.0, 1.0, 0.0, 0.0, 1.0, 1.0, 256.0, 1.0, 1.750526840299293E9, 0.0, 2025-06-21 19:27:20.299
238.0, -41615.66246934682, -37308.86129246489, -27665.894051300773, -69368.05777168964, -26644.46403318215, -27387.95010899903, -50811.14778651569, -97114.14988209604, -187500.02235174447, -187500.02235174447, -44888.27078202615, -43609.84040616041, -76676.43000798584, -46382.686064563524, -85993.55351848049, -29565.211184646036, 0.0, 0.0, 0.0, 193.0, 0.0, 1.0, 1.0, 0.0, 0.0, 1.0, 1.0, 256.0, 1.0, 1.750526840307289E9, 0.0, 2025-06-21 19:27:20.307
240.0, -41638.95298706925, -37336.46569686719, -27678.56749040693, -69385.58153934259, -26636.931495300712, -27345.235925344936, -50829.409161735675, -97123.71642872291, -187500.02235174447, -187500.02235174447, -44863.37093870294, -43584.40412097027, -76657.11810077645, -46352.82413397123, -85983.89756487579, -29535.975102898494, 0.0, 0.0, 0.0, 193.0, 0.0, 1.0, 1.0, 0.0, 0.0, 1.0, 1.0, 256.0, 1.0, 1.75052684031629E9, 0.0, 2025-06-21 19:27:20.316
242.0, -41647.804277873554, -37337.829153278966, -27700.15927555076, -69403.03825176219, -26654.27644899803, -27355.98711442794, -50844.13896133172, -97146.13522841159, -187500.02235174447, -187500.02235174447, -44914.15410210539, -43633.06386864947, -76688.00821161369, -46405.90952705259, -85977.48261421712, -29589.865158780238, 0.0, 0.0, 0.0, 193.0, 0.0, 1.0, 1.0, 0.0, 0.0, 1.0, 1.0, 256.0, 1.0, 1.750526840323308E9, 0.0, 2025-06-21 19:27:20.323
244.0, -41630.57108289851, -37329.089621196945, -27666.117568745325, -69360.83815823057, -26626.202657962163, -27385.402010131125, -50798.47434740953, -97107.93609713747, -187500.02235174447, -187500.02235174447, -44882.34756974549, -43594.574164697435, -76679.91688012086, -46354.54521829429, -86007.56806225397, -29538.813774444316, 0.0, 0.0, 0.0, 193.0, 0.0, 1.0, 1.0, 0.0, 0.0, 1.0, 1.0, 256.0, 1.0, 1.750526840331379E9, 0.0, 2025-06-21 19:27:20.331
246.0, -41672.50295549667, -37372.072025784495, -27697.834694127407, -69402.18888547289, -26651.8401088524, -27326.147535580105, -50844.42953400964, -97139.76498124182, -187500.02235174447, -187500.02235174447, -44902.642953710914, -43618.691696964706, -76678.598127198, -46379.065081961766, -85961.65757914276, -29564.026542189902, 0.0, 0.0, 0.0, 193.0, 0.0, 1.0, 1.0, 0.0, 0.0, 1.0, 1.0, 256.0, 1.0, 1.750526840339401E9, 0.0, 2025-06-21 19:27:20.339
248.0, -41622.74797233915, -37322.361746115894, -27669.582089135896, -69359.3182396076, -26636.573867389427, -27375.74605652643, -50793.489908396, -97103.93513487997, -187500.02235174447, -187500.02235174447, -44905.25810781218, -43617.1941300862, -76689.84105465902, -46376.42757611604, -85993.10648359139, -29559.153861898645, 0.0, 0.0, 0.0, 193.0, 0.0, 1.0, 1.0, 0.0, 0.0, 1.0, 1.0, 256.0, 1.0, 1.750526840347461E9, 0.0, 2025-06-21 19:27:20.347
250.0, -41650.41943197482, -37354.615313364906, -27681.897900330772, -69384.93333875338, -26639.479594168617, -27341.25731483189, -50824.33531574432, -97125.10223687915, -187500.02235174447, -187500.02235174447, -44863.05801428056, -43585.32054249293, -76658.5486124216, -46343.816380955745, -85976.70030316118, -29527.66025396112, 0.0, 0.0, 0.0, 193.0, 0.0, 1.0, 1.0, 0.0, 0.0, 1.0, 1.0, 256.0, 1.0, 1.75052684035448E9, 0.0, 2025-06-21 19:27:20.354
252.0, -41659.85186813496, -37356.44815641024, -27697.23119702711, -69397.27150169271, -26641.580658147417, -27361.575050541767, -50846.172970077154, -97139.25089111936, -187500.02235174447, -187500.02235174447, -44913.57295674956, -43631.67806049324, -76688.14232208041, -46402.065027006276, -85969.03365481301, -29587.00413548996, 0.0, 0.0, 0.0, 193.0, 0.0, 1.0, 1.0, 0.0, 0.0, 1.0, 1.0, 256.0, 1.0, 1.750526840363485E9, 0.0, 2025-06-21 19:27:20.363
254.0, -41638.930635324796, -37345.07111848249, -27681.741438119585, -69376.99846947176, -26639.345483701883, -27397.047268992337, -50815.148748773194, -97115.84861467464, -187500.02235174447, -187500.02235174447, -44898.50788098668, -43607.13584508131, -76694.73608669473, -46370.97375046894, -86018.34160308143, -29554.594106029763, 0.0, 0.0, 0.0, 193.0, 0.0, 1.0, 1.0, 0.0, 0.0, 1.0, 1.0, 256.0, 1.0, 1.750526840371538E9, 0.0, 2025-06-21 19:27:20.371
0.0, -41680.05784512256, -37372.51906067361, -27706.685984931708, -69412.29187396668, -26649.22495475113, -27338.776271197352, -50852.00677537999, -97148.7280307684, -187500.02235174447, -187500.02235174447, -44897.50205248619, -43621.3962580438, -76678.95575510929, -46386.41880588756, -85966.28439024501, -29572.296687638365, 0.0, 0.0, 0.0, 193.0, 0.0, 1.0, 1.0, 0.0, 0.0, 1.0, 1.0, 256.0, 1.0, 1.750526840378499E9, 0.0, 2025-06-21 19:27:20.378
2.0, -41635.5778736565, -37333.9623014882, -27677.405199695255, -69373.60100431455, -26645.31339947145, -27397.293138181347, -50809.47140568154, -97115.53569025228, -187500.02235174447, -187500.02235174447, -44905.146349089904, -43621.06098187697, -76693.48438900523, -46382.93193375253, -85994.40288476979, -29568.94392597007, 0.0, 0.0, 0.0, 193.0, 0.0, 1.0, 1.0, 0.0, 0.0, 1.0, 1.0, 256.0, 1.0, 1.750526840387628E9, 0.0, 2025-06-21 19:27:20.387
4.0, -41656.6332169334, -37359.10801400042, -27687.977574822617, -69396.53389412569, -26642.094748269887, -27358.31169585129, -50843.69192644262, -97142.82717023221, -187500.02235174447, -187500.02235174447, -44881.27468601164, -43604.990077613606, -76679.0004585982, -46367.95626496748, -86003.72356220766, -29552.738911239972, 0.0, 0.0, 0.0, 193.0, 0.0, 1.0, 1.0, 0.0, 0.0, 1.0, 1.0, 256.0, 1.0, 1.750526840395622E9, 0.0, 2025-06-21 19:27:20.395
6.0, -41654.86742912143, -37350.3684819184, -27691.844426613385, -69393.8293330466, -26644.732254115614, -27344.78889045583, -50840.048592096406, -97128.76792296981, -187500.02235174447, -187500.02235174447, -44911.18132009284, -43635.36609832837, -76687.94115638032, -46397.25940194838, -85965.05504429997, -29582.310269154343, 0.0, 0.0, 0.0, 193.0, 0.0, 1.0, 1.0, 0.0, 0.0, 1.0, 1.0, 256.0, 1.0, 1.750526840403587E9, 0.0, 2025-06-21 19:27:20.403
8.0, -41645.09971679446, -37340.60076959142, -27695.66657491524, -69385.58153934259, -26663.664181669257, -27401.450562650036, -50811.505414426974, -97122.88941417808, -187500.02235174447, -187500.02235174447, -44891.40002624989, -43608.16402532626, -76691.29391804861, -46364.96113121047, -86020.48737054913, -29546.07809139229, 0.0, 0.0, 0.0, 193.0, 0.0, 1.0, 1.0, 0.0, 0.0, 1.0, 1.0, 256.0, 1.0, 1.75052684041063E9, 0.0, 2025-06-21 19:27:20.410
10.0, -41680.12490035593, -37379.80572936603, -27713.883246646317, -69426.12760378452, -26655.192870520696, -27340.20678284249, -50855.44894402611, -97144.95058595546, -187500.02235174447, -187500.02235174447, -44903.13469208893, -43628.9958511586, -76683.69432493381, -46388.765739055365, -85972.98991358161, -29570.62030680422, 0.0, 0.0, 0.0, 193.0, 0.0, 1.0, 1.0, 0.0, 0.0, 1.0, 1.0, 256.0, 1.0, 1.750526840419753E9, 0.0, 2025-06-21 19:27:20.419
12.0, -41638.28243473559, -37335.593978833436, -27688.223444011623, -69380.86532126252, -26646.430986694217, -27384.99967873093, -50820.893147098206, -97126.84567294666, -187500.02235174447, -187500.02235174447, -44927.29692784511, -43646.854894978394, -76716.17140962738, -46408.055294520294, -86017.46988504767, -29591.72035357003, 0.0, 0.0, 0.0, 193.0, 0.0, 1.0, 1.0, 0.0, 0.0, 1.0, 1.0, 256.0, 1.0, 1.75052684042775E9, 0.0, 2025-06-21 19:27:20.427
14.0, -41669.08313859501, -37370.59681065045, -27704.87549363083, -69405.54164714119, -26658.746797889093, -27362.536175553345, -50850.08452535683, -97146.55991155624, -187500.02235174447, -187500.02235174447, -44889.142500059905, -43602.30786827897, -76682.88966213341, -46366.7939742558, -86002.80714068499, -29549.22968736049, 0.0, 0.0, 0.0, 193.0, 0.0, 1.0, 1.0, 0.0, 0.0, 1.0, 1.0, 256.0, 1.0, 1.75052684043477E9, 0.0, 2025-06-21 19:27:20.434
16.0, -41668.45728975026, -37357.02930176607, -27706.48481923161, -69405.96633028584, -26668.782731149524, -27377.757713527408, -50843.602519464795, -97137.06042016273, -187500.02235174447, -187500.02235174447, -44927.56514877858, -43644.30679611049, -76703.14034260993, -46406.84830031971, -85978.89077411781, -29591.00509774746, 0.0, 0.0, 0.0, 193.0, 0.0, 1.0, 1.0, 0.0, 0.0, 1.0, 1.0, 256.0, 1.0, 1.750526840442736E9, 0.0, 2025-06-21 19:27:20.442
18.0, -41646.37376622841, -37338.54440910154, -27683.753095120563, -69380.3288793956, -26651.683646641213, -27383.435056619055, -50826.23521402302, -97129.55023402575, -187500.02235174447, -187500.02235174447, -44887.71198841477, -43602.86666189035, -76689.46107500327, -46355.148715394585, -86013.37951581234, -29538.679663977586, 0.0, 0.0, 0.0, 193.0, 0.0, 1.0, 1.0, 0.0, 0.0, 1.0, 1.0, 256.0, 1.0, 1.75052684045188E9, 0.0, 2025-06-21 19:27:20.451
20.0, -41661.84117339148, -37345.29463592704, -27684.781275365505, -69390.11894346702, -26632.8858295543, -27316.133954064127, -50854.04078412543, -97144.50355106636, -187500.02235174447, -187500.02235174447, -44902.285325799625, -43622.4467900332, -76683.6496214449, -46382.90958200808, -85968.60897166836, -29566.820510246816, 0.0, 0.0, 0.0, 193.0, 0.0, 1.0, 1.0, 0.0, 0.0, 1.0, 1.0, 256.0, 1.0, 1.750526840458878E9, 0.0, 2025-06-21 19:27:20.458
22.0, -41657.6837489228, -37349.34030167345, -27704.47316223063, -69398.0761644931, -26683.51253074557, -27408.826638320286, -50843.55781597589, -97147.05164993426, -187500.02235174447, -187500.02235174447, -44911.583651493034, -43622.469141777656, -76697.86533091847, -46385.43532913153, -86002.18129184024, -29567.75928351394, 0.0, 0.0, 0.0, 193.0, 0.0, 1.0, 1.0, 0.0, 0.0, 1.0, 1.0, 256.0, 1.0, 1.750526840466821E9, 0.0, 2025-06-21 19:27:20.466
24.0, -41681.26483932315, -37375.983581064174, -27704.562569208454, -69409.25203672076, -26675.577661463936, -27362.916155209085, -50853.21376958058, -97147.54338831228, -187500.02235174447, -187500.02235174447, -44902.97822987774, -43621.686830721716, -76696.16659833987, -46375.8464307602, -86013.42421930126, -29559.310324109832, 0.0, 0.0, 0.0, 193.0, 0.0, 1.0, 1.0, 0.0, 0.0, 1.0, 1.0, 256.0, 1.0, 1.750526840475888E9, 0.0, 2025-06-21 19:27:20.475
26.0, -41650.35237674146, -37337.31506315649, -27687.61994691133, -69386.22973993179, -26637.736158101103, -27344.855945689196, -50833.58893794882, -97132.2771468493, -187500.02235174447, -187500.02235174447, -44917.37275330696, -43634.4496768057, -76686.64475520191, -46396.20886995899, -85968.16193677926, -29579.024562719413, 0.0, 0.0, 0.0, 193.0, 0.0, 1.0, 1.0, 0.0, 0.0, 1.0, 1.0, 256.0, 1.0, 1.750526840483873E9, 0.0, 2025-06-21 19:27:20.483
28.0, -41671.74299618519, -37365.59001989246, -27706.194246553692, -69400.80307731665, -26678.170463820752, -27418.348481458248, -50850.7550776905, -97154.8300570047, -187500.02235174447, -187500.02235174447, -44896.58563096352, -43613.34963003989, -76695.67485996186, -46371.286674891315, -86023.21428337268, -29553.498870551455, 0.0, 0.0, 0.0, 193.0, 0.0, 1.0, 1.0, 0.0, 0.0, 1.0, 1.0, 256.0, 1.0, 1.750526840490934E9, 0.0, 2025-06-21 19:27:20.490
30.0, -41682.561240501556, -37363.0195692801, -27702.81913314094, -69409.8331820766, -26663.395960735794, -27342.12903286565, -50859.36049930579, -97149.26447263533, -187500.02235174447, -187500.02235174447, -44909.41553228087, -43629.06290639197, -76688.11997033596, -46391.492651878914, -85976.72265490564, -29574.621269061718, 0.0, 0.0, 0.0, 193.0, 0.0, 1.0, 1.0, 0.0, 0.0, 1.0, 1.0, 256.0, 1.0, 1.750526840498978E9, 0.0, 2025-06-21 19:27:20.498
32.0, -41661.707062924754, -37347.37334816138, -27706.86479888735, -69396.66800459243, -26678.505739987584, -27391.593443345242, -50831.577280947844, -97133.26062360533, -187500.02235174447, -187500.02235174447, -44915.24933758371, -43630.47106629265, -76704.30263332161, -46394.24191644692, -86012.32898382294, -29576.52116734042, 0.0, 0.0, 0.0, 193.0, 0.0, 1.0, 1.0, 0.0, 0.0, 1.0, 1.0, 256.0, 1.0, 1.750526840508023E9, 0.0, 2025-06-21 19:27:20.508
34.0, -41684.639952735895, -37367.042883282054, -27714.73261293562, -69418.88563858099, -26665.005286336578, -27361.150367397116, -50870.49166804453, -97160.5297518408, -187500.02235174447, -187500.02235174447, -44915.89753817291, -43636.57309252895, -76710.98580491374, -46389.548050111305, -86026.27647236305, -29572.09552193827, 0.0, 0.0, 0.0, 193.0, 0.0, 1.0, 1.0, 0.0, 0.0, 1.0, 1.0, 256.0, 1.0, 1.750526840515022E9, 0.0, 2025-06-21 19:27:20.515
36.0, -41679.610810233455, -37367.534621660074, -27713.257397801568, -69417.63394089151, -26660.199661278686, -27368.23587038945, -50864.94843541962, -97153.5783593152, -187500.02235174447, -187500.02235174447, -44935.38825933794, -43655.795592760514, -76710.98580491374, -46416.37014345767, -85983.18230905323, -29600.52694088542, 0.0, 0.0, 0.0, 193.0, 0.0, 1.0, 1.0, 0.0, 0.0, 1.0, 1.0, 256.0, 1.0, 1.750526840522994E9, 0.0, 2025-06-21 19:27:20.522
38.0, -41654.10746980995, -37349.02737725108, -27681.987307308595, -69382.63110907449, -26654.097635042388, -27395.102667224728, -50826.905766356685, -97132.70182999395, -187500.02235174447, -187500.02235174447, -44904.00641012268, -43621.485665021624, -76705.26375833318, -46379.22154417295, -86029.09279216443, -29561.590202044274, 0.0, 0.0, 0.0, 193.0, 0.0, 1.0, 1.0, 0.0, 0.0, 1.0, 1.0, 256.0, 1.0, 1.750526840531088E9, 0.0, 2025-06-21 19:27:20.531
40.0, -41683.36590330194, -37370.84267983946, -27715.33611003591, -69428.25101950778, -26674.370667263353, -27336.384634540635, -50874.67144425767, -97172.77850780232, -187500.02235174447, -187500.02235174447, -44905.19105257882, -43628.95114766969, -76685.97420286825, -46394.35367516919, -85973.25813451507, -29578.28695515239, 0.0, 0.0, 0.0, 193.0, 0.0, 1.0, 1.0, 0.0, 0.0, 1.0, 1.0, 256.0, 1.0, 1.750526840540112E9, 0.0, 2025-06-21 19:27:20.540
42.0, -41656.186182044294, -37349.00502550662, -27688.134037033804, -69385.15685619794, -26656.265754254553, -27396.13084746967, -50829.140940802215, -97133.43943756097, -187500.02235174447, -187500.02235174447, -44917.05982888459, -43639.83644721943, -76706.11312462248, -46400.031018260845, -86008.1045041209, -29585.79714128937, 0.0, 0.0, 0.0, 193.0, 0.0, 1.0, 1.0, 0.0, 0.0, 1.0, 1.0, 256.0, 1.0, 1.750526840547117E9, 0.0, 2025-06-21 19:27:20.547
44.0, -41686.40574054787, -37379.6716188993, -27704.20494129717, -69411.84483907757, -26665.340562503407, -27368.347629111726, -50856.29831031541, -97154.8300570047, -187500.02235174447, -187500.02235174447, -44898.17260481985, -43620.569243498954, -76693.59614772751, -46376.36052088267, -86012.03841114503, -29561.076111921804, 0.0, 0.0, 0.0, 193.0, 0.0, 1.0, 1.0, 0.0, 0.0, 1.0, 1.0, 256.0, 1.0, 1.750526840555175E9, 0.0, 2025-06-21 19:27:20.555
46.0, -41678.3367607995, -37372.40730195133, -27709.077621588425, -69410.81665883263, -26659.529108945026, -27362.379713342158, -50853.459638769586, -97143.36361209913, -187500.02235174447, -187500.02235174447, -44921.12784637545, -43644.753830999594, -76697.53005475165, -46399.49457639392, -85970.6429804138, -29585.774789544917, 0.0, 0.0, 0.0, 193.0, 0.0, 1.0, 1.0, 0.0, 0.0, 1.0, 1.0, 256.0, 1.0, 1.750526840563268E9, 0.0, 2025-06-21 19:27:20.563
48.0, -41675.22986832022, -37366.75231060413, -27711.87158964534, -69407.66506286444, -26683.981917379133, -27414.3698709452, -50858.75700220549, -97159.38981287359, -187500.02235174447, -187500.02235174447, -44921.48547428673, -43640.97638618665, -76724.19568588682, -46393.12432922415, -86050.57281858598, -29578.644583063673, 0.0, 0.0, 0.0, 193.0, 0.0, 1.0, 1.0, 0.0, 0.0, 1.0, 1.0, 256.0, 1.0, 1.750526840571186E9, 0.0, 2025-06-21 19:27:20.571
50.0, -41666.24446704918, -37354.66001685381, -27691.687964402197, -69398.81377206014, -26646.31922797194, -27322.146573322603, -50842.842560153316, -97138.62504227461, -187500.02235174447, -187500.02235174447, -44914.109398616485, -43630.53812152602, -76693.05970586058, -46394.37602691365, -85981.43887298572, -29579.069266208324, 0.0, 0.0, 0.0, 193.0, 0.0, 1.0, 1.0, 0.0, 0.0, 1.0, 1.0, 256.0, 1.0, 1.750526840579324E9, 0.0, 2025-06-21 19:27:20.579
52.0, -41675.54279274259, -37369.68038912778, -27718.39829902629, -69417.49983042477, -26674.057742840978, -27414.526333156387, -50865.86485694228, -97168.55402810026, -187500.02235174447, -187500.02235174447, -44917.88684342943, -43639.098839652404, -76708.32594732357, -46400.723922338955, -86010.74200996662, -29587.317059912333, 0.0, 0.0, 0.0, 193.0, 0.0, 1.0, 1.0, 0.0, 0.0, 1.0, 1.0, 256.0, 1.0, 1.750526840587267E9, 0.0, 2025-06-21 19:27:20.587
54.0, -41668.61375196144, -37362.52783090208, -27691.755019635562, -69397.13739122599, -26645.983951805112, -27352.50024229291, -50853.25847306949, -97153.3324901262, -187500.02235174447, -187500.02235174447, -44911.583651493034, -43633.6003105164, -76706.98484265624, -46386.08352972073, -86018.85569320389, -29571.693190538073, 0.0, 0.0, 0.0, 193.0, 0.0, 1.0, 1.0, 0.0, 0.0, 1.0, 1.0, 256.0, 1.0, 1.750526840596297E9, 0.0, 2025-06-21 19:27:20.596
56.0, -41651.96170234224, -37344.28880742655, -27678.589842151385, -69379.68067880638, -26627.499059140573, -27339.111547364184, -50840.85325489679, -97134.46761780592, -187500.02235174447, -187500.02235174447, -44909.5496427476, -43624.36904005636, -76680.76624641016, -46389.32453266675, -85959.64592214179, -29573.369571372223, 0.0, 0.0, 0.0, 193.0, 0.0, 1.0, 1.0, 0.0, 0.0, 1.0, 1.0, 256.0, 1.0, 1.750526840603343E9, 0.0, 2025-06-21 19:27:20.603
58.0, -41666.19976356027, -37360.67263611229, -27700.025165084026, -69394.25401619125, -26673.85657714088, -27409.161914487115, -50841.54615897491, -97147.52103656782, -187500.02235174447, -187500.02235174447, -44884.538040702115, -43604.230118302126, -76684.96837436776, -46356.10984040616, -86009.8032366995, -29541.40657680113, 0.0, 0.0, 0.0, 193.0, 0.0, 1.0, 1.0, 0.0, 0.0, 1.0, 1.0, 256.0, 1.0, 1.750526840611316E9, 0.0, 2025-06-21 19:27:20.611
60.0, -41690.69727548329, -37370.37329320589, -27709.94933962218, -69415.75639435726, -26667.106350315375, -27339.513878764377, -50881.846354227826, -97168.79989728927, -187500.02235174447, -187500.02235174447, -44927.07341040056, -43646.02788043355, -76703.52032226567, -46401.52858513935, -85990.8936608903, -29586.71356281204, 0.0, 0.0, 0.0, 193.0, 0.0, 1.0, 1.0, 0.0, 0.0, 1.0, 1.0, 256.0, 1.0, 1.750526840619461E9, 0.0, 2025-06-21 19:27:20.619
62.0, -41664.00929260365, -37353.65418835333, -27704.87549363083, -69395.03632724719, -26674.348315518895, -27403.842199306753, -50861.573322006865, -97157.15463842805, -187500.02235174447, -187500.02235174447, -44924.19003536583, -43632.23685410462, -76707.23071184524, -46392.31966642376, -86003.54474825201, -29580.253908664457, 0.0, 0.0, 0.0, 193.0, 0.0, 1.0, 1.0, 0.0, 0.0, 1.0, 1.0, 256.0, 1.0, 1.750526840627475E9, 0.0, 2025-06-21 19:27:20.627
64.0, -41668.94902812827, -37363.93599080277, -27702.036822085003, -69403.17236222891, -26659.998495578588, -27354.60130627171, -50857.14767660471, -97151.49964708087, -187500.02235174447, -187500.02235174447, -44903.58172697803, -43617.149426597294, -76697.06066811808, -46377.3439976387, -86015.3017658355, -29561.098463666258, 0.0, 0.0, 0.0, 193.0, 0.0, 1.0, 1.0, 0.0, 0.0, 1.0, 1.0, 256.0, 1.0, 1.750526840635454E9, 0.0, 2025-06-21 19:27:20.635
66.0, -41683.90234516887, -37376.005932808635, -27716.051365858482, -69416.9857403023, -26653.807062364467, -27351.919096937072, -50870.871647700274, -97159.4792198514, -187500.02235174447, -187500.02235174447, -44934.8071139821, -43653.67217703726, -76707.90126417892, -46413.28560272284, -85985.77511141004, -29598.58233911781, 0.0, 0.0, 0.0, 193.0, 0.0, 1.0, 1.0, 0.0, 0.0, 1.0, 1.0, 256.0, 1.0, 1.75052684064351E9, 0.0, 2025-06-21 19:27:20.643
68.0, -41657.303769267055, -37348.446231895236, -27691.53150219101, -69390.38716440048, -26654.008228064566, -27404.42334466259, -50856.23125508204, -97156.57349307222, -187500.02235174447, -187500.02235174447, -44911.80716893759, -43626.514807524065, -76708.3035955791, -46374.304160392785, -86026.16471364078, -29560.33850435478, 0.0, 0.0, 0.0, 193.0, 0.0, 1.0, 1.0, 0.0, 0.0, 1.0, 1.0, 256.0, 1.0, 1.750526840651542E9, 0.0, 2025-06-21 19:27:20.651
70.0, -41666.758557171655, -37352.715415086204, -27690.995060324083, -69397.78559181519, -26653.985876320112, -27332.048396116305, -50860.27692082846, -97155.4782575939, -187500.02235174447, -187500.02235174447, -44898.08319784203, -43619.518711509554, -76676.36295275248, -46377.947494739, -85962.57400066544, -29563.66891427862, 0.0, 0.0, 0.0, 193.0, 0.0, 1.0, 1.0, 0.0, 0.0, 1.0, 1.0, 256.0, 1.0, 1.750526840658589E9, 0.0, 2025-06-21 19:27:20.658
72.0, -41643.82566736051, -37335.68338581126, -27684.982441065604, -69378.78660902818, -26646.94507681669, -27389.60413808872, -50851.0009468795, -97151.0302604473, -187500.02235174447, -187500.02235174447, -44908.230889824736, -43622.69265922221, -76693.12676109395, -46380.13796569562, -85994.13466383633, -29564.451225334553, 0.0, 0.0, 0.0, 193.0, 0.0, 1.0, 1.0, 0.0, 0.0, 1.0, 1.0, 256.0, 1.0, 1.750526840667599E9, 0.0, 2025-06-21 19:27:20.667
74.0, -41657.2814175226, -37349.988502262655, -27677.584013650896, -69379.85949276203, -26643.45820468166, -27343.537192766333, -50872.30215934541, -97157.93694948399, -187500.02235174447, -187500.02235174447, -44885.11918605795, -43603.58191771292, -76679.46984523175, -46352.13122989312, -85987.8985271333, -29536.243323831957, 0.0, 0.0, 0.0, 193.0, 0.0, 1.0, 1.0, 0.0, 0.0, 1.0, 1.0, 256.0, 1.0, 1.7505268406756E9, 0.0, 2025-06-21 19:27:20.675
76.0, -41676.839193921, -37360.315008201, -27703.042650585492, -69400.11017323854, -26663.954754347178, -27361.84327147523, -50869.57524652186, -97165.80476353226, -187500.02235174447, -187500.02235174447, -44908.47675901375, -43630.49341803711, -76685.37070576796, -46385.12240470915, -85957.92483781873, -29570.1285684262, 0.0, 0.0, 0.0, 193.0, 0.0, 1.0, 1.0, 0.0, 0.0, 1.0, 1.0, 256.0, 1.0, 1.750526840682665E9, 0.0, 2025-06-21 19:27:20.682
78.0, -41650.91117035284, -37338.76792654609, -27684.982441065604, -69378.16076018343, -26662.50189095758, -27399.349498671236, -50865.909560431195, -97160.86502800764, -187500.02235174447, -187500.02235174447, -44906.621564223955, -43616.165949841255, -76704.41439204388, -46364.514096321356, -86023.48250430614, -29549.2743908494, 0.0, 0.0, 0.0, 193.0, 0.0, 1.0, 1.0, 0.0, 0.0, 1.0, 1.0, 256.0, 1.0, 1.750526840690678E9, 0.0, 2025-06-21 19:27:20.690
80.0, -41676.6380282209, -37365.03122628108, -27695.711278404153, -69400.9818912723, -26649.917858829245, -27327.175715825048, -50880.88522921625, -97163.18960943099, -187500.02235174447, -187500.02235174447, -44896.496223985705, -43615.02601087404, -76676.02767658564, -46368.38094811213, -85957.07547152943, -29554.817623474315, 0.0, 0.0, 0.0, 193.0, 0.0, 1.0, 1.0, 0.0, 0.0, 1.0, 1.0, 256.0, 1.0, 1.750526840699718E9, 0.0, 2025-06-21 19:27:20.699
82.0, -41650.732356397195, -37340.64547308034, -27689.072810300924, -69376.84200726057, -26666.771074148546, -27385.446713620033, -50856.63358648224, -97163.70369955346, -187500.02235174447, -187500.02235174447, -44923.2512620987, -43636.90836869578, -76709.26472059068, -46388.0504832328, -86001.51073950657, -29573.928364983603, 0.0, 0.0, 0.0, 193.0, 0.0, 1.0, 1.0, 0.0, 0.0, 1.0, 1.0, 256.0, 1.0, 1.750526840707768E9, 0.0, 2025-06-21 19:27:20.707
84.0, -41645.32323423901, -37342.47831612567, -27668.308039701944, -69367.81190250062, -26646.296876227487, -27349.28159109135, -50858.22056033857, -97155.05357444925, -187500.02235174447, -187500.02235174447, -44877.09490979849, -43583.465347703146, -76667.10933054797, -46343.056421644265, -85981.99766659709, -29526.85559116073, 0.0, 0.0, 0.0, 193.0, 0.0, 1.0, 1.0, 0.0, 0.0, 1.0, 1.0, 256.0, 1.0, 1.750526840714799E9, 0.0, 2025-06-21 19:27:20.714
86.0, -41667.384406016405, -37349.58617086246, -27687.776409122518, -69386.6767748209, -26659.126777544832, -27354.668361505075, -50871.430441311655, -97165.71535655444, -187500.02235174447, -187500.02235174447, -44907.71679970226, -43622.111513866366, -76679.76041790968, -46382.57430584125, -85951.57694239343, -29568.34042886978, 0.0, 0.0, 0.0, 193.0, 0.0, 1.0, 1.0, 0.0, 0.0, 1.0, 1.0, 256.0, 1.0, 1.750526840722841E9, 0.0, 2025-06-21 19:27:20.722
88.0, -41640.0258708031, -37333.15763868781, -27670.744379847572, -69363.3192018651, -26655.818719365445, -27390.542911355846, -50851.38092653525, -97148.68332727949, -187500.02235174447, -187500.02235174447, -44875.239715008705, -43586.14755703778, -76673.36781899547, -46336.97674715242, -85990.8936608903, -29523.14520158115, 0.0, 0.0, 0.0, 193.0, 0.0, 1.0, 1.0, 0.0, 0.0, 1.0, 1.0, 256.0, 1.0, 1.750526840731851E9, 0.0, 2025-06-21 19:27:20.731
90.0, -41695.52525228563, -37380.69979914425, -27712.899769890282, -69411.80013558867, -26670.414408494762, -27343.224268343958, -50891.770528765985, -97186.50247889788, -187500.02235174447, -187500.02235174447, -44917.37275330696, -43633.1979791162, -76694.42316227236, -46390.933858267534, -85979.18134679573, -29576.94585048507, 0.0, 0.0, 0.0, 193.0, 0.0, 1.0, 1.0, 0.0, 0.0, 1.0, 1.0, 256.0, 1.0, 1.750526840739445E9, 0.0, 2025-06-21 19:27:20.739
92.0, -41664.4339757483, -37350.25672319612, -27698.505246461064, -69386.11798120952, -26680.38328652183, -27402.031708005874, -50869.26232209949, -97163.65899606455, -187500.02235174447, -187500.02235174447, -44928.28040460115, -43637.802438474, -76712.43866830334, -46394.19721295801, -86011.63607974483, -29579.80687377535, 0.0, 0.0, 0.0, 193.0, 0.0, 1.0, 1.0, 0.0, 0.0, 1.0, 1.0, 256.0, 1.0, 1.750526840746889E9, 0.0, 2025-06-21 19:27:20.746
94.0, -41660.72358616872, -37345.026414993576, -27681.3838102083, -69378.49603635026, -26659.551460689483, -27360.41275983009, -50876.92897044766, -97162.80962977525, -187500.02235174447, -187500.02235174447, -44887.93550585932, -43596.317600764945, -76680.5427289656, -46354.63462527211, -85998.47090226065, -29539.50667852243, 0.0, 0.0, 0.0, 193.0, 0.0, 1.0, 1.0, 0.0, 0.0, 1.0, 1.0, 256.0, 1.0, 1.750526840754918E9, 0.0, 2025-06-21 19:27:20.754
96.0, -41651.648777919865, -37338.83498177946, -27675.348839205366, -69374.8750537485, -26646.967428561144, -27344.07363463326, -50861.93094991815, -97156.50643783885, -187500.02235174447, -187500.02235174447, -44903.69348570031, -43617.43999927521, -76675.11125506298, -46383.535430852826, -85953.52154416103, -29570.24032714848, 0.0, 0.0, 0.0, 193.0, 0.0, 1.0, 1.0, 0.0, 0.0, 1.0, 1.0, 256.0, 1.0, 1.750526840763972E9, 0.0, 2025-06-21 19:27:20.763
98.0, -41652.92282735382, -37351.597827863436, -27681.00383055256, -69374.20450141485, -26661.31724850145, -27405.630338863175, -50864.74726971952, -97166.92235075502, -187500.02235174447, -187500.02235174447, -44869.718834128245, -43584.87350760383, -76668.45043521529, -46343.615215255646, -85998.02386737155, -29528.621378972697, 0.0, 0.0, 0.0, 193.0, 0.0, 1.0, 1.0, 0.0, 0.0, 1.0, 1.0, 256.0, 1.0, 1.750526840770978E9, 0.0, 2025-06-21 19:27:20.770
100.0, -41684.05880738006, -37375.49184268616, -27696.20301678217, -69405.1840192299, -26666.301687514984, -27351.51676553688, -50880.01351118249, -97173.44906013597, -187500.02235174447, -187500.02235174447, -44908.92379390285, -43632.549778527, -76686.77886566865, -46389.190422200016, -85976.02975082753, -29575.403580117654, 0.0, 0.0, 0.0, 193.0, 0.0, 1.0, 1.0, 0.0, 0.0, 1.0, 1.0, 256.0, 1.0, 1.750526840779016E9, 0.0, 2025-06-21 19:27:20.779
102.0, -41661.30473152456, -37354.07887149798, -27685.00479281006, -69382.0276119742, -26663.99945783609, -27393.7168590685, -50852.409106780186, -97155.50060933836, -187500.02235174447, -187500.02235174447, -44916.52338701766, -43637.17658962925, -76704.57085425507, -46391.17972745654, -86002.87419591835, -29576.76703652943, 0.0, 0.0, 0.0, 193.0, 0.0, 1.0, 1.0, 0.0, 0.0, 1.0, 1.0, 256.0, 1.0, 1.75052684078801E9, 0.0, 2025-06-21 19:27:20.788
104.0, -41667.36205427194, -37360.65028436784, -27678.32162121792, -69382.16172244093, -26656.645733910293, -27353.08138764875, -50862.02035689597, -97159.52392334031, -187500.02235174447, -187500.02235174447, -44882.012293578664, -43605.14653982479, -76679.26867953165, -46351.52773279283, -85991.25128880159, -29537.919704666103, 0.0, 0.0, 0.0, 193.0, 0.0, 1.0, 1.0, 0.0, 0.0, 1.0, 1.0, 256.0, 1.0, 1.750526840795037E9, 0.0, 2025-06-21 19:27:20.795
106.0, -41684.14821435788, -37372.25083974014, -27707.53535122101, -69410.30256871016, -26677.9469463762, -27376.215443159992, -50900.93474399266, -97188.51413589885, -187500.02235174447, -187500.02235174447, -44907.87326191345, -43632.7509442271, -76686.57769996855, -46387.33522741023, -85956.85195408488, -29577.99638247447, 0.0, 0.0, 0.0, 193.0, 0.0, 1.0, 1.0, 0.0, 0.0, 1.0, 1.0, 256.0, 1.0, 1.750526840803019E9, 0.0, 2025-06-21 19:27:20.803
108.0, -41672.257086307654, -37363.91363905831, -27709.09997333288, -69404.5358186407, -26691.08977211592, -27424.42815595009, -50899.63834281425, -97194.37029294614, -187500.02235174447, -187500.02235174447, -44916.52338701766, -43633.48855179412, -76720.44059281834, -46386.97759949894, -86044.18021967176, -29575.47063535102, 0.0, 0.0, 0.0, 193.0, 0.0, 1.0, 1.0, 0.0, 0.0, 1.0, 1.0, 256.0, 1.0, 1.750526840811109E9, 0.0, 2025-06-21 19:27:20.811
110.0, -41703.370714589444, -37384.25372651264, -27729.28359857602, -69434.21893527734, -26684.98774587962, -27343.470137532968, -50945.28060499199, -97224.18752004953, -187500.02235174447, -187500.02235174447, -44921.999564409205, -43644.68677576623, -76704.95083391081, -46404.009628773885, -85993.37470452485, -29591.228615192013, 0.0, 0.0, 0.0, 193.0, 0.0, 1.0, 1.0, 0.0, 0.0, 1.0, 1.0, 256.0, 1.0, 1.750526840820136E9, 0.0, 2025-06-21 19:27:20.820
112.0, -41659.337778012494, -37346.52398187208, -27702.61796744084, -69400.26663544973, -26683.95956563468, -27404.646862107144, -50898.49840384703, -97192.693912112, -187500.02235174447, -187500.02235174447, -44935.94705294932, -43651.302892125, -76724.21803763129, -46418.337096969735, -86030.63506253184, -29605.220807221034, 0.0, 0.0, 0.0, 193.0, 0.0, 1.0, 1.0, 0.0, 0.0, 1.0, 1.0, 256.0, 1.0, 1.750526840827169E9, 0.0, 2025-06-21 19:27:20.827
114.0, -41653.41456573184, -37354.23533370916, -27682.166121264236, -69391.39299290098, -26648.710864628658, -27353.818995215774, -50871.139868633734, -97172.91261826905, -187500.02235174447, -187500.02235174447, -44885.9462006028, -43609.01339161556, -76685.39305751241, -46375.198230170994, -86011.39021055582, -29561.90312646665, 0.0, 0.0, 0.0, 193.0, 0.0, 1.0, 1.0, 0.0, 0.0, 1.0, 1.0, 256.0, 1.0, 1.750526840835224E9, 0.0, 2025-06-21 19:27:20.835
116.0, -41660.27655127961, -37347.887438283855, -27695.845388870883, -69399.41726916043, -26649.38141696232, -27350.734454480942, -50874.291464601934, -97171.07977522371, -187500.02235174447, -187500.02235174447, -44903.13469208893, -43628.884092436325, -76679.17927255384, -46398.82402406025, -85967.2902187455, -29586.62415583422, 0.0, 0.0, 0.0, 193.0, 0.0, 1.0, 1.0, 0.0, 0.0, 1.0, 1.0, 256.0, 1.0, 1.750526840843255E9, 0.0, 2025-06-21 19:27:20.843
118.0, -41651.04528081957, -37346.144002216344, -27684.445999198677, -69381.1782456849, -26650.968390818645, -27402.925777784083, -50853.191417836126, -97154.91946398253, -187500.02235174447, -187500.02235174447, -44890.7965291496, -43609.23690906011, -76691.62919421545, -46366.548105066795, -86018.52041703707, -29554.57175428531, 0.0, 0.0, 0.0, 193.0, 0.0, 1.0, 1.0, 0.0, 0.0, 1.0, 1.0, 256.0, 1.0, 1.750526840851263E9, 0.0, 2025-06-21 19:27:20.851
120.0, -41708.0422291806, -37392.54622370556, -27727.85308693088, -69430.66500790894, -26685.77005693556, -27357.21646037298, -50901.22531667058, -97192.82802257873, -187500.02235174447, -187500.02235174447, -44907.828558424546, -43629.33112732544, -76687.18119706884, -46387.82696578824, -85975.89564036079, -29575.917670240127, 0.0, 0.0, 0.0, 193.0, 0.0, 1.0, 1.0, 0.0, 0.0, 1.0, 1.0, 256.0, 1.0, 1.750526840859299E9, 0.0, 2025-06-21 19:27:20.859
122.0, -41686.025760892124, -37371.71439787321, -27715.33611003591, -69409.6320163765, -26687.24527206961, -27418.23672273597, -50877.42070882567, -97175.81834504823, -187500.02235174447, -187500.02235174447, -44943.2113698973, -43660.22123816267, -76730.96826445678, -46415.76664635738, -86031.19385614322, -29602.940929286593, 0.0, 0.0, 0.0, 193.0, 0.0, 1.0, 1.0, 0.0, 0.0, 1.0, 1.0, 256.0, 1.0, 1.750526840867284E9, 0.0, 2025-06-21 19:27:20.867
124.0, -41690.160833616355, -37383.56082243453, -27709.457601244165, -69410.50373441026, -26689.167522092765, -27383.971498485986, -50881.421671083175, -97176.19832470398, -187500.02235174447, -187500.02235174447, -44902.95587813329, -43627.72180172465, -76703.00623214319, -46382.350788396696, -86025.09182990693, -29570.19562365957, 0.0, 0.0, 0.0, 193.0, 0.0, 1.0, 1.0, 0.0, 0.0, 1.0, 1.0, 256.0, 1.0, 1.750526840875374E9, 0.0, 2025-06-21 19:27:20.875
126.0, -41695.32408658553, -37388.14293004786, -27717.615987970352, -69422.37251071603, -26678.908071387777, -27390.542911355846, -50886.65197928572, -97176.10891772616, -187500.02235174447, -187500.02235174447, -44923.74300047672, -43651.21348514718, -76701.08398212004, -46410.6033933882, -85982.22118404164, -29599.699926340574, 0.0, 0.0, 0.0, 193.0, 0.0, 1.0, 1.0, 0.0, 0.0, 1.0, 1.0, 256.0, 1.0, 1.750526840882439E9, 0.0, 2025-06-21 19:27:20.882
128.0, -41667.04912984957, -37361.83492682397, -27694.504284203565, -69398.74671682676, -26674.03539109652, -27411.061812765816, -50857.25943532699, -97161.5355803413, -187500.02235174447, -187500.02235174447, -44911.00250613719, -43636.12605763985, -76715.27733984916, -46383.8483552752, -86033.96547245569, -29573.45897835004, 0.0, 0.0, 0.0, 193.0, 0.0, 1.0, 1.0, 0.0, 0.0, 1.0, 1.0, 256.0, 1.0, 1.750526840891457E9, 0.0, 2025-06-21 19:27:20.891
130.0, -41710.32210711505, -37391.942726605266, -27727.227238086136, -69436.02942657821, -26683.26666155656, -27348.119300379672, -50892.262267144, -97192.17982198953, -187500.02235174447, -187500.02235174447, -44914.6011369945, -43645.804362988994, -76696.97126114026, -46400.455701405495, -85980.90243111878, -29589.775751802415, 0.0, 0.0, 0.0, 193.0, 0.0, 1.0, 1.0, 0.0, 0.0, 1.0, 1.0, 256.0, 1.0, 1.75052684089945E9, 0.0, 2025-06-21 19:27:20.899
132.0, -41675.45338576477, -37372.74257811816, -27710.038746600003, -69411.04017627718, -26682.931385389733, -27414.124001756194, -50873.531505290455, -97183.0379585073, -187500.02235174447, -187500.02235174447, -44936.058811671595, -43657.337863127934, -76721.80404923011, -46411.363352699685, -86015.05589664649, -29599.498760640476, 0.0, 0.0, 0.0, 193.0, 0.0, 1.0, 1.0, 0.0, 0.0, 1.0, 1.0, 256.0, 1.0, 1.750526840906426E9, 0.0, 2025-06-21 19:27:20.906
134.0, -41700.82261572154, -37390.02047658211, -27716.610159469863, -69416.65046413547, -26688.22874882564, -27387.011335731906, -50883.0086449395, -97180.46750789494, -187500.02235174447, -187500.02235174447, -44891.4447297388, -43617.66351671976, -76693.19381632732, -46372.94070398101, -86014.16182686828, -29559.13151015419, 0.0, 0.0, 0.0, 193.0, 0.0, 1.0, 1.0, 0.0, 0.0, 1.0, 1.0, 256.0, 1.0, 1.750526840915492E9, 0.0, 2025-06-21 19:27:20.915
136.0, -41715.887691484415, -37397.798883652555, -27733.999816656094, -69432.140223043, -26699.069344886466, -27380.93166124006, -50901.15826143721, -97193.61033363466, -187500.02235174447, -187500.02235174447, -44956.01891947018, -43671.3077034125, -76727.14611615492, -46427.076629051764, -85993.8440911584, -29615.592016648297, 0.0, 0.0, 0.0, 193.0, 0.0, 1.0, 1.0, 0.0, 0.0, 1.0, 1.0, 256.0, 1.0, 1.750526840923549E9, 0.0, 2025-06-21 19:27:20.923
138.0, -41693.53594702911, -37379.15752877683, -27716.81132516996, -69407.57565588661, -26701.483333287637, -27425.433984450578, -50877.577171036864, -97177.91940902703, -187500.02235174447, -187500.02235174447, -44921.84310219802, -43632.952109927195, -76723.30161610861, -46385.211811686975, -86044.02375746057, -29572.319039382823, 0.0, 0.0, 0.0, 193.0, 0.0, 1.0, 1.0, 0.0, 0.0, 1.0, 1.0, 256.0, 1.0, 1.750526840931583E9, 0.0, 2025-06-21 19:27:20.931
140.0, -41732.338575403526, -37415.50146526116, -27736.92789517974, -69443.56196445966, -26689.748667448603, -27361.37388484167, -50911.484767375565, -97201.63460989411, -187500.02235174447, -187500.02235174447, -44945.13361992045, -43661.22706666316, -76722.2063806303, -46411.497463166415, -85998.62736447185, -29601.264548452444, 0.0, 0.0, 0.0, 193.0, 0.0, 1.0, 1.0, 0.0, 0.0, 1.0, 1.0, 256.0, 1.0, 1.75052684093861E9, 0.0, 2025-06-21 19:27:20.938
142.0, -41692.91009818436, -37381.14683403335, -27723.695662462196, -69419.71265312584, -26707.205379868195, -27441.61664743622, -50879.09708965982, -97184.5355253858, -187500.02235174447, -187500.02235174447, -44948.97811996676, -43669.34074990043, -76734.05280519162, -46418.337096969735, -86023.9518909397, -29607.277167710923, 0.0, 0.0, 0.0, 193.0, 0.0, 1.0, 1.0, 0.0, 0.0, 1.0, 1.0, 256.0, 1.0, 1.750526840947647E9, 0.0, 2025-06-21 19:27:20.947
144.0, -41726.68358405633, -37408.30420354655, -27729.037729387015, -69435.22476377783, -26700.835132698434, -27385.714934553496, -50897.134947435254, -97196.58311564721, -187500.02235174447, -187500.02235174447, -44913.28238407164, -43631.119266881855, -76708.99649965722, -46387.91637276606, -86029.74099275364, -29575.157710928645, 0.0, 0.0, 0.0, 193.0, 0.0, 1.0, 1.0, 0.0, 0.0, 1.0, 1.0, 256.0, 1.0, 1.75052684095571E9, 0.0, 2025-06-21 19:27:20.955
146.0, -41736.11602021647, -37416.484942017196, -27750.227183130646, -69456.92830764393, -26718.582417795948, -27390.18528344456, -50907.10382546233, -97207.53547043032, -187500.02235174447, -187500.02235174447, -44983.93624829486, -43700.02969503757, -76750.77191004419, -46456.67033871059, -86010.40673379978, -29648.73965367552, 0.0, 0.0, 0.0, 193.0, 0.0, 1.0, 1.0, 0.0, 0.0, 1.0, 1.0, 256.0, 1.0, 1.750526840962712E9, 0.0, 2025-06-21 19:27:20.962
148.0, -41704.66711576785, -37399.0282295976, -27742.381720826834, -69444.07605458212, -26717.397775339818, -27451.67493244111, -50883.947418206626, -97194.21383073495, -187500.02235174447, -187500.02235174447, -44934.85181747101, -43654.767412515575, -76741.25006690623, -46411.072780021765, -86063.69329258124, -29601.219844963533, 0.0, 0.0, 0.0, 193.0, 0.0, 1.0, 1.0, 0.0, 0.0, 1.0, 1.0, 256.0, 1.0, 1.750526840970743E9, 0.0, 2025-06-21 19:27:20.970
150.0, -41754.489154158735, -37436.51210504915, -27764.26407864858, -69472.64158399601, -26704.94785367821, -27360.278649363358, -50914.479901132574, -97205.41205470706, -187500.02235174447, -187500.02235174447, -44986.23847797376, -43707.09284628545, -76761.74661657175, -46450.25538805192, -86030.72446950966, -29642.212944294566, 0.0, 0.0, 0.0, 193.0, 0.0, 1.0, 1.0, 0.0, 0.0, 1.0, 1.0, 256.0, 1.0, 1.750526840979755E9, 0.0, 2025-06-21 19:27:20.979
152.0, -41721.207406664784, -37398.06710458602, -27745.890944706316, -69439.2927812687, -26722.38221435335, -27438.95678984604, -50899.28071490297, -97199.28767672631, -187500.02235174447, -187500.02235174447, -44976.78369006916, -43692.67597111178, -76759.24322119275, -46439.101867568716, -86038.59228355793, -29632.4452319676, 0.0, 0.0, 0.0, 193.0, 0.0, 1.0, 1.0, 0.0, 0.0, 1.0, 1.0, 256.0, 1.0, 1.750526840987788E9, 0.0, 2025-06-21 19:27:20.987
154.0, -41755.91966580387, -37420.0835728745, -27765.649886804807, -69458.96231638937, -26765.1187497519, -27414.325167456293, -50933.47888391959, -97224.85807238318, -187500.02235174447, -187500.02235174447, -44942.27259663017, -43642.63041527634, -76733.87399123597, -46405.551899141305, -86051.57864708647, -29595.05076349387, 0.0, 0.0, 0.0, 193.0, 0.0, 1.0, 1.0, 0.0, 0.0, 1.0, 1.0, 256.0, 1.0, 1.750526840994832E9, 0.0, 2025-06-21 19:27:20.994
156.0, -41763.139279262934, -37420.12827636341, -27771.371933385366, -69463.1420926025, -26762.68240960627, -27398.276614937382, -50920.49252039105, -97217.1467205461, -187500.02235174447, -187500.02235174447, -45007.09265555056, -43710.11033178691, -76768.7203608418, -46474.283513341376, -86030.97033869867, -29666.665752728673, 0.0, 0.0, 0.0, 193.0, 0.0, 1.0, 1.0, 0.0, 0.0, 1.0, 1.0, 256.0, 1.0, 1.750526841002853E9, 0.0, 2025-06-21 19:27:21.002
158.0, -41744.31911043157, -37413.042773371075, -27767.058046705493, -69449.08284534012, -26751.640647845346, -27463.29783955787, -50906.76854929549, -97205.52381342935, -187500.02235174447, -187500.02235174447, -44966.72540506427, -43670.07835746746, -76764.89821253995, -46425.08732379524, -86089.12957777138, -29611.76986834644, 0.0, 0.0, 0.0, 193.0, 0.0, 1.0, 1.0, 0.0, 0.0, 1.0, 1.0, 256.0, 1.0, 1.750526841011869E9, 0.0, 2025-06-21 19:27:21.011
160.0, -41782.67470391688, -37430.07480264602, -27775.864634020883, -69475.56966251966, -26764.135272995863, -27366.17950989956, -50936.65283163224, -97220.56653744777, -187500.02235174447, -187500.02235174447, -44999.64952464694, -43701.63902063835, -76765.43465440687, -46455.79862067683, -86039.62046380287, -29644.4481187401, 0.0, 0.0, 0.0, 193.0, 0.0, 1.0, 1.0, 0.0, 0.0, 1.0, 1.0, 256.0, 1.0, 1.750526841018921E9, 0.0, 2025-06-21 19:27:21.018
162.0, -41748.14125873343, -37406.71722969022, -27767.92976473925, -69457.39769427749, -26769.097360264943, -27459.989781378485, -50919.6208023573, -97214.41980772256, -187500.02235174447, -187500.02235174447, -44991.2676204762, -43686.417482664285, -76766.48518639627, -46455.06101310981, -86057.92654251178, -29644.850450140293, 0.0, 0.0, 0.0, 193.0, 0.0, 1.0, 1.0, 0.0, 0.0, 1.0, 1.0, 256.0, 1.0, 1.750526841026942E9, 0.0, 2025-06-21 19:27:21.026
164.0, -41770.96238982229, -37416.23907282818, -27780.49144512313, -69464.81847343665, -26771.801921344035, -27394.208597446515, -50933.9706222976, -97213.25751701088, -187500.02235174447, -187500.02235174447, -44976.5154691357, -43674.07931972496, -76765.99344801826, -46431.8599023652, -86086.2685544811, -29617.827191093827, 0.0, 0.0, 0.0, 193.0, 0.0, 1.0, 1.0, 0.0, 0.0, 1.0, 1.0, 256.0, 1.0, 1.750526841034964E9, 0.0, 2025-06-21 19:27:21.034
166.0, -41792.2636022882, -37439.14961089488, -27804.005480290114, -69499.50838083129, -26777.25574699113, -27420.226027992492, -50960.88212262179, -97250.96490990698, -187500.02235174447, -187500.02235174447, -45026.49396973777, -43723.633137182376, -76785.75239011674, -46484.00652217943, -86039.35224286941, -29675.53939527743, 0.0, 0.0, 0.0, 193.0, 0.0, 1.0, 1.0, 0.0, 0.0, 1.0, 1.0, 256.0, 1.0, 1.750526841043971E9, 0.0, 2025-06-21 19:27:21.043
168.0, -41746.68839534383, -37408.46066575774, -27772.176596185756, -69452.97204887534, -26763.464720662203, -27471.188005350592, -50914.41284589921, -97205.92614482953, -187500.02235174447, -187500.02235174447, -45002.331733981584, -43695.17936649077, -76796.16830303291, -46440.9123588696, -86106.00514483514, -29628.77954587693, 0.0, 0.0, 0.0, 193.0, 0.0, 1.0, 1.0, 0.0, 0.0, 1.0, 1.0, 256.0, 1.0, 1.750526841051017E9, 0.0, 2025-06-21 19:27:21.051
170.0, -41784.21697428429, -37434.41104107035, -27781.609032345896, -69479.03418291023, -26753.719360079693, -27344.028931144352, -50947.918110837716, -97234.82695041025, -187500.02235174447, -187500.02235174447, -45000.83416710307, -43701.92959331627, -76770.91083179842, -46450.657719452116, -86035.17246665627, -29641.207115794077, 0.0, 0.0, 0.0, 193.0, 0.0, 1.0, 1.0, 0.0, 0.0, 1.0, 1.0, 256.0, 1.0, 1.750526841059059E9, 0.0, 2025-06-21 19:27:21.059
172.0, -41756.52316290417, -37415.54616875007, -27779.798541045016, -69464.639659481, -26762.25772646162, -27447.226935294504, -50924.627593115285, -97228.36729626266, -187500.02235174447, -187500.02235174447, -45011.630059674986, -43706.33288697396, -76786.15472151694, -46461.699481213036, -86063.15685071431, -29652.047711854902, 0.0, 0.0, 0.0, 193.0, 0.0, 1.0, 1.0, 0.0, 0.0, 1.0, 1.0, 256.0, 1.0, 1.750526841067046E9, 0.0, 2025-06-21 19:27:21.067
174.0, -41763.429851940855, -37415.59087223898, -27765.895755993817, -69461.48806351282, -26764.269383462597, -27407.4184784196, -50932.20483448563, -97223.91929911605, -187500.02235174447, -187500.02235174447, -44975.10730923502, -43671.35240690141, -76764.78645381767, -46430.8093703758, -86086.58147890348, -29614.742650358996, 0.0, 0.0, 0.0, 193.0, 0.0, 1.0, 1.0, 0.0, 0.0, 1.0, 1.0, 256.0, 1.0, 1.750526841075136E9, 0.0, 2025-06-21 19:27:21.075
176.0, -41782.29472426113, -37438.09907890548, -27795.534169141552, -69485.33737484663, -26763.263554962108, -27401.85289405023, -50932.0707240189, -97225.72979041694, -187500.02235174447, -187500.02235174447, -45017.19564404436, -43714.35716323342, -76775.20236673384, -46479.60322852174, -86027.1034869079, -29672.63366849824, 0.0, 0.0, 0.0, 193.0, 0.0, 1.0, 1.0, 0.0, 0.0, 1.0, 1.0, 256.0, 1.0, 1.750526841083147E9, 0.0, 2025-06-21 19:27:21.083
178.0, -41756.92549430436, -37422.69872697577, -27770.81313977398, -69466.83013043764, -26779.602680158936, -27484.219072368036, -50917.922069778695, -97217.41494147957, -187500.02235174447, -187500.02235174447, -44979.37649242598, -43682.48357564015, -76777.19167199037, -46437.3137280123, -86100.99835407715, -29625.96322607556, 0.0, 0.0, 0.0, 193.0, 0.0, 1.0, 1.0, 0.0, 0.0, 1.0, 1.0, 256.0, 1.0, 1.75052684109114E9, 0.0, 2025-06-21 19:27:21.091
180.0, -41819.10804737903, -37458.059186704064, -27816.433050207266, -69509.99134898082, -26777.21104350222, -27373.80145475882, -50962.04441333347, -97246.33809880473, -187500.02235174447, -187500.02235174447, -45017.41916148891, -43715.67591615629, -76785.66298313893, -46481.52547854489, -86064.31914142599, -29672.141930120222, 0.0, 0.0, 0.0, 193.0, 0.0, 1.0, 1.0, 0.0, 0.0, 1.0, 1.0, 256.0, 1.0, 1.750526841100188E9, 0.0, 2025-06-21 19:27:21.100
182.0, -41763.09457577403, -37420.038869385586, -27785.07355273647, -69471.81456945116, -26766.661020119314, -27478.20645310956, -50918.23499420107, -97220.52183395885, -187500.02235174447, -187500.02235174447, -45027.45509474935, -43723.56608194901, -76802.98558509178, -46486.06288266932, -86092.50469118413, -29676.4558168001, 0.0, 0.0, 0.0, 193.0, 0.0, 1.0, 1.0, 0.0, 0.0, 1.0, 1.0, 256.0, 1.0, 1.7505268411062E9, 0.0, 2025-06-21 19:27:21.106
184.0, -41788.37439875298, -37442.189448140794, -27789.946233027727, -69479.99530792181, -26791.002069831142, -27400.89176903865, -50940.74320086756, -97232.45766549799, -187500.02235174447, -187500.02235174447, -44983.98095178377, -43673.297008669026, -76770.86612830951, -46434.43035297756, -86095.3657144744, -29620.419993450643, 0.0, 0.0, 0.0, 193.0, 0.0, 1.0, 1.0, 0.0, 0.0, 1.0, 1.0, 256.0, 1.0, 1.750526841115225E9, 0.0, 2025-06-21 19:27:21.115
186.0, -41809.854425174526, -37456.44986110328, -27813.281454239066, -69502.3023488882, -26775.378200456882, -27404.959786529518, -50957.30584350894, -97249.66850872857, -187500.02235174447, -187500.02235174447, -45053.02549040622, -43757.07134688751, -76812.61918695203, -46512.68381031559, -86073.93039154177, -29704.68607004715, 0.0, 0.0, 0.0, 193.0, 0.0, 1.0, 1.0, 0.0, 0.0, 1.0, 1.0, 256.0, 1.0, 1.750526841123269E9, 0.0, 2025-06-21 19:27:21.123
188.0, -41723.084953199024, -37385.72894164669, -27725.930836907726, -69418.32684496962, -26733.178106925265, -27451.160842318637, -50902.477014360076, -97197.23131623642, -187500.02235174447, -187500.02235174447, -44964.154954451915, -43650.274711880054, -76753.67763682338, -46410.782207343844, -86082.20053699023, -29597.777676317415, 0.0, 0.0, 0.0, 193.0, 0.0, 1.0, 1.0, 0.0, 0.0, 1.0, 1.0, 256.0, 1.0, 1.750526841131279E9, 0.0, 2025-06-21 19:27:21.131
190.0, -41830.73095449578, -37475.828823546035, -27817.662396152307, -69516.18278219496, -26807.318843283516, -27386.05021072033, -50986.67603572322, -97266.29820660331, -187500.02235174447, -187500.02235174447, -44994.150995510936, -43700.67789562677, -76767.98275327477, -46465.34281555925, -86053.54560059853, -29653.992313622515, 0.0, 0.0, 0.0, 193.0, 0.0, 1.0, 1.0, 0.0, 0.0, 1.0, 1.0, 256.0, 1.0, 1.750526841139315E9, 0.0, 2025-06-21 19:27:21.139
192.0, -41764.972122308274, -37416.84256992848, -27782.100770723915, -69462.56094724667, -26767.44333117525, -27461.66616221263, -50912.0659127314, -97221.50531071489, -187500.02235174447, -187500.02235174447, -45018.80496964514, -43713.910128344316, -76793.08376229809, -46484.43120532408, -86093.10818828443, -29672.365447564778, 0.0, 0.0, 0.0, 193.0, 0.0, 1.0, 1.0, 0.0, 0.0, 1.0, 1.0, 256.0, 1.0, 1.750526841147356E9, 0.0, 2025-06-21 19:27:21.147
194.0, -41804.15473033843, -37452.046567445585, -27795.44476216373, -69485.31502310217, -26775.57936615698, -27408.737231342464, -50942.732506124084, -97235.78807542182, -187500.02235174447, -187500.02235174447, -44977.47659414728, -43662.858744008394, -76760.04788399315, -46421.622803404665, -86082.69227536826, -29606.740725843996, 0.0, 0.0, 0.0, 193.0, 0.0, 1.0, 1.0, 0.0, 0.0, 1.0, 1.0, 256.0, 1.0, 1.750526841155405E9, 0.0, 2025-06-21 19:27:21.155
196.0, -41820.65031774644, -37470.866736276956, -27815.248407751133, -69512.47239261537, -26799.942767613265, -27430.396071719657, -50961.99970984456, -97255.34585182022, -187500.02235174447, -187500.02235174447, -45050.96912991633, -43760.3794050669, -76816.35192827605, -46515.34366790577, -86071.9187345408, -29709.268177660488, 0.0, 0.0, 0.0, 193.0, 0.0, 1.0, 1.0, 0.0, 0.0, 1.0, 1.0, 256.0, 1.0, 1.750526841162463E9, 0.0, 2025-06-21 19:27:21.162
198.0, -41773.39872996792, -37432.131163135906, -27785.69940158122, -69470.20524385039, -26762.414188672807, -27479.860482199252, -50911.39536039774, -97210.32943848723, -187500.02235174447, -187500.02235174447, -45007.070303806104, -43702.6672008833, -76802.98558509178, -46448.04256535084, -86121.98664212068, -29635.216848280055, 0.0, 0.0, 0.0, 193.0, 0.0, 1.0, 1.0, 0.0, 0.0, 1.0, 1.0, 256.0, 1.0, 1.750526841171423E9, 0.0, 2025-06-21 19:27:21.171
200.0, -41839.649300533456, -37485.57418412855, -27816.902436840828, -69514.86402927208, -26782.798979616044, -27383.390353130148, -50964.7266226681, -97252.61893899667, -187500.02235174447, -187500.02235174447, -45002.398789214945, -43710.87029109839, -76780.38797144748, -46464.47109752549, -86055.08787096594, -29654.953438634093, 0.0, 0.0, 0.0, 193.0, 0.0, 1.0, 1.0, 0.0, 0.0, 1.0, 1.0, 256.0, 1.0, 1.750526841179498E9, 0.0, 2025-06-21 19:27:21.179
202.0, -41796.33161977907, -37451.51012557866, -27798.41754417629, -69492.31111911668, -26806.983567116687, -27479.4357990546, -50939.580910155884, -97238.42558126755, -187500.02235174447, -187500.02235174447, -45058.54637128668, -43744.82259092601, -76828.5336290042, -46500.546813076355, -86106.09455181296, -29691.58794779634, 0.0, 0.0, 0.0, 193.0, 0.0, 1.0, 1.0, 0.0, 0.0, 1.0, 1.0, 256.0, 1.0, 1.750526841187488E9, 0.0, 2025-06-21 19:27:21.187
204.0, -41816.001154899735, -37480.88031779293, -27793.053125507013, -69496.96028196339, -26787.91752909631, -27406.770277830397, -50944.65475614724, -97234.11169458767, -187500.02235174447, -187500.02235174447, -44994.39686469995, -43704.47769218418, -76794.6260326655, -46448.400193262125, -86103.21117677822, -29636.803822136382, 0.0, 0.0, 0.0, 193.0, 0.0, 1.0, 1.0, 0.0, 0.0, 1.0, 1.0, 256.0, 1.0, 1.750526841194482E9, 0.0, 2025-06-21 19:27:21.194
206.0, -41837.28001562119, -37488.90459405239, -27830.916980614304, -69522.12834622007, -26785.68235465078, -27429.300836241346, -50952.76843938452, -97250.47317152897, -187500.02235174447, -187500.02235174447, -45062.54733354418, -43762.480469045695, -76820.68816670039, -46513.22025218252, -86064.1179757259, -29707.07770670387, 0.0, 0.0, 0.0, 193.0, 0.0, 1.0, 1.0, 0.0, 0.0, 1.0, 1.0, 256.0, 1.0, 1.750526841203469E9, 0.0, 2025-06-21 19:27:21.203
208.0, -41795.437550000854, -37453.9911692132, -27791.622613861873, -69477.04487765371, -26785.458837206228, -27486.610709024753, -50916.42450290019, -97217.90667985758, -187500.02235174447, -187500.02235174447, -45031.00902211774, -43708.32219223049, -76815.94959687586, -46465.812202192814, -86136.31411031654, -29652.047711854902, 0.0, 0.0, 0.0, 193.0, 0.0, 1.0, 1.0, 0.0, 0.0, 1.0, 1.0, 256.0, 1.0, 1.750526841211525E9, 0.0, 2025-06-21 19:27:21.211
210.0, -41845.304291880646, -37497.71118136778, -27822.758593888117, -69526.57634336667, -26805.463648493725, -27386.921928754084, -50976.23777106259, -97262.94544493503, -187500.02235174447, -187500.02235174447, -45008.50081545125, -43713.28427949957, -76782.33257321508, -46473.434147052074, -86055.49020236614, -29665.324648061356, 0.0, 0.0, 0.0, 193.0, 0.0, 1.0, 1.0, 0.0, 0.0, 1.0, 1.0, 256.0, 1.0, 1.75052684121871E9, 0.0, 2025-06-21 19:27:21.218
212.0, -41799.438512258355, -37449.29730287758, -27809.056974537012, -69495.52977031824, -26795.315956511018, -27476.66418274214, -50928.65090711724, -97232.92705213155, -187500.02235174447, -187500.02235174447, -45047.52696127021, -43747.14717234936, -76828.19835283737, -46513.51082486044, -86117.44923799626, -29703.367317124288, 0.0, 0.0, 0.0, 193.0, 0.0, 1.0, 1.0, 0.0, 0.0, 1.0, 1.0, 256.0, 1.0, 1.750526841226625E9, 0.0, 2025-06-21 19:27:21.226
214.0, -41848.96997797132, -37499.27580347965, -27827.65362592383, -69514.17112519397, -26798.758125157136, -27445.304685271345, -50961.99970984456, -97255.83759019824, -187500.02235174447, -187500.02235174447, -45019.07319057861, -43707.69634338574, -76808.61822469452, -46465.92396091509, -86125.07118285552, -29650.550144976398, 0.0, 0.0, 0.0, 193.0, 0.0, 1.0, 1.0, 0.0, 0.0, 1.0, 1.0, 256.0, 1.0, 1.750526841235759E9, 0.0, 2025-06-21 19:27:21.235
216.0, -41842.33150986809, -37495.051323777596, -27823.07151831049, -69524.36352066559, -26806.514180483126, -27425.210467006025, -50962.312634266935, -97259.1009448887, -187500.02235174447, -187500.02235174447, -45062.27911261071, -43765.38619582489, -76825.56084699165, -46521.22217669752, -86070.2200019622, -29715.146686452234, 0.0, 0.0, 0.0, 193.0, 0.0, 1.0, 1.0, 0.0, 0.0, 1.0, 1.0, 256.0, 1.0, 1.750526841242704E9, 0.0, 2025-06-21 19:27:21.242
218.0, -41805.60759372802, -37474.487718878714, -27797.702288353717, -69486.70083125841, -26786.375258728895, -27490.410505582156, -50924.89581404875, -97232.14474107561, -187500.02235174447, -187500.02235174447, -45020.77192315721, -43713.4183899663, -76814.80965790864, -46465.63338823717, -86135.48709577169, -29652.02536011045, 0.0, 0.0, 0.0, 193.0, 0.0, 1.0, 1.0, 0.0, 0.0, 1.0, 1.0, 256.0, 1.0, 1.750526841250753E9, 0.0, 2025-06-21 19:27:21.250
220.0, -41873.35573117206, -37531.14939107292, -27844.953876132236, -69546.44704418744, -26815.0301951206, -27401.22704520548, -50990.5875910029, -97282.54792482233, -187500.02235174447, -187500.02235174447, -45049.85154269356, -43743.816762425515, -76809.7805154062, -46497.484624085984, -86083.25106897963, -29686.670564016174, 0.0, 0.0, 0.0, 193.0, 0.0, 1.0, 1.0, 0.0, 0.0, 1.0, 1.0, 256.0, 1.0, 1.750526841258732E9, 0.0, 2025-06-21 19:27:21.258
222.0, -41786.96623885229, -37444.49167781969, -27774.34471539792, -69472.3510113181, -26788.49867445215, -27457.061702854837, -50911.82004354239, -97219.80657813628, -187500.02235174447, -187500.02235174447, -45031.903091895954, -43745.001404881645, -76816.35192827605, -46507.72172304651, -86105.40164773485, -29699.12048567778, 0.0, 0.0, 0.0, 193.0, 0.0, 1.0, 1.0, 0.0, 0.0, 1.0, 1.0, 256.0, 1.0, 1.750526841267808E9, 0.0, 2025-06-21 19:27:21.267
224.0, -41851.56278032813, -37507.076562294555, -27833.420375993297, -69522.39656715353, -26789.9738895862, -27437.86155436773, -50959.54101795448, -97255.03292739784, -187500.02235174447, -187500.02235174447, -44982.14810873844, -43685.389302419346, -76776.43171267888, -46455.15042008763, -86113.22475829421, -29640.2459907825, 0.0, 0.0, 0.0, 193.0, 0.0, 1.0, 1.0, 0.0, 0.0, 1.0, 1.0, 256.0, 1.0, 1.750526841274784E9, 0.0, 2025-06-21 19:27:21.274
226.0, -41876.46262365134, -37538.61487372099, -27863.841100196973, -69555.03011405827, -26820.64048297888, -27442.466013725523, -50986.45251827867, -97281.02800619937, -187500.02235174447, -187500.02235174447, -45119.07489527165, -43794.2870014056, -76856.07097817314, -46554.4368689581, -86108.3297262585, -29745.813279844915, 0.0, 0.0, 0.0, 193.0, 0.0, 1.0, 1.0, 0.0, 0.0, 1.0, 1.0, 256.0, 1.0, 1.750526841282845E9, 0.0, 2025-06-21 19:27:21.282
228.0, -41828.69694575035, -37491.00565803119, -27785.45353239221, -69490.81355223818, -26809.64342470687, -27480.218110110538, -50930.014363529015, -97229.86486314116, -187500.02235174447, -187500.02235174447, -45001.504719436736, -43718.93927084676, -76812.75329741875, -46477.25629535393, -86143.71253773125, -29665.123482361258, 0.0, 0.0, 0.0, 193.0, 0.0, 1.0, 1.0, 0.0, 0.0, 1.0, 1.0, 256.0, 1.0, 1.750526841291835E9, 0.0, 2025-06-21 19:27:21.291
230.0, -41909.409094978466, -37559.357292575514, -27834.78383240507, -69536.52286964928, -26821.19927659026, -27395.169722458093, -50976.30482629596, -97271.64027352814, -187500.02235174447, -187500.02235174447, -45033.98180413029, -43744.93434964828, -76811.81452415163, -46504.23485091148, -86092.32587722849, -29696.55003506542, 0.0, 0.0, 0.0, 193.0, 0.0, 1.0, 1.0, 0.0, 0.0, 1.0, 1.0, 256.0, 1.0, 1.750526841298871E9, 0.0, 2025-06-21 19:27:21.298
232.0, -41883.592830132584, -37530.88117013945, -27836.817841150507, -69508.02439546876, -26793.416058232317, -27486.3871915802, -50941.86078809033, -97246.24869182691, -187500.02235174447, -187500.02235174447, -45075.35488311707, -43756.333739320486, -76839.35187332057, -46511.76738879292, -86118.85739789694, -29702.853227001815, 0.0, 0.0, 0.0, 193.0, 0.0, 1.0, 1.0, 0.0, 0.0, 1.0, 1.0, 256.0, 1.0, 1.750526841306905E9, 0.0, 2025-06-21 19:27:21.306
234.0, -41924.652984696986, -37583.407769609425, -27805.860675079904, -69512.91942750447, -26814.717270698224, -27441.81781313632, -50958.46813422062, -97254.34002331973, -187500.02235174447, -187500.02235174447, -45035.34526054207, -43717.665221412804, -76820.35289053356, -46472.56242901831, -86131.9331684033, -29659.78141543644, 0.0, 0.0, 0.0, 193.0, 0.0, 1.0, 1.0, 0.0, 0.0, 1.0, 1.0, 256.0, 1.0, 1.750526841314881E9, 0.0, 2025-06-21 19:27:21.314
236.0, -41995.239793686844, -37651.7370524093, -27854.431015781287, -69557.77937862628, -26821.26633182363, -27445.86347888273, -50980.64106472029, -97280.33510212126, -187500.02235174447, -187500.02235174447, -45072.9855982048, -43790.017818214634, -76842.39171056649, -46531.30281344686, -86080.568859645, -29727.64131160275, 0.0, 0.0, 0.0, 193.0, 0.0, 1.0, 1.0, 0.0, 0.0, 1.0, 1.0, 256.0, 1.0, 1.750526841323926E9, 0.0, 2025-06-21 19:27:21.323
238.0, -42013.38941018455, -37662.08591009211, -27843.65747495383, -69521.94953226442, -26812.906779397345, -27526.955607766584, -50945.9735090701, -97249.04265988382, -187500.02235174447, -187500.02235174447, -45062.05559516616, -43751.46105902923, -76858.37320785204, -46496.32233337431, -86162.19743039578, -29686.87172971627, 0.0, 0.0, 0.0, 193.0, 0.0, 1.0, 1.0, 0.0, 0.0, 1.0, 1.0, 256.0, 1.0, 1.750526841330944E9, 0.0, 2025-06-21 19:27:21.330
240.0, -42136.122838988646, -37764.702768886425, -27895.66998430133, -69582.50040799385, -26837.963084931744, -27429.122022285705, -51000.556469029965, -97287.82293651378, -187500.02235174447, -187500.02235174447, -45112.011744023774, -43786.128614679415, -76869.23615565732, -46526.92187153362, -86122.0760490985, -29718.812372542903, 0.0, 0.0, 0.0, 193.0, 0.0, 1.0, 1.0, 0.0, 0.0, 1.0, 1.0, 256.0, 1.0, 1.75052684133898E9, 0.0, 2025-06-21 19:27:21.338
242.0, -42103.33282987271, -37748.408347178505, -27844.551544732043, -69520.56372410819, -26804.144895570862, -27481.62627001122, -50943.13483752428, -97248.39445929462, -187500.02235174447, -187500.02235174447, -45110.469473656354, -43797.97503924072, -76886.8493302881, -46538.365964694734, -86144.36073832045, -29732.64810236074, 0.0, 0.0, 0.0, 193.0, 0.0, 1.0, 1.0, 0.0, 0.0, 1.0, 1.0, 256.0, 1.0, 1.750526841346993E9, 0.0, 2025-06-21 19:27:21.346
244.0, -42196.316086806786, -37845.794897770276, -27872.267707856623, -69566.9659455974, -26834.878544196912, -27468.10346461576, -51006.72555049963, -97294.8637360172, -187500.02235174447, -187500.02235174447, -45094.51032811527, -43771.80114648356, -76879.96499299587, -46506.49237710147, -86168.97000896574, -29695.16422690919, 0.0, 0.0, 0.0, 193.0, 0.0, 1.0, 1.0, 0.0, 0.0, 1.0, 1.0, 256.0, 1.0, 1.750526841354959E9, 0.0, 2025-06-21 19:27:21.354
246.0, -42244.50644785243, -37905.60816593268, -27904.409516383355, -69596.35848955614, -26830.609361005947, -27447.96454286153, -51013.87810872532, -97305.43611114456, -187500.02235174447, -187500.02235174447, -45155.41883175598, -43840.577464172544, -76909.73751661033, -46572.631188944724, -86123.50656074364, -29769.50612896754, 0.0, 0.0, 0.0, 193.0, 0.0, 1.0, 1.0, 0.0, 0.0, 1.0, 1.0, 256.0, 1.0, 1.750526841363025E9, 0.0, 2025-06-21 19:27:21.363
248.0, -42207.04492414533, -37879.70249410898, -27867.976172921204, -69545.2176982424, -26822.182753346297, -27524.96630251006, -50996.063768394444, -97284.49252658994, -187500.02235174447, -187500.02235174447, -45116.72796210384, -43805.86520503345, -76911.99504280032, -46526.74305757798, -86190.38298015393, -29716.376032397275, 0.0, 0.0, 0.0, 193.0, 0.0, 1.0, 1.0, 0.0, 0.0, 1.0, 1.0, 256.0, 1.0, 1.750526841371063E9, 0.0, 2025-06-21 19:27:21.371
250.0, -42273.6754743666, -37934.643081980124, -27892.47368484422, -69585.36143128412, -26809.710479940237, -27420.09191752576, -51017.677905282726, -97315.15911998262, -187500.02235174447, -187500.02235174447, -45163.331349293156, -43823.05369651958, -76917.18064751395, -46560.40478472767, -86151.89327620188, -29748.763710113017, 0.0, 0.0, 0.0, 193.0, 0.0, 1.0, 1.0, 0.0, 0.0, 1.0, 1.0, 256.0, 1.0, 1.750526841380067E9, 0.0, 2025-06-21 19:27:21.380
252.0, -42259.21389570402, -37932.56436974578, -27881.342516105477, -69569.73756190986, -26849.697750770778, -27508.87304650224, -50989.648817735775, -97300.09404421975, -187500.02235174447, -187500.02235174447, -45126.629784897545, -43818.851568561986, -76905.44598167491, -46541.808133340855, -86139.46570628473, -29734.235076217068, 0.0, 0.0, 0.0, 193.0, 0.0, 1.0, 1.0, 0.0, 0.0, 1.0, 1.0, 256.0, 1.0, 1.750526841386115E9, 0.0, 2025-06-21 19:27:21.386
254.0, -42264.5783143733, -37938.80050644881, -27880.51550156063, -69559.99220132735, -26810.78336367409, -27468.014057637938, -50979.81405017544, -97288.29232314734, -187500.02235174447, -187500.02235174447, -45120.818331339164, -43800.590193341995, -76907.81526658717, -46527.190092467084, -86188.66189583087, -29713.112677706802, 0.0, 0.0, 0.0, 193.0, 0.0, 1.0, 1.0, 0.0, 0.0, 1.0, 1.0, 256.0, 1.0, 1.75052684139511E9, 0.0, 2025-06-21 19:27:21.395
0.0, -42298.575317689814, -37970.629390553164, -27897.636937813397, -69587.30603305173, -26814.918436398322, -27430.10549904174, -51006.90436445527, -97306.77721581188, -187500.02235174447, -187500.02235174447, -45177.524707022276, -43840.55511242808, -76917.4488684474, -46571.088918577305, -86128.24513056818, -29763.135881797778, 0.0, 0.0, 0.0, 193.0, 0.0, 1.0, 1.0, 0.0, 0.0, 1.0, 1.0, 256.0, 1.0, 1.750526841403166E9, 0.0, 2025-06-21 19:27:21.403
2.0, -42252.68718632307, -37931.17856158955, -27862.09766412946, -69544.7706633533, -26814.002014875656, -27522.798183297895, -50968.16879131422, -97271.0591281723, -187500.02235174447, -187500.02235174447, -45112.61524112407, -43798.26561191864, -76905.44598167491, -46509.82278702531, -86172.50158458967, -29699.63457580025, 0.0, 0.0, 0.0, 193.0, 0.0, 1.0, 1.0, 0.0, 0.0, 1.0, 1.0, 256.0, 1.0, 1.750526841411152E9, 0.0, 2025-06-21 19:27:21.411
4.0, -42326.91732965915, -38005.85573981473, -27911.60677809796, -69600.6276727471, -26837.381939575906, -27432.072452553806, -51010.70416101267, -97308.02891350137, -187500.02235174447, -187500.02235174447, -45146.03109908475, -43819.03038251762, -76908.66463287648, -46552.20169451257, -86138.75045046216, -29741.991131543058, 0.0, 0.0, 0.0, 193.0, 0.0, 1.0, 1.0, 0.0, 0.0, 1.0, 1.0, 256.0, 1.0, 1.750526841419225E9, 0.0, 2025-06-21 19:27:21.419
6.0, -42262.231381205485, -37946.89183794163, -27875.061675913537, -69553.93487857997, -26813.39851777536, -27498.032450441417, -50962.06676507792, -97270.0085961829, -187500.02235174447, -187500.02235174447, -45178.55288726722, -43841.78445837313, -76935.77729890076, -46562.86347661776, -86159.80579373905, -29754.1728322712, 0.0, 0.0, 0.0, 193.0, 0.0, 1.0, 1.0, 0.0, 0.0, 1.0, 1.0, 256.0, 1.0, 1.750526841427195E9, 0.0, 2025-06-21 19:27:21.427
8.0, -42289.34404722977, -37983.34753314823, -27882.348344605965, -69573.35854451163, -26830.609361005947, -27470.71861871703, -50986.363111300845, -97293.18735518305, -187500.02235174447, -187500.02235174447, -45100.29942992919, -43793.66115256085, -76897.44405715991, -46519.8810720302, -86171.71927353374, -29707.45768635961, 0.0, 0.0, 0.0, 193.0, 0.0, 1.0, 1.0, 0.0, 0.0, 1.0, 1.0, 256.0, 1.0, 1.750526841435224E9, 0.0, 2025-06-21 19:27:21.435
10.0, -42306.57724220482, -37996.82563505479, -27902.688432060295, -69591.35169879814, -26827.8824481824, -27450.356179518247, -50987.45834677915, -97292.82972727178, -187500.02235174447, -187500.02235174447, -45170.55096275222, -43850.21106603278, -76922.72388013886, -46578.10736633628, -86128.08866835698, -29770.757826657038, 0.0, 0.0, 0.0, 193.0, 0.0, 1.0, 1.0, 0.0, 0.0, 1.0, 1.0, 256.0, 1.0, 1.750526841442295E9, 0.0, 2025-06-21 19:27:21.442
12.0, -42269.80862257584, -37973.311599887806, -27881.141350405378, -69563.38966648455, -26828.46359353824, -27500.647604542686, -50964.50310522355, -97271.14853515012, -187500.02235174447, -187500.02235174447, -45125.42279069695, -43810.40260915788, -76916.26422599128, -46524.84315929928, -86188.03604698612, -29712.620939328786, 0.0, 0.0, 0.0, 193.0, 0.0, 1.0, 1.0, 0.0, 0.0, 1.0, 1.0, 256.0, 1.0, 1.75052684145133E9, 0.0, 2025-06-21 19:27:21.451
