%OpenBCI Raw EXG Data
%Number of channels = 16
%Sample Rate = 125 Hz
%Board = OpenBCI_GUI$BoardCytonSerialDaisy
Sample Index, EXG Channel 0, EXG Channel 1, EXG Channel 2, EXG Channel 3, EXG Channel 4, EXG Channel 5, EXG Channel 6, EXG Channel 7, EXG Channel 8, EXG Channel 9, EXG Channel 10, EXG Channel 11, EXG Channel 12, EXG Channel 13, EXG Channel 14, EXG Channel 15, Accel Channel 0, Accel Channel 1, Accel Channel 2, Not Used, Digital Channel 0 (D11), Digital Channel 1 (D12), Digital Channel 2 (D13), Digital Channel 3 (D17), Not Used, Digital Channel 4 (D18), Analog Channel 0, Analog Channel 1, Analog Channel 2, Timestamp, Marker Channel, Timestamp (Formatted)
172.0, -42971.92161940594, -38882.64761956306, -28929.236999659184, -70279.42780011032, -28028.148773687935, -28231.370834275585, -52030.39074306378, -99253.79297182476, -187500.02235174447, -187500.02235174447, -45986.76961502667, -44642.021613362034, -77913.01791823124, -47539.83587501477, -86301.873481497, -30559.19326057354, 0.0, 0.0, 0.0, 193.0, 0.0, 1.0, 1.0, 0.0, 0.0, 1.0, 1.0, 256.0, 1.0, 1.750526614481126E9, 0.0, 2025-06-21 19:23:34.481
174.0, -42952.16267730745, -38861.68168326398, -28941.731624809698, -70277.43849485379, -28030.83098302257, -28276.521358075304, -52026.50153952856, -99247.73564907738, -187500.02235174447, -187500.02235174447, -46006.88618503645, -44664.28395083952, -77931.9498457849, -47556.01853800041, -86317.36324040452, -30574.95124041453, 0.0, 0.0, 0.0, 193.0, 0.0, 1.0, 1.0, 0.0, 0.0, 1.0, 1.0, 256.0, 1.0, 1.750526614481189E9, 0.0, 2025-06-21 19:23:34.481
0.0, -21133.216754581543, -19009.24223771599, -14085.130582467387, -34797.15106453312, -13601.148259776624, -13948.404961634275, -25667.51398652959, -49300.99687588178, -93750.01117587223, -93750.01117587223, -23000.235617188886, -22325.07882417188, -38967.696007215505, -23764.88879500494, -43174.271961959836, -15276.187989257336, 0.0, 0.0, 0.0, 193.0, 0.0, 1.0, 1.0, 0.0, 0.0, 1.0, 1.0, 256.0, 1.0, 1.750526614584921E9, 0.0, 2025-06-21 19:23:34.584
2.0, -42230.60366280123, -38013.1200567627, -28148.490565835305, -69570.4751694769, -27214.81349644822, -27929.465821917755, -51308.67526634637, -98580.37961487527, -187500.02235174447, -187500.02235174447, -45267.15520228806, -43942.47906714428, -77087.21036758547, -46908.04146624106, -85703.85255859526, -29829.09587968539, 0.0, 0.0, 0.0, 193.0, 0.0, 1.0, 1.0, 0.0, 0.0, 1.0, 1.0, 256.0, 1.0, 1.750526614591901E9, 0.0, 2025-06-21 19:23:34.591
4.0, -42233.151761669134, -37998.94905077804, -28118.405117798462, -69571.3692392551, -27232.11374665663, -27878.32503060401, -51307.82590005707, -98584.98407423307, -187500.02235174447, -187500.02235174447, -45207.54309982576, -43919.03208721067, -77051.71579739044, -46875.050291425025, -85680.20441296154, -29795.61296649134, 0.0, 0.0, 0.0, 193.0, 0.0, 1.0, 1.0, 0.0, 0.0, 1.0, 1.0, 256.0, 1.0, 1.750526614598962E9, 0.0, 2025-06-21 19:23:34.598
6.0, -42258.00690150343, -38027.08989704727, -28171.468159135362, -69608.13785888409, -27211.39367954656, -27900.85558901496, -51320.99107754124, -98604.18422272019, -187500.02235174447, -187500.02235174447, -45249.20675149045, -43966.37308196701, -77084.68462046202, -46924.51470190462, -85674.63882859217, -29847.312551416464, 0.0, 0.0, 0.0, 193.0, 0.0, 1.0, 1.0, 0.0, 0.0, 1.0, 1.0, 256.0, 1.0, 1.750526614607939E9, 0.0, 2025-06-21 19:23:34.607
8.0, -42231.1177529237, -38011.64484162865, -28134.118394150544, -69567.45768397543, -27228.8280402217, -27926.87301956094, -51298.39346389693, -98581.18427767567, -187500.02235174447, -187500.02235174447, -45251.352518958156, -43945.9212357904, -77087.05390537428, -46893.64694281184, -85718.1800267911, -29817.89765571328, 0.0, 0.0, 0.0, 193.0, 0.0, 1.0, 1.0, 0.0, 0.0, 1.0, 1.0, 256.0, 1.0, 1.750526614614939E9, 0.0, 2025-06-21 19:23:34.614
10.0, -42263.25956145043, -38039.11513556423, -28153.631467060026, -69599.91241692453, -27233.700720512956, -27908.633996085406, -51332.83750210256, -98611.1803187347, -187500.02235174447, -187500.02235174447, -45230.63245184809, -43944.20015146735, -77069.86541388815, -46908.17557670779, -85673.38713090267, -29828.80530700747, 0.0, 0.0, 0.0, 193.0, 0.0, 1.0, 1.0, 0.0, 0.0, 1.0, 1.0, 256.0, 1.0, 1.750526614623012E9, 0.0, 2025-06-21 19:23:34.623
12.0, -42248.038023476365, -38017.679812631584, -28141.762690754258, -69577.24774804685, -27215.52875227079, -27926.87301956094, -51298.95225750831, -98580.31255964191, -187500.02235174447, -187500.02235174447, -45244.13290549909, -43951.21859922631, -77086.22689082944, -46903.727579561186, -85695.40359919115, -29827.978292462623, 0.0, 0.0, 0.0, 193.0, 0.0, 1.0, 1.0, 0.0, 0.0, 1.0, 1.0, 256.0, 1.0, 1.75052661463105E9, 0.0, 2025-06-21 19:23:34.631
14.0, -42253.44714563455, -38016.38341145318, -28157.610077573074, -69585.11556209512, -27214.209999347928, -27914.691318832796, -51321.52751940817, -98598.68569358418, -187500.02235174447, -187500.02235174447, -45250.59255964668, -43942.90375028893, -77084.28228906183, -46895.50213760163, -85705.35012547376, -29817.09299291289, 0.0, 0.0, 0.0, 193.0, 0.0, 1.0, 1.0, 0.0, 0.0, 1.0, 1.0, 256.0, 1.0, 1.750526614640106E9, 0.0, 2025-06-21 19:23:34.640
16.0, -42263.214857961524, -38029.83916161527, -28150.70338853638, -69593.83274243269, -27248.20700266445, -27867.730303732194, -51325.17085375439, -98602.08315874138, -187500.02235174447, -187500.02235174447, -45270.32915000071, -43963.71322437683, -77093.67002173305, -46922.883024559385, -85681.05377925084, -29844.540935104007, 0.0, 0.0, 0.0, 193.0, 0.0, 1.0, 1.0, 0.0, 0.0, 1.0, 1.0, 256.0, 1.0, 1.750526614647131E9, 0.0, 2025-06-21 19:23:34.647
18.0, -42229.217854645, -38005.27459445889, -28133.38078658352, -69565.24486127435, -27210.365499301613, -27917.485286889707, -51277.76280376468, -98569.85194323683, -187500.02235174447, -187500.02235174447, -45224.3739634006, -43940.333299676575, -77075.52040523535, -46881.219372894695, -85707.49589294147, -29803.301966583964, 0.0, 0.0, 0.0, 193.0, 0.0, 1.0, 1.0, 0.0, 0.0, 1.0, 1.0, 256.0, 1.0, 1.750526614655164E9, 0.0, 2025-06-21 19:23:34.655
20.0, -42261.382014916184, -38026.48639994698, -28142.992036699303, -69585.65200396205, -27224.6259122641, -27925.040176515602, -51322.48864441975, -98601.770234319, -187500.02235174447, -187500.02235174447, -45218.31664065321, -43927.86102627051, -77056.9908090819, -46896.55266959103, -85664.60289533173, -29816.489495812595, 0.0, 0.0, 0.0, 193.0, 0.0, 1.0, 1.0, 0.0, 0.0, 1.0, 1.0, 256.0, 1.0, 1.750526614663193E9, 0.0, 2025-06-21 19:23:34.663
22.0, -42235.40928785912, -38007.353306693236, -28139.907495964468, -69577.4712654914, -27231.756118745343, -27898.03926921359, -51321.862795575005, -98602.06080699693, -187500.02235174447, -187500.02235174447, -45249.38556544609, -43960.00283479725, -77091.43484728753, -46914.1211407329, -85706.08773304078, -29837.18721117821, 0.0, 0.0, 0.0, 193.0, 0.0, 1.0, 1.0, 0.0, 0.0, 1.0, 1.0, 256.0, 1.0, 1.750526614671241E9, 0.0, 2025-06-21 19:23:34.671
24.0, -42243.21004667402, -38021.189036511074, -28135.28068486222, -69566.34009675265, -27209.784353945775, -27938.63003714443, -51300.1592517089, -98582.90536199872, -187500.02235174447, -187500.02235174447, -45233.33701292718, -43932.577244350585, -77070.35715226617, -46883.99098920715, -85694.5765846463, -29803.838408450894, 0.0, 0.0, 0.0, 193.0, 0.0, 1.0, 1.0, 0.0, 0.0, 1.0, 1.0, 256.0, 1.0, 1.750526614679196E9, 0.0, 2025-06-21 19:23:34.679
26.0, -42242.941825740556, -38014.28234747438, -28140.063958175655, -69574.14085556756, -27238.886325226587, -27929.734042851218, -51325.2155572433, -98601.9266965302, -187500.02235174447, -187500.02235174447, -45231.48181813739, -43936.19822695234, -77063.9422016075, -46901.0230184821, -85665.63107557668, -29819.2387603806, 0.0, 0.0, 0.0, 193.0, 0.0, 1.0, 1.0, 0.0, 0.0, 1.0, 1.0, 256.0, 1.0, 1.750526614686286E9, 0.0, 2025-06-21 19:23:34.686
28.0, -42259.83974454877, -38029.66034765963, -28154.726702538337, -69576.53249222429, -27224.71531924192, -27917.39587991189, -51322.9133275644, -98592.78483304798, -187500.02235174447, -187500.02235174447, -45234.85693155014, -43927.88337801497, -77078.85081515918, -46884.86270724091, -85711.74272438798, -29806.721783485627, 0.0, 0.0, 0.0, 193.0, 0.0, 1.0, 1.0, 0.0, 0.0, 1.0, 1.0, 256.0, 1.0, 1.75052661469626E9, 0.0, 2025-06-21 19:23:34.696
30.0, -42279.151651758155, -38032.0743360608, -28167.243679433308, -69608.36137632864, -27256.521851601825, -27869.876071199906, -51341.129999295474, -98607.00054252155, -187500.02235174447, -187500.02235174447, -45276.63234193711, -43967.401262211955, -77100.8002282143, -46921.4748646587, -85690.59797413326, -29840.24940016859, 0.0, 0.0, 0.0, 193.0, 0.0, 1.0, 1.0, 0.0, 0.0, 1.0, 1.0, 256.0, 1.0, 1.750526614703347E9, 0.0, 2025-06-21 19:23:34.703
32.0, -42247.412174631616, -38014.79643759685, -28145.58483905612, -69579.9746608704, -27229.25272336635, -27964.379246756944, -51312.05037975912, -98586.32517890038, -187500.02235174447, -187500.02235174447, -45246.83746657818, -43962.75209936525, -77097.15689386809, -46914.61287911092, -85710.3792679762, -29837.254266411575, 0.0, 0.0, 0.0, 193.0, 0.0, 1.0, 1.0, 0.0, 0.0, 1.0, 1.0, 256.0, 1.0, 1.750526614711357E9, 0.0, 2025-06-21 19:23:34.711
34.0, -42236.95155822654, -38007.129789248684, -28138.544039552697, -69571.70451542194, -27234.5277350578, -27878.436789326286, -51291.66558881588, -98576.49041134006, -187500.02235174447, -187500.02235174447, -45208.504224837336, -43908.07973242757, -77053.21336426894, -46870.46818381169, -85683.75834032994, -29789.51094025504, 0.0, 0.0, 0.0, 193.0, 0.0, 1.0, 1.0, 0.0, 0.0, 1.0, 1.0, 256.0, 1.0, 1.750526614718404E9, 0.0, 2025-06-21 19:23:34.718
36.0, -42261.06909049381, -38029.61564417072, -28166.48372012183, -69609.72483274041, -27218.166258116515, -27940.664045889862, -51338.64895566094, -98612.25320246855, -187500.02235174447, -187500.02235174447, -45279.1357373161, -43993.84337590258, -77112.24432137542, -46941.85965560194, -85701.46092193853, -29861.304743445486, 0.0, 0.0, 0.0, 193.0, 0.0, 1.0, 1.0, 0.0, 0.0, 1.0, 1.0, 256.0, 1.0, 1.750526614727438E9, 0.0, 2025-06-21 19:23:34.727
38.0, -42212.34228758124, -37997.16091122162, -28124.61890275704, -69551.3197244787, -27226.548162287258, -27943.77093836915, -51298.0581877301, -98571.52832407098, -187500.02235174447, -187500.02235174447, -45237.44973390696, -43931.54906410564, -77076.99562036939, -46883.70041652923, -85710.3792679762, -29803.838408450894, 0.0, 0.0, 0.0, 193.0, 0.0, 1.0, 1.0, 0.0, 0.0, 1.0, 1.0, 256.0, 1.0, 1.750526614735471E9, 0.0, 2025-06-21 19:23:34.735
40.0, -42241.064279206315, -38014.30469921884, -28135.683016262417, -69573.49265497836, -27191.075943836684, -27889.18797840929, -51323.606231642516, -98586.90632425623, -187500.02235174447, -187500.02235174447, -45213.48866385087, -43921.51313084521, -77051.04524505678, -46888.841317753955, -85656.73508128346, -29805.827713707415, 0.0, 0.0, 0.0, 193.0, 0.0, 1.0, 1.0, 0.0, 0.0, 1.0, 1.0, 256.0, 1.0, 1.750526614742475E9, 0.0, 2025-06-21 19:23:34.742
42.0, -42223.40640108662, -37983.861623270706, -28132.933751694414, -69560.03690481627, -27258.980543491907, -27927.23064747222, -51308.40704541291, -98587.46511786761, -187500.02235174447, -187500.02235174447, -45243.26118746534, -43937.204055452836, -77076.32506803573, -46900.53128010408, -85698.3316777148, -29818.747022002583, 0.0, 0.0, 0.0, 193.0, 0.0, 1.0, 1.0, 0.0, 0.0, 1.0, 1.0, 256.0, 1.0, 1.750526614751558E9, 0.0, 2025-06-21 19:23:34.751
44.0, -42236.303357637335, -37997.65264959963, -28125.62473125753, -69570.7210386659, -27246.754139274854, -27874.70404800225, -51308.228231457266, -98589.70029231314, -187500.02235174447, -187500.02235174447, -45212.30402139474, -43913.69002028585, -77056.20849802595, -46873.37391059088, -85685.45707290854, -29792.953108901158, 0.0, 0.0, 0.0, 193.0, 0.0, 1.0, 1.0, 0.0, 0.0, 1.0, 1.0, 256.0, 1.0, 1.750526614759552E9, 0.0, 2025-06-21 19:23:34.759
46.0, -42239.92434023909, -38010.907234061626, -28144.646065788995, -69576.13016082409, -27227.285769854283, -27940.775804612138, -51321.147539752434, -98600.85381279634, -187500.02235174447, -187500.02235174447, -45247.46331542293, -43959.60050339705, -77080.34838203769, -46918.3232686905, -85679.06447399432, -29837.61189432286, 0.0, 0.0, 0.0, 193.0, 0.0, 1.0, 1.0, 0.0, 0.0, 1.0, 1.0, 256.0, 1.0, 1.750526614766581E9, 0.0, 2025-06-21 19:23:34.766
48.0, -42198.50655776341, -37979.212460424, -28107.1845420819, -69538.17689873897, -27201.514208497312, -27920.05573750207, -51299.1087197195, -98578.09973694084, -187500.02235174447, -187500.02235174447, -45221.26707092131, -43908.817339994595, -77057.99663758239, -46870.60229427842, -85700.85742483824, -29789.443885021676, 0.0, 0.0, 0.0, 193.0, 0.0, 1.0, 1.0, 0.0, 0.0, 1.0, 1.0, 256.0, 1.0, 1.750526614774571E9, 0.0, 2025-06-21 19:23:34.774
50.0, -42242.22656991799, -38002.79355082435, -28149.60815305807, -69580.60050971515, -27210.253740579337, -27844.193916820757, -51317.727722850774, -98596.271705183, -187500.02235174447, -187500.02235174447, -45219.255413920335, -43917.86979649899, -77045.85964034316, -46884.39332060735, -85654.14227892665, -29801.156199116256, 0.0, 0.0, 0.0, 193.0, 0.0, 1.0, 1.0, 0.0, 0.0, 1.0, 1.0, 256.0, 1.0, 1.750526614783639E9, 0.0, 2025-06-21 19:23:34.783
52.0, -42209.25774684641, -37978.1619284346, -28116.974606153322, -69541.4626051739, -27229.72210999991, -27962.568755456065, -51298.41581564138, -98576.95979797361, -187500.02235174447, -187500.02235174447, -45237.69560309596, -43930.632642582976, -77068.01021909836, -46894.04927421204, -85698.51049167043, -29807.95112943067, 0.0, 0.0, 0.0, 193.0, 0.0, 1.0, 1.0, 0.0, 0.0, 1.0, 1.0, 256.0, 1.0, 1.750526614791685E9, 0.0, 2025-06-21 19:23:34.791
54.0, -42235.69986053704, -38005.945146792554, -28126.13882138, -69563.14379729555, -27212.086583624674, -27895.222949412222, -51335.832635859566, -98608.81103382242, -187500.02235174447, -187500.02235174447, -45225.536254112274, -43920.417895366896, -77060.9917713394, -46876.34669260344, -85687.66989560961, -29792.41666703423, 0.0, 0.0, 0.0, 193.0, 0.0, 1.0, 1.0, 0.0, 0.0, 1.0, 1.0, 256.0, 1.0, 1.750526614798699E9, 0.0, 2025-06-21 19:23:34.798
56.0, -42227.80969474431, -37989.98600125146, -28116.70638521986, -69555.27598324728, -27233.924237957508, -27889.65736504285, -51312.63152511496, -98585.63227482227, -187500.02235174447, -187500.02235174447, -45210.13590218257, -43918.29447964364, -77044.13855602009, -46883.096919428936, -85640.68652876455, -29800.731515971605, 0.0, 0.0, 0.0, 193.0, 0.0, 1.0, 1.0, 0.0, 0.0, 1.0, 1.0, 256.0, 1.0, 1.750526614806718E9, 0.0, 2025-06-21 19:23:34.806
58.0, -42217.39378182814, -37992.82467279729, -28125.021234157233, -69548.48105293287, -27208.577359745188, -27959.193642043312, -51299.33223716405, -98583.01712072101, -187500.02235174447, -187500.02235174447, -45231.7276873264, -43923.837712268556, -77067.943163865, -46868.45652681071, -85699.91865157112, -29787.365172787333, 0.0, 0.0, 0.0, 193.0, 0.0, 1.0, 1.0, 0.0, 0.0, 1.0, 1.0, 256.0, 1.0, 1.750526614815764E9, 0.0, 2025-06-21 19:23:34.815
60.0, -42226.245072632446, -37985.42624538258, -28109.665585716437, -69550.02332330028, -27230.526772800302, -27889.120923175924, -51308.38469366845, -98585.63227482227, -187500.02235174447, -187500.02235174447, -45211.789931272266, -43914.3158691306, -77045.56906766523, -46875.98906469215, -85648.0179009459, -29792.595480989872, 0.0, 0.0, 0.0, 193.0, 0.0, 1.0, 1.0, 0.0, 0.0, 1.0, 1.0, 256.0, 1.0, 1.750526614822788E9, 0.0, 2025-06-21 19:23:34.822
62.0, -42206.106150878215, -37981.760559291906, -28116.12523986402, -69545.6647331315, -27219.842638950664, -27923.274388703634, -51306.127167478466, -98582.54773408745, -187500.02235174447, -187500.02235174447, -45221.66940232151, -43922.40720062342, -77058.0413410713, -46879.00655019362, -85674.92940127008, -29799.435114793196, 0.0, 0.0, 0.0, 193.0, 0.0, 1.0, 1.0, 0.0, 0.0, 1.0, 1.0, 256.0, 1.0, 1.750526614830837E9, 0.0, 2025-06-21 19:23:34.830
64.0, -42221.50650280792, -37993.80814955332, -28116.594626497583, -69551.09620703413, -27212.444211535956, -27907.29289141809, -51308.608211113, -98587.12984170078, -187500.02235174447, -187500.02235174447, -45206.55962306972, -43898.71435150079, -77041.8363263412, -46860.92398892927, -85674.86234603672, -29779.877338394803, 0.0, 0.0, 0.0, 193.0, 0.0, 1.0, 1.0, 0.0, 0.0, 1.0, 1.0, 256.0, 1.0, 1.750526614838873E9, 0.0, 2025-06-21 19:23:34.838
66.0, -42217.17026438359, -37979.860661013205, -28113.219513084834, -69550.09037853366, -27184.90686236702, -27880.314335860534, -51314.4643681603, -98586.23577192257, -187500.02235174447, -187500.02235174447, -45227.23498669088, -43936.08646823007, -77054.97915208092, -46891.12119568839, -85648.44258409055, -29810.208655620656, 0.0, 0.0, 0.0, 193.0, 0.0, 1.0, 1.0, 0.0, 0.0, 1.0, 1.0, 256.0, 1.0, 1.750526614847934E9, 0.0, 2025-06-21 19:23:34.847
68.0, -42204.563880510796, -37980.12888194667, -28098.26619604423, -69534.53356439275, -27222.90482794104, -27897.99456572468, -51300.89685927593, -98582.05599570942, -187500.02235174447, -187500.02235174447, -45206.38080911408, -43905.41987483739, -77047.98305606641, -46856.4089365493, -85682.10431124024, -29777.217480804622, 0.0, 0.0, 0.0, 193.0, 0.0, 1.0, 1.0, 0.0, 0.0, 1.0, 1.0, 256.0, 1.0, 1.750526614855001E9, 0.0, 2025-06-21 19:23:34.855
70.0, -42237.21977916, -38008.605004382734, -28125.781193468716, -69565.35661999663, -27228.44806056596, -27904.342461149987, -51319.56056589611, -98596.3164086719, -187500.02235174447, -187500.02235174447, -45216.21557667441, -43924.37415413549, -77047.35720722166, -46883.43219559577, -85654.14227892665, -29801.625585749818, 0.0, 0.0, 0.0, 193.0, 0.0, 1.0, 1.0, 0.0, 0.0, 1.0, 1.0, 256.0, 1.0, 1.750526614863011E9, 0.0, 2025-06-21 19:23:34.863
72.0, -42194.75146469491, -37965.44378583953, -28100.724887934317, -69527.09043348914, -27201.178932330484, -27942.183964512824, -51301.90268777641, -98568.33202461386, -187500.02235174447, -187500.02235174447, -45214.226271417894, -43907.72210451628, -77045.59141940968, -46866.19900062073, -85661.96538948601, -29786.98519313159, 0.0, 0.0, 0.0, 193.0, 0.0, 1.0, 1.0, 0.0, 0.0, 1.0, 1.0, 256.0, 1.0, 1.750526614870994E9, 0.0, 2025-06-21 19:23:34.870
74.0, -42226.89327322165, -38001.7206670905, -28120.863809688548, -69557.68997164846, -27222.167220374016, -27902.24139717119, -51319.62762112947, -98599.44565289565, -187500.02235174447, -187500.02235174447, -45209.398294615545, -43908.526767316675, -77046.79841361028, -46862.198038363225, -85675.6223053482, -29782.604251218352, 0.0, 0.0, 0.0, 193.0, 0.0, 1.0, 1.0, 0.0, 0.0, 1.0, 1.0, 256.0, 1.0, 1.750526614879044E9, 0.0, 2025-06-21 19:23:34.879
76.0, -42221.57355804129, -37988.04139948385, -28122.450783544875, -69554.89600359154, -27214.522923770302, -27910.444487386285, -51310.12812973597, -98592.09192896986, -187500.02235174447, -187500.02235174447, -45226.69854482395, -43931.70552631683, -77055.3814834811, -46895.79271027955, -85655.75160452744, -29815.99775743458, 0.0, 0.0, 0.0, 193.0, 0.0, 1.0, 1.0, 0.0, 0.0, 1.0, 1.0, 256.0, 1.0, 1.750526614887087E9, 0.0, 2025-06-21 19:23:34.887
78.0, -42210.53179628036, -37981.17941393607, -28120.506181777262, -69545.03888428675, -27228.135136143585, -27923.363795681453, -51309.904612291415, -98588.73916730157, -187500.02235174447, -187500.02235174447, -45223.882225022586, -43906.49275857124, -77056.61082942615, -46867.33893958795, -85698.19756724806, -29787.47693150961, 0.0, 0.0, 0.0, 193.0, 0.0, 1.0, 1.0, 0.0, 0.0, 1.0, 1.0, 256.0, 1.0, 1.750526614895113E9, 0.0, 2025-06-21 19:23:34.895
80.0, -42231.58713955726, -37998.680829844576, -28122.026100400224, -69568.68702992046, -27222.77071747431, -27877.967402692724, -51322.35453395302, -98599.49035638456, -187500.02235174447, -187500.02235174447, -45214.18156792898, -43924.061229713116, -77050.59821016768, -46889.71303578771, -85658.1208894397, -29808.46521955314, 0.0, 0.0, 0.0, 193.0, 0.0, 1.0, 1.0, 0.0, 0.0, 1.0, 1.0, 256.0, 1.0, 1.750526614904207E9, 0.0, 2025-06-21 19:23:34.904
82.0, -42204.92150842208, -37971.769329520386, -28111.699594461872, -69544.59184939765, -27220.781412217788, -27914.736022321707, -51301.41094939839, -98579.15026893023, -187500.02235174447, -187500.02235174447, -45227.637318091074, -43937.2711106862, -77067.20555629797, -46891.79174802205, -85683.13249148519, -29812.75675448856, 0.0, 0.0, 0.0, 193.0, 0.0, 1.0, 1.0, 0.0, 0.0, 1.0, 1.0, 256.0, 1.0, 1.750526614910169E9, 0.0, 2025-06-21 19:23:34.910
84.0, -42217.75140973942, -37991.64003034116, -28118.069841631634, -69558.62874491558, -27199.524903240792, -27876.581594536496, -51310.10577799151, -98588.51564985701, -187500.02235174447, -187500.02235174447, -45204.41385560201, -43903.989363192246, -77043.04332054178, -46862.823887207975, -85673.23066869148, -29781.687829695682, 0.0, 0.0, 0.0, 193.0, 0.0, 1.0, 1.0, 0.0, 0.0, 1.0, 1.0, 256.0, 1.0, 1.7505266149192E9, 0.0, 2025-06-21 19:23:34.919
86.0, -42205.63676424465, -37966.114338173196, -28113.644196229485, -69546.44704418744, -27207.61623473361, -27923.833182315015, -51305.74718782272, -98584.98407423307, -187500.02235174447, -187500.02235174447, -45228.44198089147, -43938.232235697775, -77059.27068701634, -46898.22905042518, -85655.03634870486, -29818.501152813573, 0.0, 0.0, 0.0, 193.0, 0.0, 1.0, 1.0, 0.0, 0.0, 1.0, 1.0, 256.0, 1.0, 1.750526614927162E9, 0.0, 2025-06-21 19:23:34.927
88.0, -42200.652325231116, -37963.63329453865, -28101.350736779063, -69537.14871849403, -27239.825098493708, -27935.612551642964, -51309.748150080224, -98582.23480966507, -187500.02235174447, -187500.02235174447, -45206.64903004754, -43895.45099681032, -77047.08898628819, -46863.539143030546, -85693.25783172344, -29783.073637851914, 0.0, 0.0, 0.0, 193.0, 0.0, 1.0, 1.0, 0.0, 0.0, 1.0, 1.0, 256.0, 1.0, 1.750526614935244E9, 0.0, 2025-06-21 19:23:34.935
90.0, -42222.959366197516, -37992.04236174135, -28112.2360363288, -69556.12534953658, -27191.366516514605, -27853.782815192084, -51316.1631007389, -98586.52634460048, -187500.02235174447, -187500.02235174447, -45204.793835257755, -43905.57633704857, -77036.15898324955, -46871.54106754554, -85641.15591539812, -29789.913271655238, 0.0, 0.0, 0.0, 193.0, 0.0, 1.0, 1.0, 0.0, 0.0, 1.0, 1.0, 256.0, 1.0, 1.750526614943259E9, 0.0, 2025-06-21 19:23:34.943
92.0, -42207.1119793787, -37976.41849236709, -28115.879370675015, -69541.77552959627, -27226.659921009534, -27926.71655734975, -51296.828841785056, -98576.73628052906, -187500.02235174447, -187500.02235174447, -45229.91719602552, -43927.99513673725, -77064.9927335969, -46888.23782065366, -85684.13831998568, -29807.57114977493, 0.0, 0.0, 0.0, 193.0, 0.0, 1.0, 1.0, 0.0, 0.0, 1.0, 1.0, 256.0, 1.0, 1.750526614951265E9, 0.0, 2025-06-21 19:23:34.951
94.0, -42226.13331391017, -37995.05984724282, -28111.766649695237, -69546.13411976506, -27204.263473065315, -27921.463897402755, -51315.20197572732, -98588.91798125721, -187500.02235174447, -187500.02235174447, -45208.772445770795, -43904.30228761462, -77047.40191071057, -46865.84137270944, -85683.51247114093, -29783.006582618546, 0.0, 0.0, 0.0, 193.0, 0.0, 1.0, 1.0, 0.0, 0.0, 1.0, 1.0, 256.0, 1.0, 1.750526614959332E9, 0.0, 2025-06-21 19:23:34.959
96.0, -42212.029363158865, -37982.43111162557, -28099.160265822444, -69538.35571269461, -27215.595807504156, -27871.99948692316, -51310.55281288062, -98582.79360327646, -187500.02235174447, -187500.02235174447, -45218.070771464205, -43924.396505879944, -77047.84894559968, -46889.80244276553, -85646.54268581184, -29808.107591641856, 0.0, 0.0, 0.0, 193.0, 0.0, 1.0, 1.0, 0.0, 0.0, 1.0, 1.0, 256.0, 1.0, 1.750526614966327E9, 0.0, 2025-06-21 19:23:34.966
98.0, -42194.61735422818, -37970.785852764355, -28094.645213442473, -69526.33047417767, -27214.120592370105, -27931.09749926299, -51283.21662941178, -98573.29411188295, -187500.02235174447, -187500.02235174447, -45195.47315781989, -43893.72991248726, -77038.21534373943, -46853.27969232556, -85679.80208156134, -29773.350629013854, 0.0, 0.0, 0.0, 193.0, 0.0, 1.0, 1.0, 0.0, 0.0, 1.0, 1.0, 256.0, 1.0, 1.750526614975337E9, 0.0, 2025-06-21 19:23:34.975
100.0, -42236.68333729307, -38008.04621077135, -28131.27972260472, -69570.18459679898, -27200.396621274547, -27869.876071199906, -51322.51099616421, -98597.1657749612, -187500.02235174447, -187500.02235174447, -45218.51780635331, -43916.95337497633, -77047.62542815512, -46882.87340198438, -85655.48338359396, -29800.440943293685, 0.0, 0.0, 0.0, 193.0, 0.0, 1.0, 1.0, 0.0, 0.0, 1.0, 1.0, 256.0, 1.0, 1.750526614983369E9, 0.0, 2025-06-21 19:23:34.983
102.0, -42201.88167117616, -37963.56623930529, -28112.973643895824, -69543.83189008616, -27229.990330933375, -27919.206371212767, -51305.076635489066, -98575.30576888392, -187500.02235174447, -187500.02235174447, -45238.65672810754, -43938.50045663124, -77073.77696916783, -46893.065797456, -85685.54647988635, -29814.56724578944, 0.0, 0.0, 0.0, 193.0, 0.0, 1.0, 1.0, 0.0, 0.0, 1.0, 1.0, 256.0, 1.0, 1.75052661499141E9, 0.0, 2025-06-21 19:23:34.991
104.0, -42210.218871857986, -37976.6643615561, -28120.170905610434, -69560.86391936112, -27215.595807504156, -27928.30353120608, -51323.71799036479, -98596.38346390528, -187500.02235174447, -187500.02235174447, -45201.68694277846, -43901.17304339088, -77044.13855602009, -46860.65576799581, -85674.97410475899, -29780.74905642856, 0.0, 0.0, 0.0, 193.0, 0.0, 1.0, 1.0, 0.0, 0.0, 1.0, 1.0, 256.0, 1.0, 1.750526614998403E9, 0.0, 2025-06-21 19:23:34.998
106.0, -42233.62114830269, -37996.35624842122, -28138.633446530515, -69573.44795148945, -27226.7269762429, -27918.021728756637, -51349.958938355325, -98613.95193504715, -187500.02235174447, -187500.02235174447, -45247.3292049562, -43945.98829102377, -77075.76627442436, -46916.4233704118, -85674.48236638098, -29835.555533832972, 0.0, 0.0, 0.0, 193.0, 0.0, 1.0, 1.0, 0.0, 0.0, 1.0, 1.0, 256.0, 1.0, 1.750526615007414E9, 0.0, 2025-06-21 19:23:35.007
108.0, -42166.90119110361, -37955.117279901184, -28097.148608821466, -69538.53452665026, -27199.301385796236, -27901.660251815352, -51319.49351066274, -98588.24742892354, -187500.02235174447, -187500.02235174447, -45225.51390236782, -43919.83675001106, -77065.68563767501, -46872.92687570177, -85699.06928528182, -29793.400143790263, 0.0, 0.0, 0.0, 193.0, 0.0, 1.0, 1.0, 0.0, 0.0, 1.0, 1.0, 256.0, 1.0, 1.750526615015446E9, 0.0, 2025-06-21 19:23:35.015
110.0, -42203.245127587936, -37979.68184705757, -28129.022196414735, -69571.41394274401, -27207.504476011334, -27898.66511805834, -51350.9200633669, -98620.70216187266, -187500.02235174447, -187500.02235174447, -45201.46342533391, -43920.57435757809, -77042.50687867486, -46887.72373053119, -85654.20933416001, -29804.978347418113, 0.0, 0.0, 0.0, 193.0, 0.0, 1.0, 1.0, 0.0, 0.0, 1.0, 1.0, 256.0, 1.0, 1.750526615022439E9, 0.0, 2025-06-21 19:23:35.022
112.0, -42168.30935100429, -37943.36026231769, -28113.42067878493, -69542.84841333014, -27229.8785722111, -27927.23064747222, -51306.48479538975, -98587.26395216752, -187500.02235174447, -187500.02235174447, -45239.86372230813, -43943.775468322696, -77075.69921919098, -46899.3689893924, -85689.4803869105, -29816.42244057923, 0.0, 0.0, 0.0, 193.0, 0.0, 1.0, 1.0, 0.0, 0.0, 1.0, 1.0, 256.0, 1.0, 1.750526615030505E9, 0.0, 2025-06-21 19:23:35.030
114.0, -42159.59217066672, -37942.86852393967, -28088.945518606368, -69533.2148114699, -27186.89616762354, -27903.962481494247, -51304.27197268867, -98587.08513821187, -187500.02235174447, -187500.02235174447, -45184.18552686996, -43896.94856368883, -77031.66628261404, -46856.58775050494, -85665.7204825545, -29774.423512747708, 0.0, 0.0, 0.0, 193.0, 0.0, 1.0, 1.0, 0.0, 0.0, 1.0, 1.0, 256.0, 1.0, 1.750526615039556E9, 0.0, 2025-06-21 19:23:35.039
116.0, -42175.886592374634, -37948.81408796478, -28110.716117705837, -69545.6200296426, -27231.331435600692, -27881.543681805575, -51308.38469366845, -98583.79943177693, -187500.02235174447, -187500.02235174447, -45212.72870453939, -43918.808569766115, -77042.61863739713, -46890.920029988294, -85648.30847362381, -29809.314585842443, 0.0, 0.0, 0.0, 193.0, 0.0, 1.0, 1.0, 0.0, 0.0, 1.0, 1.0, 256.0, 1.0, 1.750526615046555E9, 0.0, 2025-06-21 19:23:35.046
118.0, -42149.600940895194, -37925.07653535325, -28091.448913985365, -69523.60356135412, -27190.651260692033, -27927.43181317232, -51298.77344355267, -98571.1706961597, -187500.02235174447, -187500.02235174447, -45200.32348636669, -43897.2614881112, -77042.77509960832, -46858.062965638994, -85681.67962809559, -29780.726704684104, 0.0, 0.0, 0.0, 193.0, 0.0, 1.0, 1.0, 0.0, 0.0, 1.0, 1.0, 256.0, 1.0, 1.750526615054564E9, 0.0, 2025-06-21 19:23:35.054
120.0, -42176.22186854146, -37945.483678040946, -28118.22630384282, -69555.03011405827, -27196.261548550316, -27902.24139717119, -51311.648048358926, -98587.08513821187, -187500.02235174447, -187500.02235174447, -45198.669457277, -43893.39463632043, -77027.95589303445, -46872.30102685702, -85640.08303166427, -29791.52259725602, 0.0, 0.0, 0.0, 193.0, 0.0, 1.0, 1.0, 0.0, 0.0, 1.0, 1.0, 256.0, 1.0, 1.750526615063579E9, 0.0, 2025-06-21 19:23:35.063
122.0, -42158.49693518841, -37934.26310232438, -28114.80648694116, -69549.50923317781, -27229.81151697773, -27939.725272622738, -51297.74526330773, -98568.8684664808, -187500.02235174447, -187500.02235174447, -45231.839446048674, -43930.67734607188, -77066.4455969865, -46890.74121603266, -85683.35600892974, -29810.61098702085, 0.0, 0.0, 0.0, 193.0, 0.0, 1.0, 1.0, 0.0, 0.0, 1.0, 1.0, 256.0, 1.0, 1.750526615071701E9, 0.0, 2025-06-21 19:23:35.071
124.0, -42157.04407179881, -37935.09011686923, -28107.1845420819, -69556.88530884807, -27202.698850953442, -27849.044245367557, -51309.614039613494, -98573.7634985165, -187500.02235174447, -187500.02235174447, -45196.054303175726, -43909.2643748837, -77042.05984378576, -46858.24177959464, -85667.03923547736, -29777.84332964937, 0.0, 0.0, 0.0, 193.0, 0.0, 1.0, 1.0, 0.0, 0.0, 1.0, 1.0, 256.0, 1.0, 1.750526615078664E9, 0.0, 2025-06-21 19:23:35.078
126.0, -42160.82151661176, -37944.36609081818, -28127.748146980783, -69570.0728380767, -27162.979801056365, -27929.890505062405, -51301.522708120676, -98583.84413526586, -187500.02235174447, -187500.02235174447, -45233.91815828302, -43950.70450910384, -77065.05978883026, -46908.22028019671, -85659.48434585147, -29829.252341896576, 0.0, 0.0, 0.0, 193.0, 0.0, 1.0, 1.0, 0.0, 0.0, 1.0, 1.0, 256.0, 1.0, 1.750526615086777E9, 0.0, 2025-06-21 19:23:35.086
128.0, -42131.38426916412, -37914.48180848143, -28096.567463465628, -69535.44998591543, -27217.316891827213, -27917.351176422977, -51275.795850252616, -98564.28635886745, -187500.02235174447, -187500.02235174447, -45197.84244273215, -43905.82220623758, -77046.75371012137, -46874.80442223602, -85691.08971251127, -29798.74221071508, 0.0, 0.0, 0.0, 193.0, 0.0, 1.0, 1.0, 0.0, 0.0, 1.0, 1.0, 256.0, 1.0, 1.75052661509578E9, 0.0, 2025-06-21 19:23:35.095
130.0, -42163.593132924216, -37936.252407580905, -28117.064013131145, -69563.59083218465, -27213.673557481, -27884.628222540407, -51313.36913268198, -98595.28822842697, -187500.02235174447, -187500.02235174447, -45206.64903004754, -43912.95241271883, -77038.97530305092, -46897.156166691326, -85658.47851735097, -29818.411745835754, 0.0, 0.0, 0.0, 193.0, 0.0, 1.0, 1.0, 0.0, 0.0, 1.0, 1.0, 256.0, 1.0, 1.750526615102806E9, 0.0, 2025-06-21 19:23:35.102
132.0, -42141.24138846891, -37919.48859923943, -28111.073745617123, -69545.6200296426, -27198.519074740303, -27914.020766499136, -51298.48287087475, -98576.08807993986, -187500.02235174447, -187500.02235174447, -45209.93473648247, -43917.37805812098, -77049.50297468937, -46898.78784403656, -85681.54551762885, -29822.055080181966, 0.0, 0.0, 0.0, 193.0, 0.0, 1.0, 1.0, 0.0, 0.0, 1.0, 1.0, 256.0, 1.0, 1.750526615110825E9, 0.0, 2025-06-21 19:23:35.110
134.0, -42153.95953106398, -37937.74997445941, -28110.783172939206, -69551.99027681236, -27215.10406912614, -27919.318129935044, -51306.93183027886, -98581.49720209805, -187500.02235174447, -187500.02235174447, -45200.524652066786, -43904.79402599264, -77044.65264614257, -46883.029864195574, -85691.53674740037, -29802.542007272485, 0.0, 0.0, 0.0, 193.0, 0.0, 1.0, 1.0, 0.0, 0.0, 1.0, 1.0, 256.0, 1.0, 1.750526615118823E9, 0.0, 2025-06-21 19:23:35.118
136.0, -42142.71660360296, -37916.56052071578, -28099.65200420046, -69541.44025342945, -27207.43742077797, -27884.650574284864, -51314.17379548238, -98584.80526027743, -187500.02235174447, -187500.02235174447, -45209.51005333782, -43920.46259885581, -77041.45634668546, -46899.79367253705, -85653.20350565953, -29820.0881266699, 0.0, 0.0, 0.0, 193.0, 0.0, 1.0, 1.0, 0.0, 0.0, 1.0, 1.0, 256.0, 1.0, 1.750526615127928E9, 0.0, 2025-06-21 19:23:35.127
138.0, -42121.48244637042, -37899.34967748519, -28084.385762737485, -69522.39656715353, -27209.873760923598, -27897.771048280127, -51288.223420169765, -98565.87333272379, -187500.02235174447, -187500.02235174447, -45187.448881560435, -43888.477252540266, -77031.64393086957, -46858.39824180582, -85682.976029274, -29780.36907677282, 0.0, 0.0, 0.0, 193.0, 0.0, 1.0, 1.0, 0.0, 0.0, 1.0, 1.0, 256.0, 1.0, 1.750526615134025E9, 0.0, 2025-06-21 19:23:35.134
140.0, -42162.49789744591, -37944.34373907372, -28112.2360363288, -69556.59473617014, -27192.215882803906, -27907.874036773926, -51319.29234496264, -98597.79162380596, -187500.02235174447, -187500.02235174447, -45189.88522170606, -43898.468482311786, -77023.82082031023, -46872.189268134745, -85644.6651392776, -29789.600347232863, 0.0, 0.0, 0.0, 193.0, 0.0, 1.0, 1.0, 0.0, 0.0, 1.0, 1.0, 256.0, 1.0, 1.750526615142983E9, 0.0, 2025-06-21 19:23:35.142
142.0, -42131.920711031045, -37915.17471255955, -28101.12721933451, -69533.79595682574, -27207.19155158896, -27925.643673615894, -51295.86771677348, -98575.12695492827, -187500.02235174447, -187500.02235174447, -45207.5207480813, -43911.45484584032, -77043.69152113098, -46882.00168395063, -85672.42600589109, -29800.61975724933, 0.0, 0.0, 0.0, 193.0, 0.0, 1.0, 1.0, 0.0, 0.0, 1.0, 1.0, 256.0, 1.0, 1.750526615150994E9, 0.0, 2025-06-21 19:23:35.150
144.0, -42154.38421420863, -37928.004613876896, -28100.255501300755, -69536.6122766271, -27213.606502247632, -27896.60875756845, -51311.58099312556, -98585.47581261108, -187500.02235174447, -187500.02235174447, -45191.27102986229, -43897.84263346704, -77035.22020998242, -46859.13584937285, -85674.03533149188, -29776.636335448784, 0.0, 0.0, 0.0, 193.0, 0.0, 1.0, 1.0, 0.0, 0.0, 1.0, 1.0, 256.0, 1.0, 1.75052661515903E9, 0.0, 2025-06-21 19:23:35.159
146.0, -42145.24235072641, -37919.24273005041, -28106.201065325866, -69537.97573303888, -27181.263528020805, -27910.533894364107, -51308.54115587964, -98580.20080091963, -187500.02235174447, -187500.02235174447, -45206.98430621437, -43912.34891561853, -77039.06471002873, -46885.130928174374, -85642.63113053217, -29802.318489827932, 0.0, 0.0, 0.0, 193.0, 0.0, 1.0, 1.0, 0.0, 0.0, 1.0, 1.0, 256.0, 1.0, 1.750526615167026E9, 0.0, 2025-06-21 19:23:35.167
148.0, -42148.79627809481, -37924.87536965315, -28113.487734018297, -69540.32266620669, -27231.28673211178, -27943.72623488024, -51305.03193200016, -98581.83247826487, -187500.02235174447, -187500.02235174447, -45197.88714622106, -43891.91942118638, -77042.81980309723, -46857.6606342388, -85686.06057000883, -29776.54692847096, 0.0, 0.0, 0.0, 193.0, 0.0, 1.0, 1.0, 0.0, 0.0, 1.0, 1.0, 256.0, 1.0, 1.750526615175088E9, 0.0, 2025-06-21 19:23:35.175
150.0, -42174.03139758485, -37947.74120423093, -28128.977492925824, -69570.22930028789, -27214.277054581293, -27869.294925844068, -51326.82488284408, -98601.07733024089, -187500.02235174447, -187500.02235174447, -45224.26220467832, -43927.905729759426, -77060.50003296138, -46895.390378879354, -85666.86042152172, -29814.410783578252, 0.0, 0.0, 0.0, 193.0, 0.0, 1.0, 1.0, 0.0, 0.0, 1.0, 1.0, 256.0, 1.0, 1.750526615183111E9, 0.0, 2025-06-21 19:23:35.183
152.0, -42136.86044655567, -37909.0950380677, -28124.440088801395, -69550.67152388948, -27222.122516885105, -27912.05381298707, -51305.79189131164, -98579.86552475281, -187500.02235174447, -187500.02235174447, -45227.48085587989, -43933.60542459553, -77067.89846037609, -46891.836451510964, -85683.44541590755, -29813.203789377665, 0.0, 0.0, 0.0, 193.0, 0.0, 1.0, 1.0, 0.0, 0.0, 1.0, 1.0, 256.0, 1.0, 1.750526615190132E9, 0.0, 2025-06-21 19:23:35.190
154.0, -42151.500839173896, -37914.7500294149, -28120.32736782162, -69556.55003268123, -27239.132194415593, -27912.09851647598, -51318.085350762056, -98593.07540572589, -187500.02235174447, -187500.02235174447, -45214.80741677373, -43913.10887493001, -77058.0860445602, -46873.61977977989, -85692.65433462315, -29791.74611470057, 0.0, 0.0, 0.0, 193.0, 0.0, 1.0, 1.0, 0.0, 0.0, 1.0, 1.0, 256.0, 1.0, 1.75052661519915E9, 0.0, 2025-06-21 19:23:35.199
156.0, -42167.05765331479, -37940.47688728296, -28108.726812449317, -69546.93878256546, -27206.878627166585, -27899.84976051447, -51319.91819380739, -98589.76734754651, -187500.02235174447, -187500.02235174447, -45231.37005941511, -43936.08646823007, -77061.28234401731, -46900.84420452645, -85656.51156383891, -29820.021071436535, 0.0, 0.0, 0.0, 193.0, 0.0, 1.0, 1.0, 0.0, 0.0, 1.0, 1.0, 256.0, 1.0, 1.750526615207168E9, 0.0, 2025-06-21 19:23:35.207
158.0, -42105.54565257378, -37903.35063974269, -28070.907660830937, -69508.44907861341, -27188.170217057494, -27900.967347737238, -51280.95910322179, -98560.77713498798, -187500.02235174447, -187500.02235174447, -45182.4644425469, -43888.34314207353, -77030.0346052688, -46848.31760505648, -85670.88373552368, -29771.696599924162, 0.0, 0.0, 0.0, 193.0, 0.0, 1.0, 1.0, 0.0, 0.0, 1.0, 1.0, 256.0, 1.0, 1.750526615215226E9, 0.0, 2025-06-21 19:23:35.215
160.0, -42137.75451633388, -37924.428334764045, -28092.834722141593, -69538.4674714169, -27179.564795442202, -27897.592234324486, -51306.39538841193, -98583.15123118773, -187500.02235174447, -187500.02235174447, -45168.60636098461, -43880.296514069625, -77006.49821835736, -46858.979387161664, -85624.83914194575, -29779.98909711708, 0.0, 0.0, 0.0, 193.0, 0.0, 1.0, 1.0, 0.0, 0.0, 1.0, 1.0, 256.0, 1.0, 1.750526615223208E9, 0.0, 2025-06-21 19:23:35.223
162.0, -42132.92653953154, -37929.61393947768, -28099.808466411647, -69540.79205284025, -27184.839807133652, -27937.378339454932, -51299.19812669732, -98576.80333576242, -187500.02235174447, -187500.02235174447, -45198.51299506581, -43906.7609795047, -77039.46704142893, -46883.25338164013, -85669.22970643398, -29806.297100340977, 0.0, 0.0, 0.0, 193.0, 0.0, 1.0, 1.0, 0.0, 0.0, 1.0, 1.0, 256.0, 1.0, 1.750526615231186E9, 0.0, 2025-06-21 19:23:35.231
164.0, -42146.42699318254, -37937.05707038129, -28100.166094322933, -69551.7667593678, -27191.746496170344, -27922.179153225323, -51306.194222711834, -98585.16288818872, -187500.02235174447, -187500.02235174447, -45183.64908500303, -43908.4150085944, -77038.17064025052, -46857.727689472165, -85666.41338663262, -29782.425437262707, 0.0, 0.0, 0.0, 193.0, 0.0, 1.0, 1.0, 0.0, 0.0, 1.0, 1.0, 256.0, 1.0, 1.750526615239264E9, 0.0, 2025-06-21 19:23:35.239
166.0, -42147.25400772739, -37935.02306163586, -28108.458591515853, -69557.80173037073, -27185.71152516741, -27889.47855108721, -51314.0620367601, -98586.19106843366, -187500.02235174447, -187500.02235174447, -45210.024143460294, -43941.69675608835, -77054.57682068073, -46894.205736423224, -85643.50284856593, -29817.025937679522, 0.0, 0.0, 0.0, 193.0, 0.0, 1.0, 1.0, 0.0, 0.0, 1.0, 1.0, 256.0, 1.0, 1.750526615246322E9, 0.0, 2025-06-21 19:23:35.246
168.0, -42112.76526603285, -37906.524587455344, -28098.84734140007, -69525.83873579964, -27181.50939720981, -27937.221877243745, -51276.95814096429, -98561.04535592144, -187500.02235174447, -187500.02235174447, -45195.27199211979, -43909.085560928055, -77047.40191071057, -46860.34284357344, -85685.0770932528, -29782.380733773796, 0.0, 0.0, 0.0, 193.0, 0.0, 1.0, 1.0, 0.0, 0.0, 1.0, 1.0, 256.0, 1.0, 1.750526615255312E9, 0.0, 2025-06-21 19:23:35.255
170.0, -42164.12957479114, -37952.79269847783, -28124.41773705694, -69573.13502706707, -27198.56377822921, -27891.646670299375, -51345.421534230896, -98601.94904827465, -187500.02235174447, -187500.02235174447, -45195.629620031075, -43915.43345635336, -77037.5894948947, -46881.12996591687, -85653.963464971, -29798.51869327053, 0.0, 0.0, 0.0, 193.0, 0.0, 1.0, 1.0, 0.0, 0.0, 1.0, 1.0, 256.0, 1.0, 1.750526615263321E9, 0.0, 2025-06-21 19:23:35.263
172.0, -42139.76617333486, -37927.24465456542, -28108.302129304666, -69547.7657971103, -27216.981615660385, -27944.307380236078, -51305.90365003391, -98587.4204143787, -187500.02235174447, -187500.02235174447, -45225.960937256925, -43947.88818930247, -77073.37463776763, -46899.23487892567, -85682.23842170698, -29821.9880249486, 0.0, 0.0, 0.0, 193.0, 0.0, 1.0, 1.0, 0.0, 0.0, 1.0, 1.0, 256.0, 1.0, 1.750526615270394E9, 0.0, 2025-06-21 19:23:35.270
174.0, -42137.598054122696, -37923.802485919296, -28102.244806557275, -69542.60254414112, -27196.082734594675, -27886.99750745267, -51310.28459194715, -98590.50495511353, -187500.02235174447, -187500.02235174447, -45197.55187005423, -43908.2138428943, -77047.51366943284, -46873.575076290974, -85682.93132578509, -29794.294213568475, 0.0, 0.0, 0.0, 193.0, 0.0, 1.0, 1.0, 0.0, 0.0, 1.0, 1.0, 256.0, 1.0, 1.750526615278364E9, 0.0, 2025-06-21 19:23:35.278
176.0, -42130.75842031937, -37920.60618646219, -28101.149571078968, -69540.54618365124, -27149.501699149812, -27896.631109312908, -51300.42747264236, -98578.1667921742, -187500.02235174447, -187500.02235174447, -45195.47315781989, -43905.30811611511, -77028.89466630157, -46880.88409672786, -85630.82940945977, -29800.32918457141, 0.0, 0.0, 0.0, 193.0, 0.0, 1.0, 1.0, 0.0, 0.0, 1.0, 1.0, 256.0, 1.0, 1.750526615287444E9, 0.0, 2025-06-21 19:23:35.287
178.0, -42124.70109757198, -37915.1523608151, -28105.306995547653, -69544.8153668422, -27216.221656348906, -27944.016807558157, -51307.98236226826, -98590.32614115789, -187500.02235174447, -187500.02235174447, -45202.133977667574, -43914.964069719805, -77053.48158520242, -46876.34669260344, -85697.12468351421, -29799.79274270448, 0.0, 0.0, 0.0, 193.0, 0.0, 1.0, 1.0, 0.0, 0.0, 1.0, 1.0, 256.0, 1.0, 1.750526615294398E9, 0.0, 2025-06-21 19:23:35.294
180.0, -42151.81376359627, -37936.16300060308, -28110.023213627723, -69565.84835837464, -27198.116743340106, -27890.394972609876, -51307.28945819014, -98594.32710341539, -187500.02235174447, -187500.02235174447, -45197.95420145443, -43920.775523278186, -77042.75274786387, -46896.239745168656, -85661.22778191898, -29818.65761502476, 0.0, 0.0, 0.0, 193.0, 0.0, 1.0, 1.0, 0.0, 0.0, 1.0, 1.0, 256.0, 1.0, 1.750526615302456E9, 0.0, 2025-06-21 19:23:35.302
182.0, -42124.946966760996, -37917.38753526063, -28103.94353913588, -69550.60446865612, -27197.28972879526, -27958.43368273183, -51287.86579225848, -98574.63521655026, -187500.02235174447, -187500.02235174447, -45206.91725098101, -43922.94364249035, -77054.64387591409, -46892.57405907799, -85674.32590416979, -29818.992891191592, 0.0, 0.0, 0.0, 193.0, 0.0, 1.0, 1.0, 0.0, 0.0, 1.0, 1.0, 256.0, 1.0, 1.75052661531047E9, 0.0, 2025-06-21 19:23:35.310
184.0, -42139.56500763476, -37933.03375637934, -28108.503295004764, -69553.68900939096, -27170.959373826907, -27916.99354851169, -51286.85996375799, -98581.34073988686, -187500.02235174447, -187500.02235174447, -45190.667532761996, -43910.02433419518, -77045.07732928722, -46868.99296867764, -85676.09169198177, -29795.2329868356, 0.0, 0.0, 0.0, 193.0, 0.0, 1.0, 1.0, 0.0, 0.0, 1.0, 1.0, 256.0, 1.0, 1.750526615319506E9, 0.0, 2025-06-21 19:23:35.319
186.0, -42135.58639712172, -37921.299090540306, -28098.84734140007, -69544.5694976532, -27188.32667926868, -27894.060658700546, -51297.07471097407, -98579.06086195241, -187500.02235174447, -187500.02235174447, -45212.840463261666, -43933.2701484287, -77050.37469272313, -46897.8714225139, -85654.90223823814, -29817.51767605754, 0.0, 0.0, 0.0, 193.0, 0.0, 1.0, 1.0, 0.0, 0.0, 1.0, 1.0, 256.0, 1.0, 1.750526615326448E9, 0.0, 2025-06-21 19:23:35.326
188.0, -42111.91589974355, -37906.479883966436, -28079.155454534943, -69517.8591630291, -27166.28785923575, -27903.00135648267, -51294.86188827299, -98566.34271935734, -187500.02235174447, -187500.02235174447, -45178.95521866742, -43895.316886343586, -77033.32031170372, -46840.56154973049, -85663.6194185757, -29765.147538798756, 0.0, 0.0, 0.0, 193.0, 0.0, 1.0, 1.0, 0.0, 0.0, 1.0, 1.0, 256.0, 1.0, 1.750526615334547E9, 0.0, 2025-06-21 19:23:35.334
190.0, -42144.080060014734, -37927.445820265515, -28093.57232970862, -69549.15160526652, -27212.064231880217, -27868.914946188324, -51309.81520531359, -98594.84119353787, -187500.02235174447, -187500.02235174447, -45195.204936886425, -43919.50147384423, -77038.30475071726, -46873.06098616851, -85645.04511893334, -29794.070696123923, 0.0, 0.0, 0.0, 193.0, 0.0, 1.0, 1.0, 0.0, 0.0, 1.0, 1.0, 256.0, 1.0, 1.750526615343593E9, 0.0, 2025-06-21 19:23:35.343
192.0, -42108.09375144169, -37902.970660086954, -28078.46255045683, -69515.1098984611, -27178.558966941713, -27944.463842447265, -51277.472231086766, -98567.23678913555, -187500.02235174447, -187500.02235174447, -45179.98339891236, -43898.937868945344, -77027.26298895634, -46853.14558185883, -85642.45231657653, -29775.07171333691, 0.0, 0.0, 0.0, 193.0, 0.0, 1.0, 1.0, 0.0, 0.0, 1.0, 1.0, 256.0, 1.0, 1.750526615351628E9, 0.0, 2025-06-21 19:23:35.351
194.0, -42119.33667890271, -37911.3972677466, -28080.80948362464, -69527.22454395588, -27186.493836223348, -27916.345347922488, -51297.49939411872, -98584.06765271041, -187500.02235174447, -187500.02235174447, -45177.27883783327, -43896.12154914398, -77032.60505588115, -46849.74811670162, -85665.80988953232, -29771.89776562426, 0.0, 0.0, 0.0, 193.0, 0.0, 1.0, 1.0, 0.0, 0.0, 1.0, 1.0, 256.0, 1.0, 1.750526615358633E9, 0.0, 2025-06-21 19:23:35.358
196.0, -42141.219036724455, -37921.94729112951, -28109.352661294066, -69548.39164595505, -27212.779487702788, -27890.372620865423, -51310.88808904745, -98593.16481270372, -187500.02235174447, -187500.02235174447, -45199.36236135511, -43917.78038952117, -77036.96364604995, -46882.15814616182, -85641.20061888703, -29801.536178771996, 0.0, 0.0, 0.0, 193.0, 0.0, 1.0, 1.0, 0.0, 0.0, 1.0, 1.0, 256.0, 1.0, 1.750526615366664E9, 0.0, 2025-06-21 19:23:35.366
198.0, -42110.57479507623, -37900.98135483043, -28080.16128303543, -69522.53067762026, -27179.453036719926, -27921.128621235923, -51300.13689996444, -98581.1172224423, -187500.02235174447, -187500.02235174447, -45191.89687870704, -43905.55398530412, -77042.19395425248, -46858.24177959464, -85684.51829964141, -29781.50901574004, 0.0, 0.0, 0.0, 193.0, 0.0, 1.0, 1.0, 0.0, 0.0, 1.0, 1.0, 256.0, 1.0, 1.750526615375648E9, 0.0, 2025-06-21 19:23:35.375
200.0, -42128.32208017374, -37919.35448877269, -28095.65104194296, -69544.52479416427, -27171.47346394938, -27907.695222818285, -51296.404158640406, -98592.29309466996, -187500.02235174447, -187500.02235174447, -45176.474175032876, -43897.73087474476, -77016.28828242878, -46867.7636227326, -85639.63599677515, -29789.37682978831, 0.0, 0.0, 0.0, 193.0, 0.0, 1.0, 1.0, 0.0, 0.0, 1.0, 1.0, 256.0, 1.0, 1.750526615382705E9, 0.0, 2025-06-21 19:23:35.382
202.0, -42102.639925794596, -37894.07466579374, -28075.780341122194, -69521.41309039749, -27179.073057064183, -27944.1956215138, -51288.96102773679, -98575.84221075085, -187500.02235174447, -187500.02235174447, -45192.075692662685, -43908.30324987212, -77034.19202973747, -46875.94436120324, -85659.73021504047, -29800.84327469388, 0.0, 0.0, 0.0, 193.0, 0.0, 1.0, 1.0, 0.0, 0.0, 1.0, 1.0, 256.0, 1.0, 1.750526615390746E9, 0.0, 2025-06-21 19:23:35.390
204.0, -42118.37555389113, -37913.185407303026, -28085.190425537876, -69541.57436389619, -27183.677516421976, -27893.90419648936, -51297.70055981881, -98587.12984170078, -187500.02235174447, -187500.02235174447, -45164.62775047156, -43891.83001420856, -77017.85290454065, -46848.89875041232, -85654.34344462675, -29775.831672648394, 0.0, 0.0, 0.0, 193.0, 0.0, 1.0, 1.0, 0.0, 0.0, 1.0, 1.0, 256.0, 1.0, 1.750526615398878E9, 0.0, 2025-06-21 19:23:35.398
206.0, -42133.328870931735, -37918.30395678329, -28101.19427456788, -69548.72692212187, -27187.410257746014, -27862.343533318464, -51307.7588448237, -98586.12401320029, -187500.02235174447, -187500.02235174447, -45204.05622769073, -43933.493665873255, -77043.11037577516, -46896.79853878004, -85647.57086605679, -29821.540990059497, 0.0, 0.0, 0.0, 193.0, 0.0, 1.0, 1.0, 0.0, 0.0, 1.0, 1.0, 256.0, 1.0, 1.750526615406784E9, 0.0, 2025-06-21 19:23:35.406
208.0, -42104.69628628448, -37892.66650589305, -28074.21571901032, -69514.12642170506, -27185.018621089297, -27961.741740911217, -51285.63061781295, -98569.38255660326, -187500.02235174447, -187500.02235174447, -45171.40032904152, -43889.080749640554, -77025.94423603348, -46844.65191896581, -85668.76031980042, -29770.668419679216, 0.0, 0.0, 0.0, 193.0, 0.0, 1.0, 1.0, 0.0, 0.0, 1.0, 1.0, 256.0, 1.0, 1.7505266154148E9, 0.0, 2025-06-21 19:23:35.414
210.0, -42146.58345539373, -37927.66933771007, -28104.85996065855, -69555.49950069183, -27167.696019136434, -27887.62335629742, -51323.740342109246, -98607.08994949936, -187500.02235174447, -187500.02235174447, -45195.24964037534, -43915.96989822029, -77037.27657047231, -46877.24076238165, -85646.09565092274, -29801.156199116256, 0.0, 0.0, 0.0, 193.0, 0.0, 1.0, 1.0, 0.0, 0.0, 1.0, 1.0, 256.0, 1.0, 1.750526615422791E9, 0.0, 2025-06-21 19:23:35.422
212.0, -42108.227861908425, -37898.902642596084, -28089.66077442894, -69528.47624164537, -27187.27614727928, -27925.218990471243, -51294.83953652853, -98580.42431836418, -187500.02235174447, -187500.02235174447, -45204.726780024386, -43921.73664828976, -77046.37373046562, -46875.49732631414, -85659.95373248502, -29799.435114793196, 0.0, 0.0, 0.0, 193.0, 0.0, 1.0, 1.0, 0.0, 0.0, 1.0, 1.0, 256.0, 1.0, 1.750526615431858E9, 0.0, 2025-06-21 19:23:35.431
214.0, -42121.81772253725, -37899.752008885385, -28101.462495501342, -69551.78911111226, -27204.39758353205, -27861.47181528471, -51317.794778084135, -98603.26780119751, -187500.02235174447, -187500.02235174447, -45178.84345994514, -43898.87081371198, -77029.52051514632, -46857.75004121662, -85670.14612795664, -29780.74905642856, 0.0, 0.0, 0.0, 193.0, 0.0, 1.0, 1.0, 0.0, 0.0, 1.0, 1.0, 256.0, 1.0, 1.750526615437811E9, 0.0, 2025-06-21 19:23:35.437
216.0, -42134.17823722104, -37930.53036100035, -28097.260367543742, -69547.16230001001, -27172.85927210561, -27902.80019078257, -51290.79387078212, -98580.55842883092, -187500.02235174447, -187500.02235174447, -45213.28749815077, -43941.316776432606, -77050.77702412332, -46902.05119872704, -85653.73994752645, -29823.642054038293, 0.0, 0.0, 0.0, 193.0, 0.0, 1.0, 1.0, 0.0, 0.0, 1.0, 1.0, 256.0, 1.0, 1.750526615446901E9, 0.0, 2025-06-21 19:23:35.446
218.0, -42113.70403929997, -37907.35160200019, -28086.285661016187, -69529.41501491249, -27173.75334188382, -27946.81077561507, -51278.41100435388, -98571.28245488196, -187500.02235174447, -187500.02235174447, -45182.687959991454, -43902.33533410256, -77036.94129430548, -46854.151410359314, -85673.02950299138, -29779.720876183615, 0.0, 0.0, 0.0, 193.0, 0.0, 1.0, 1.0, 0.0, 0.0, 1.0, 1.0, 256.0, 1.0, 1.750526615455923E9, 0.0, 2025-06-21 19:23:35.455
220.0, -42151.67965312954, -37939.538114015835, -28095.315765776133, -69550.4703581894, -27162.197490000428, -27882.4824550727, -51301.32154242058, -98587.66628356771, -187500.02235174447, -187500.02235174447, -45188.11943389409, -43908.12443591648, -77030.59339888017, -46872.23397162366, -85638.87603746368, -29796.551739758463, 0.0, 0.0, 0.0, 193.0, 0.0, 1.0, 1.0, 0.0, 0.0, 1.0, 1.0, 256.0, 1.0, 1.750526615462955E9, 0.0, 2025-06-21 19:23:35.462
222.0, -42137.75451633388, -37918.616881205664, -28092.11946631902, -69534.24299171484, -27184.459827477913, -27925.15193523788, -51300.114548219986, -98582.86065850982, -187500.02235174447, -187500.02235174447, -45200.21172764441, -43919.50147384423, -77048.67596014452, -46882.94045721775, -85661.5183545969, -29810.90155969877, 0.0, 0.0, 0.0, 193.0, 0.0, 1.0, 1.0, 0.0, 0.0, 1.0, 1.0, 256.0, 1.0, 1.75052661546995E9, 0.0, 2025-06-21 19:23:35.469
224.0, -42145.15294374859, -37930.575064489254, -28098.154437321955, -69544.65890463101, -27179.363629742104, -27890.171455165324, -51295.3089231621, -98584.24646666605, -187500.02235174447, -187500.02235174447, -45194.13205315257, -43908.43736033885, -77046.46313744344, -46862.5109627856, -85675.33173267028, -29788.818036176926, 0.0, 0.0, 0.0, 193.0, 0.0, 1.0, 1.0, 0.0, 0.0, 1.0, 1.0, 256.0, 1.0, 1.750526615479041E9, 0.0, 2025-06-21 19:23:35.479
226.0, -42152.32785371874, -37936.31946281427, -28107.877446160015, -69558.47228270439, -27167.874833092075, -27894.95472847876, -51310.99984776972, -98590.81787953591, -187500.02235174447, -187500.02235174447, -45201.32931486718, -43931.54906410564, -77046.59724791018, -46885.130928174374, -85637.95961594101, -29809.940434687192, 0.0, 0.0, 0.0, 193.0, 0.0, 1.0, 1.0, 0.0, 0.0, 1.0, 1.0, 256.0, 1.0, 1.750526615487098E9, 0.0, 2025-06-21 19:23:35.487
228.0, -42136.05578375528, -37920.248558550906, -28099.94257687838, -69534.7123783484, -27183.61046118861, -27938.741795866707, -51292.29143766063, -98577.54094332946, -187500.02235174447, -187500.02235174447, -45202.268088134304, -43916.282822642665, -77058.0860445602, -46861.6615964963, -85686.86523280921, -29787.789855931984, 0.0, 0.0, 0.0, 193.0, 0.0, 1.0, 1.0, 0.0, 0.0, 1.0, 1.0, 256.0, 1.0, 1.750526615494049E9, 0.0, 2025-06-21 19:23:35.494
230.0, -42161.04503405631, -37945.349567574216, -28106.581044981605, -69557.37704722608, -27195.70275493893, -27877.609774781442, -51307.22240295677, -98592.04722548094, -187500.02235174447, -187500.02235174447, -45204.302096879735, -43921.58018607857, -77047.06663454373, -46876.30198911452, -85649.7166335245, -29796.864664180837, 0.0, 0.0, 0.0, 193.0, 0.0, 1.0, 1.0, 0.0, 0.0, 1.0, 1.0, 256.0, 1.0, 1.750526615503098E9, 0.0, 2025-06-21 19:23:35.503
232.0, -42139.877932057134, -37922.26021555188, -28103.027117613212, -69543.87659357507, -27214.25470283684, -27907.538760607098, -51296.69473131833, -98582.65949280972, -187500.02235174447, -187500.02235174447, -45214.8744720071, -43937.047593241645, -77062.42228298454, -46888.32722763148, -85678.41627340512, -29809.828675964916, 0.0, 0.0, 0.0, 193.0, 0.0, 1.0, 1.0, 0.0, 0.0, 1.0, 1.0, 256.0, 1.0, 1.750526615511103E9, 0.0, 2025-06-21 19:23:35.511
234.0, -42146.15877224908, -37937.25823608139, -28091.158341307444, -69544.6142011421, -27174.468597706393, -27868.914946188324, -51302.48383313225, -98585.11818469981, -187500.02235174447, -187500.02235174447, -45189.03585541676, -43919.68028779987, -77048.47479444442, -46859.85110519542, -85675.80111930384, -29784.61590821933, 0.0, 0.0, 0.0, 193.0, 0.0, 1.0, 1.0, 0.0, 0.0, 1.0, 1.0, 256.0, 1.0, 1.750526615518188E9, 0.0, 2025-06-21 19:23:35.518
236.0, -42140.28026345733, -37931.759706945384, -28087.760876150238, -69535.27117195979, -27158.88943182104, -27924.459031159764, -51306.261277945196, -98586.86162076732, -187500.02235174447, -187500.02235174447, -45200.591707300155, -43925.64820356944, -77044.65264614257, -46882.38166360637, -85632.30462459382, -29807.772315475027, 0.0, 0.0, 0.0, 193.0, 0.0, 1.0, 1.0, 0.0, 0.0, 1.0, 1.0, 256.0, 1.0, 1.750526615526087E9, 0.0, 2025-06-21 19:23:35.526
238.0, -42140.1461529906, -37927.24465456542, -28091.426562240908, -69530.42084341298, -27163.985629556853, -27940.82050810105, -51303.37790291046, -98586.43693762267, -187500.02235174447, -187500.02235174447, -45189.14761413904, -43902.13416840246, -77047.02193105483, -46852.72089871418, -85674.54942161434, -29781.71018144014, 0.0, 0.0, 0.0, 193.0, 0.0, 1.0, 1.0, 0.0, 0.0, 1.0, 1.0, 256.0, 1.0, 1.750526615536203E9, 0.0, 2025-06-21 19:23:35.536
240.0, -42161.51442068988, -37945.93071293005, -28105.999899625767, -69554.13604428007, -27188.058458335217, -27868.42320781031, -51304.18256571086, -98591.33196965838, -187500.02235174447, -187500.02235174447, -45200.457596833425, -43915.47815984228, -77044.25031474237, -46880.70528277222, -85652.55530507032, -29806.162989874243, 0.0, 0.0, 0.0, 193.0, 0.0, 1.0, 1.0, 0.0, 0.0, 1.0, 1.0, 256.0, 1.0, 1.750526615543192E9, 0.0, 2025-06-21 19:23:35.543
242.0, -42122.75649580437, -37907.306898511284, -28083.536396448184, -69523.58120960966, -27190.98653685886, -27899.738001792193, -51280.5567718216, -98565.38159434576, -187500.02235174447, -187500.02235174447, -45195.89784096454, -43907.67740102737, -77040.96460830743, -46878.42540483778, -85663.75352904243, -29804.240739851088, 0.0, 0.0, 0.0, 193.0, 0.0, 1.0, 1.0, 0.0, 0.0, 1.0, 1.0, 256.0, 1.0, 1.750526615550239E9, 0.0, 2025-06-21 19:23:35.550
244.0, -42152.93135081904, -37938.08525062624, -28092.94648086387, -69545.32945696467, -27161.549289411225, -27882.683620772794, -51291.39736788242, -98584.20176317713, -187500.02235174447, -187500.02235174447, -45186.264239104305, -43906.62686903797, -77040.67403562952, -46862.28744534105, -85679.91384028363, -29787.65574546525, 0.0, 0.0, 0.0, 193.0, 0.0, 1.0, 1.0, 0.0, 0.0, 1.0, 1.0, 256.0, 1.0, 1.750526615558287E9, 0.0, 2025-06-21 19:23:35.558
246.0, -42140.01204252387, -37928.56340748828, -28090.018402340225, -69535.51704114879, -27154.128510252063, -27911.42796414232, -51293.8560597725, -98581.89953349823, -187500.02235174447, -187500.02235174447, -45198.44593983245, -43920.864930256, -77037.5894948947, -46880.861744983406, -85630.85176120422, -29805.403030562764, 0.0, 0.0, 0.0, 193.0, 0.0, 1.0, 1.0, 0.0, 0.0, 1.0, 1.0, 256.0, 1.0, 1.750526615567344E9, 0.0, 2025-06-21 19:23:35.567
248.0, -42122.77884754883, -37917.655756194086, -28067.756064862737, -69513.8134972827, -27185.4656559784, -27937.020711543646, -51274.27593162965, -98568.19791414714, -187500.02235174447, -187500.02235174447, -45172.696730219934, -43893.50639504271, -77029.56521863524, -46843.534331743045, -85667.95565700003, -29769.99786734556, 0.0, 0.0, 0.0, 193.0, 0.0, 1.0, 1.0, 0.0, 0.0, 1.0, 1.0, 256.0, 1.0, 1.750526615574388E9, 0.0, 2025-06-21 19:23:35.574
250.0, -42148.52805716134, -37938.21936109297, -28087.51500696123, -69538.66863711699, -27172.07696104967, -27869.51844328862, -51299.891030775434, -98589.67794056868, -187500.02235174447, -187500.02235174447, -45178.55288726722, -43906.60451729352, -77024.02198601031, -46859.247608095124, -85633.57867402777, -29783.632431463295, 0.0, 0.0, 0.0, 193.0, 0.0, 1.0, 1.0, 0.0, 0.0, 1.0, 1.0, 256.0, 1.0, 1.750526615582395E9, 0.0, 2025-06-21 19:23:35.582
252.0, -42119.202568435976, -37913.11835206966, -28074.394532965965, -69515.93691300595, -27174.490949450847, -27900.006222725657, -51288.96102773679, -98573.5176293275, -187500.02235174447, -187500.02235174447, -45192.545079296244, -43906.157482404415, -77035.71194836045, -46860.18638136225, -85648.75550851293, -29785.80055067546, 0.0, 0.0, 0.0, 193.0, 0.0, 1.0, 1.0, 0.0, 0.0, 1.0, 1.0, 256.0, 1.0, 1.750526615590421E9, 0.0, 2025-06-21 19:23:35.590
254.0, -42130.110219730166, -37924.69655569751, -28076.674410900407, -69527.33630267814, -27161.683399877955, -27914.33369092151, -51279.126260176454, -98572.020062449, -187500.02235174447, -187500.02235174447, -45166.23707607235, -43886.9573339173, -77020.423355153, -46831.084410081436, -85648.33082536828, -29760.341913740864, 0.0, 0.0, 0.0, 193.0, 0.0, 1.0, 1.0, 0.0, 0.0, 1.0, 1.0, 256.0, 1.0, 1.750526615599466E9, 0.0, 2025-06-21 19:23:35.599
0.0, -42146.76226934937, -37939.404003549105, -28096.589815210085, -69548.14577676605, -27181.50939720981, -27892.026649955114, -51301.41094939839, -98594.01417899302, -187500.02235174447, -187500.02235174447, -45200.167024155504, -43922.27309015669, -77038.86354432865, -46879.02890193807, -85631.85758970471, -29806.654728252262, 0.0, 0.0, 0.0, 193.0, 0.0, 1.0, 1.0, 0.0, 0.0, 1.0, 1.0, 256.0, 1.0, 1.750526615606491E9, 0.0, 2025-06-21 19:23:35.606
2.0, -42120.00723123637, -37919.35448877269, -28079.960117335337, -69526.10695673311, -27165.32673422417, -27945.983761070223, -51296.29239991813, -98577.80916426292, -187500.02235174447, -187500.02235174447, -45188.767634483294, -43907.67740102737, -77043.78092810881, -46855.04548013753, -85675.68936058157, -29786.627565220308, 0.0, 0.0, 0.0, 193.0, 0.0, 1.0, 1.0, 0.0, 0.0, 1.0, 1.0, 256.0, 1.0, 1.750526615614464E9, 0.0, 2025-06-21 19:23:35.614
4.0, -42166.20828702549, -37951.78686997734, -28098.735582677793, -69555.74536988084, -27158.08476902065, -27852.66522796932, -51311.82686231457, -98603.80424306444, -187500.02235174447, -187500.02235174447, -45195.830785731174, -43917.825093010084, -77039.60115189567, -46878.22423913768, -85647.07912767878, -29805.425382307218, 0.0, 0.0, 0.0, 193.0, 0.0, 1.0, 1.0, 0.0, 0.0, 1.0, 1.0, 256.0, 1.0, 1.750526615622503E9, 0.0, 2025-06-21 19:23:35.622
6.0, -42113.48052185542, -37897.248613506395, -28088.677297672904, -69528.76681432329, -27185.577414700678, -27928.05766201707, -51273.739489762724, -98577.58564681836, -187500.02235174447, -187500.02235174447, -45215.88030050758, -43921.75900003422, -77051.87225960163, -46875.65378852532, -85658.05383420632, -29803.65959449525, 0.0, 0.0, 0.0, 193.0, 0.0, 1.0, 1.0, 0.0, 0.0, 1.0, 1.0, 256.0, 1.0, 1.750526615630513E9, 0.0, 2025-06-21 19:23:35.630
8.0, -42145.3988129376, -37941.23684659444, -28081.36827723602, -69535.60644812661, -27199.882531152074, -27910.19861819728, -51286.59174282453, -98585.47581261108, -187500.02235174447, -187500.02235174447, -45170.886238919054, -43889.14780487392, -77026.0783465002, -46844.83073292145, -85662.72534879748, -29772.32244876891, 0.0, 0.0, 0.0, 193.0, 0.0, 1.0, 1.0, 0.0, 0.0, 1.0, 1.0, 256.0, 1.0, 1.750526615638578E9, 0.0, 2025-06-21 19:23:35.638
10.0, -42155.72531887595, -37943.31555882878, -28084.341059248574, -69536.2099452269, -27188.304327524227, -27921.977987525224, -51307.22240295677, -98592.00252199204, -187500.02235174447, -187500.02235174447, -45204.011524201815, -43927.25752917022, -77041.6351606411, -46882.78399500656, -85637.17730488507, -29809.158123631256, 0.0, 0.0, 0.0, 193.0, 0.0, 1.0, 1.0, 0.0, 0.0, 1.0, 1.0, 256.0, 1.0, 1.750526615646634E9, 0.0, 2025-06-21 19:23:35.646
12.0, -42129.30555692978, -37922.77430567436, -28075.869748100013, -69521.92718051997, -27172.121664538583, -27890.86435924344, -51277.62869329795, -98567.57206530239, -187500.02235174447, -187500.02235174447, -45181.4139105575, -43894.55692703211, -77033.20855298145, -46838.25932005159, -85664.60289533173, -29766.89097486627, 0.0, 0.0, 0.0, 193.0, 0.0, 1.0, 1.0, 0.0, 0.0, 1.0, 1.0, 256.0, 1.0, 1.750526615655619E9, 0.0, 2025-06-21 19:23:35.655
14.0, -42163.99546432441, -37960.95108520402, -28103.340042035587, -69557.04177105926, -27179.922423353484, -27893.2336441557, -51313.23502221525, -98601.79258606346, -187500.02235174447, -187500.02235174447, -45203.29626837924, -43929.40329663793, -77048.16187002204, -46872.70335825722, -85646.98972070095, -29799.859797937846, 0.0, 0.0, 0.0, 193.0, 0.0, 1.0, 1.0, 0.0, 0.0, 1.0, 1.0, 256.0, 1.0, 1.75052661566164E9, 0.0, 2025-06-21 19:23:35.661
16.0, -42121.66126032606, -37916.13583757113, -28067.241974740267, -69510.97482573686, -27167.80777785871, -27930.873981818437, -51282.546077078114, -98567.25914088, -187500.02235174447, -187500.02235174447, -45204.10093117964, -43922.295441901144, -77050.0841200452, -46873.306855357514, -85659.32788364028, -29801.46912353863, 0.0, 0.0, 0.0, 193.0, 0.0, 1.0, 1.0, 0.0, 0.0, 1.0, 1.0, 256.0, 1.0, 1.750526615670695E9, 0.0, 2025-06-21 19:23:35.670
18.0, -42160.374481722654, -37958.58180029176, -28096.768629165726, -69547.25170698782, -27204.419935276503, -27925.263693960154, -51315.984286783256, -98601.9714000191, -187500.02235174447, -187500.02235174447, -45171.22151508588, -43892.522918286675, -77027.15123023406, -46837.34289852892, -85654.5669620713, -29763.739378898073, 0.0, 0.0, 0.0, 193.0, 0.0, 1.0, 1.0, 0.0, 0.0, 1.0, 1.0, 256.0, 1.0, 1.75052661567873E9, 0.0, 2025-06-21 19:23:35.678
20.0, -42153.33368221923, -37946.13187863015, -28087.51500696123, -69543.1166342636, -27177.888414608053, -27916.501810133675, -51312.139786736945, -98606.50880414354, -187500.02235174447, -187500.02235174447, -45206.71608528091, -43938.858084542524, -77048.29598048878, -46885.91323923031, -85635.76914498438, -29812.75675448856, 0.0, 0.0, 0.0, 193.0, 0.0, 1.0, 1.0, 0.0, 0.0, 1.0, 1.0, 256.0, 1.0, 1.750526615686761E9, 0.0, 2025-06-21 19:23:35.686
22.0, -42110.50773984286, -37905.85403512169, -28072.31582073162, -69520.18374445246, -27169.595917415136, -27935.72431036524, -51278.366300864975, -98569.3602048588, -187500.02235174447, -187500.02235174447, -45207.61015505912, -43924.44120936885, -77054.688579403, -46855.31370107099, -85674.66118033662, -29785.84525416437, 0.0, 0.0, 0.0, 193.0, 0.0, 1.0, 1.0, 0.0, 0.0, 1.0, 1.0, 256.0, 1.0, 1.750526615694791E9, 0.0, 2025-06-21 19:23:35.694
24.0, -42174.72430166296, -37980.486509857954, -28110.89493166148, -69567.50238746434, -27197.066211350706, -27928.66115911736, -51350.942415111356, -98644.21619703964, -187500.02235174447, -187500.02235174447, -45195.204936886425, -43915.14288367544, -77032.51564890334, -46864.164991875296, -85635.76914498438, -29791.12026585582, 0.0, 0.0, 0.0, 193.0, 0.0, 1.0, 1.0, 0.0, 0.0, 1.0, 1.0, 256.0, 1.0, 1.750526615702817E9, 0.0, 2025-06-21 19:23:35.702
26.0, -42103.60105080617, -37910.50319796839, -28080.943594091368, -69521.07781423067, -27182.58228094367, -27921.441545658297, -51296.538269107135, -98559.19016113164, -187500.02235174447, -187500.02235174447, -45225.15627445654, -43933.40425889543, -77060.76825389484, -46893.19990792274, -85674.90704952563, -29823.262074382554, 0.0, 0.0, 0.0, 193.0, 0.0, 1.0, 1.0, 0.0, 0.0, 1.0, 1.0, 256.0, 1.0, 1.75052661571086E9, 0.0, 2025-06-21 19:23:35.710
28.0, -42144.25887397038, -37945.99776816342, -28087.693820916873, -69538.80274758372, -27193.825208404687, -27897.346365135476, -51252.25946334118, -98566.05214667943, -187500.02235174447, -187500.02235174447, -45187.06890190469, -43901.77654049117, -77035.51078266035, -46838.147561329315, -85657.76326152841, -29765.393407987765, 0.0, 0.0, 0.0, 193.0, 0.0, 1.0, 1.0, 0.0, 0.0, 1.0, 1.0, 256.0, 1.0, 1.750526615717884E9, 0.0, 2025-06-21 19:23:35.717
30.0, -42166.20828702549, -37952.8597537112, -28098.668527444428, -69548.63751514406, -27168.79125461474, -27917.61939735644, -51296.51591736268, -98591.46608012512, -187500.02235174447, -187500.02235174447, -45215.545024340754, -43930.38677339396, -77039.2882274733, -46881.73346301717, -85633.7127844945, -29810.499228298573, 0.0, 0.0, 0.0, 193.0, 0.0, 1.0, 1.0, 0.0, 0.0, 1.0, 1.0, 256.0, 1.0, 1.750526615726957E9, 0.0, 2025-06-21 19:23:35.726
32.0, -42141.5990163802, -37919.30978528378, -28077.56848067862, -69524.89996253252, -27171.65227790502, -27944.10621453598, -51286.85996375799, -98573.33881537186, -187500.02235174447, -187500.02235174447, -45198.13301541007, -43913.6676685414, -77056.36496023714, -46866.19900062073, -85685.23355546399, -29798.965728159637, 0.0, 0.0, 0.0, 193.0, 0.0, 1.0, 1.0, 0.0, 0.0, 1.0, 1.0, 256.0, 1.0, 1.750526615735965E9, 0.0, 2025-06-21 19:23:35.735
34.0, -42161.492068945416, -37949.886971698645, -28095.1816553094, -69547.1175965211, -27179.073057064183, -27867.23856535418, -51300.20395519781, -98588.98503649057, -187500.02235174447, -187500.02235174447, -45165.18654408295, -43910.65018303993, -77029.8334395687, -46866.243704109635, -85638.07137466328, -29795.121228113323, 0.0, 0.0, 0.0, 193.0, 0.0, 1.0, 1.0, 0.0, 0.0, 1.0, 1.0, 256.0, 1.0, 1.750526615742967E9, 0.0, 2025-06-21 19:23:35.742
36.0, -42113.614632322155, -37919.890930639616, -28087.55971045014, -69533.7065498479, -27188.10316182413, -27939.63586564492, -51294.01252198369, -98584.62644632178, -187500.02235174447, -187500.02235174447, -45210.314716138215, -43932.577244350585, -77050.2852857453, -46877.576038548475, -85660.84780226325, -29805.291271840488, 0.0, 0.0, 0.0, 193.0, 0.0, 1.0, 1.0, 0.0, 0.0, 1.0, 1.0, 256.0, 1.0, 1.750526615749949E9, 0.0, 2025-06-21 19:23:35.749
38.0, -42155.01006305338, -37938.66639598208, -28087.403248238952, -69545.64238138705, -27184.66099317801, -27902.37550763792, -51302.88616453244, -98592.85188828134, -187500.02235174447, -187500.02235174447, -45174.171945353984, -43908.14678766093, -77035.42137568252, -46849.949282401714, -85667.24040117746, -29778.111550582835, 0.0, 0.0, 0.0, 193.0, 0.0, 1.0, 1.0, 0.0, 0.0, 1.0, 1.0, 256.0, 1.0, 1.750526615759011E9, 0.0, 2025-06-21 19:23:35.759
40.0, -42178.52409822036, -37975.63618131116, -28112.83953342909, -69567.9717740979, -27212.064231880217, -27942.832165102027, -51343.052249318636, -98624.05492354094, -187500.02235174447, -187500.02235174447, -45214.38273362908, -43947.23998871326, -77057.92958234902, -46901.31359116001, -85653.85170624874, -29827.95594071817, 0.0, 0.0, 0.0, 193.0, 0.0, 1.0, 1.0, 0.0, 0.0, 1.0, 1.0, 256.0, 1.0, 1.750526615767015E9, 0.0, 2025-06-21 19:23:35.767
42.0, -42125.684574328014, -37937.79467794832, -28097.305071032653, -69542.82606158567, -27204.419935276503, -27936.10429002098, -51321.706333363814, -98607.4252256662, -187500.02235174447, -187500.02235174447, -45219.03189647578, -43921.535482589665, -77063.67398067404, -46878.67127402679, -85705.12660802921, -29807.459391052653, 0.0, 0.0, 0.0, 193.0, 0.0, 1.0, 1.0, 0.0, 0.0, 1.0, 1.0, 256.0, 1.0, 1.750526615774085E9, 0.0, 2025-06-21 19:23:35.774
44.0, -42182.83798490024, -37965.73435851745, -28100.65783270095, -69562.74146589535, -27183.029315832773, -27887.57865280851, -51332.94926082483, -98615.60596413685, -187500.02235174447, -187500.02235174447, -45190.89105020655, -43935.25945368522, -77047.55837292176, -46886.7179020307, -85662.88181100867, -29815.081335911913, 0.0, 0.0, 0.0, 193.0, 0.0, 1.0, 1.0, 0.0, 0.0, 1.0, 1.0, 256.0, 1.0, 1.750526615783114E9, 0.0, 2025-06-21 19:23:35.783
46.0, -42168.53286844884, -37958.537096802844, -28101.55190247916, -69543.07193077469, -27191.43357174797, -27940.61934240095, -51309.882260546954, -98597.43399589468, -187500.02235174447, -187500.02235174447, -45194.512032808314, -43911.99128770725, -77044.96557056493, -46885.063872941006, -85669.29676166734, -29814.410783578252, 0.0, 0.0, 0.0, 193.0, 0.0, 1.0, 1.0, 0.0, 0.0, 1.0, 1.0, 256.0, 1.0, 1.750526615791118E9, 0.0, 2025-06-21 19:23:35.791
48.0, -42223.965194698, -38019.8255800993, -28097.66269894394, -69554.94070708046, -27205.492819010356, -27928.214124228256, -51299.93573426435, -98597.99278950605, -187500.02235174447, -187500.02235174447, -45196.30017236473, -43910.7172382733, -77051.91696309054, -46873.06098616851, -85690.55327064435, -29802.921986928224, 0.0, 0.0, 0.0, 193.0, 0.0, 1.0, 1.0, 0.0, 0.0, 1.0, 1.0, 256.0, 1.0, 1.750526615798167E9, 0.0, 2025-06-21 19:23:35.798
50.0, -42273.27314296641, -38066.60778124425, -28107.028079870714, -69563.99316358485, -27212.33245281368, -27893.166588922333, -51312.11743499249, -98597.27753368349, -187500.02235174447, -187500.02235174447, -45218.74132379786, -43949.02812826969, -77065.37271325264, -46904.68870457276, -85655.52808708287, -29830.48168784162, 0.0, 0.0, 0.0, 193.0, 0.0, 1.0, 1.0, 0.0, 0.0, 1.0, 1.0, 256.0, 1.0, 1.75052661580616E9, 0.0, 2025-06-21 19:23:35.806
52.0, -42311.82990215182, -38115.423991134645, -28103.004765868758, -69542.1108057631, -27201.53656024177, -27965.854461890995, -51293.81135628359, -98583.97824573258, -187500.02235174447, -187500.02235174447, -45216.1708731855, -43926.855197770026, -77071.2959255333, -46871.87634371237, -85691.98378228949, -29800.61975724933, 0.0, 0.0, 0.0, 193.0, 0.0, 1.0, 1.0, 0.0, 0.0, 1.0, 1.0, 256.0, 1.0, 1.750526615815202E9, 0.0, 2025-06-21 19:23:35.815
54.0, -42438.29607227994, -38241.398422884755, -28151.463347847864, -69597.76664945683, -27212.33245281368, -27888.539777820086, -51317.97359203978, -98608.78868207797, -187500.02235174447, -187500.02235174447, -45258.46037369494, -43959.86872433052, -77095.16758861156, -46901.44770162675, -85675.4211396481, -29826.033690695014, 0.0, 0.0, 0.0, 193.0, 0.0, 1.0, 1.0, 0.0, 0.0, 1.0, 1.0, 256.0, 1.0, 1.750526615823238E9, 0.0, 2025-06-21 19:23:35.823
56.0, -42490.01800894952, -38302.26222303656, -28152.558583326172, -69588.11069585213, -27227.553990787746, -27969.430741003842, -51312.72093209278, -98597.43399589468, -187500.02235174447, -187500.02235174447, -45302.56036550526, -43998.626649216014, -77139.08876646624, -46924.827626326995, -85707.45118945256, -29851.894659029804, 0.0, 0.0, 0.0, 193.0, 0.0, 1.0, 1.0, 0.0, 0.0, 1.0, 1.0, 256.0, 1.0, 1.750526615830245E9, 0.0, 2025-06-21 19:23:35.830
58.0, -42529.11121000185, -38342.2494938671, -28140.779213998227, -69582.29924229375, -27230.66088326703, -27921.95563578077, -51305.61307735599, -98592.80718479243, -187500.02235174447, -187500.02235174447, -45287.78586242031, -43978.867707117526, -77135.24426641992, -46893.84810851194, -85713.1285325442, -29821.540990059497, 0.0, 0.0, 0.0, 193.0, 0.0, 1.0, 1.0, 0.0, 0.0, 1.0, 1.0, 256.0, 1.0, 1.750526615838283E9, 0.0, 2025-06-21 19:23:35.838
60.0, -42569.679626188234, -38368.44573836872, -28158.23592641782, -69600.09123088018, -27222.278979096292, -27929.599932384484, -51325.17085375439, -98607.8275570664, -187500.02235174447, -187500.02235174447, -45307.09776962969, -43997.41965501543, -77137.54649609882, -46915.596355866954, -85666.81571803281, -29841.992836236102, 0.0, 0.0, 0.0, 193.0, 0.0, 1.0, 1.0, 0.0, 0.0, 1.0, 1.0, 256.0, 1.0, 1.750526615847294E9, 0.0, 2025-06-21 19:23:35.847
62.0, -42556.335634748415, -38350.22906663764, -28154.100853693588, -69582.18748357147, -27267.943593018485, -27938.00418829968, -51308.18352796835, -98588.76151904602, -187500.02235174447, -187500.02235174447, -45315.792598222804, -43988.0319223442, -77156.47842365247, -46897.51379460261, -85719.8340558808, -29825.586655805906, 0.0, 0.0, 0.0, 193.0, 0.0, 1.0, 1.0, 0.0, 0.0, 1.0, 1.0, 256.0, 1.0, 1.750526615854388E9, 0.0, 2025-06-21 19:23:35.854
64.0, -42582.08484436093, -38351.659578282786, -28189.796589588714, -69629.14849867208, -27276.996049522884, -27876.29102185858, -51343.119304552, -98632.57093817843, -187500.02235174447, -187500.02235174447, -45337.22792115545, -44010.22720458832, -77160.2111649765, -46933.298937475556, -85708.61348016423, -29856.85674629888, 0.0, 0.0, 0.0, 193.0, 0.0, 1.0, 1.0, 0.0, 0.0, 1.0, 1.0, 256.0, 1.0, 1.750526615862349E9, 0.0, 2025-06-21 19:23:35.862
66.0, -42504.85956726785, -38262.319655694926, -28147.931772223925, -69579.99701261485, -27287.993107794897, -27951.750511139693, -51307.13299597895, -98591.48843186957, -187500.02235174447, -187500.02235174447, -45321.335830847725, -43997.75493118226, -77147.40361540361, -46931.823722341505, -85713.03912556639, -29856.14149047631, 0.0, 0.0, 0.0, 193.0, 0.0, 1.0, 1.0, 0.0, 0.0, 1.0, 1.0, 256.0, 1.0, 1.750526615870433E9, 0.0, 2025-06-21 19:23:35.870
68.0, -42503.898442256264, -38255.167097469224, -28182.33110694064, -69618.01732993333, -27282.67339261453, -27949.20241227179, -51335.09502829254, -98622.78087410699, -187500.02235174447, -187500.02235174447, -45311.00932490937, -43983.56157345314, -77147.5600776148, -46917.205681467734, -85736.73197468901, -29841.434042624718, 0.0, 0.0, 0.0, 193.0, 0.0, 1.0, 1.0, 0.0, 0.0, 1.0, 1.0, 256.0, 1.0, 1.75052661587942E9, 0.0, 2025-06-21 19:23:35.879
70.0, -42453.227037576085, -38198.483073530566, -28171.982249257835, -69605.925036183, -27280.39351468009, -27906.734097806704, -51335.67617364838, -98616.81295833742, -187500.02235174447, -187500.02235174447, -45332.13172341964, -44012.2388615893, -77152.65627535062, -46948.52047544962, -85703.51728242842, -29870.983048794635, 0.0, 0.0, 0.0, 193.0, 0.0, 1.0, 1.0, 0.0, 0.0, 1.0, 1.0, 256.0, 1.0, 1.750526615886458E9, 0.0, 2025-06-21 19:23:35.886
72.0, -42380.13683320723, -38131.986633776025, -28146.657722789972, -69575.66077419052, -27263.674409827523, -27949.448281460798, -51312.45271115932, -98604.13951923126, -187500.02235174447, -187500.02235174447, -45298.26883056985, -43970.821079113615, -77135.62424607566, -46904.73340806168, -85728.81945715183, -29832.42628960923, 0.0, 0.0, 0.0, 193.0, 0.0, 1.0, 1.0, 0.0, 0.0, 1.0, 1.0, 256.0, 1.0, 1.750526615894434E9, 0.0, 2025-06-21 19:23:35.894
74.0, -42386.90941177719, -38131.919578542664, -28171.49051087982, -69608.49548679536, -27282.24870946988, -27889.366792364934, -51348.841351132556, -98634.35907773484, -187500.02235174447, -187500.02235174447, -45291.540955488796, -43971.53633493619, -77118.3016441228, -46920.04435301356, -85698.01875329242, -29843.33394090342, 0.0, 0.0, 0.0, 193.0, 0.0, 1.0, 1.0, 0.0, 0.0, 1.0, 1.0, 256.0, 1.0, 1.750526615902605E9, 0.0, 2025-06-21 19:23:35.902
76.0, -42318.89305339969, -38077.761301727456, -28152.93856298191, -69582.90273939405, -27265.06021798375, -27939.63586564492, -51321.996906041735, -98606.70996984364, -187500.02235174447, -187500.02235174447, -45294.17846133452, -43979.87353561801, -77125.0071674594, -46931.15317000785, -85714.31317500034, -29854.509813131073, 0.0, 0.0, 0.0, 193.0, 0.0, 1.0, 1.0, 0.0, 0.0, 1.0, 1.0, 256.0, 1.0, 1.75052661591053E9, 0.0, 2025-06-21 19:23:35.910
78.0, -42317.596652221284, -38076.08492089331, -28161.34281889711, -69598.30309132375, -27272.525700631824, -27917.19471421179, -51320.09700776303, -98615.67301937021, -187500.02235174447, -187500.02235174447, -45274.46422272494, -43965.4790121888, -77116.73702201093, -46911.79655930955, -85732.0381083534, -29836.293141399998, 0.0, 0.0, 0.0, 193.0, 0.0, 1.0, 1.0, 0.0, 0.0, 1.0, 1.0, 256.0, 1.0, 1.750526615918583E9, 0.0, 2025-06-21 19:23:35.918
80.0, -42285.67836113911, -38040.88092337619, -28156.00075197229, -69598.10192562365, -27275.006744266364, -27913.014937998647, -51326.37784795497, -98618.04230428247, -187500.02235174447, -187500.02235174447, -45284.142528074095, -43981.304047263155, -77111.12673415265, -46942.91018759134, -85696.54353815837, -29863.830490568937, 0.0, 0.0, 0.0, 193.0, 0.0, 1.0, 1.0, 0.0, 0.0, 1.0, 1.0, 256.0, 1.0, 1.750526615926541E9, 0.0, 2025-06-21 19:23:35.926
82.0, -42228.52495056688, -37993.159948964116, -28120.66264398845, -69566.78713164177, -27252.364427133136, -27955.304438508087, -51312.899746048424, -98600.6749988407, -187500.02235174447, -187500.02235174447, -45254.86174283764, -43951.26330271522, -77102.96834742646, -46896.887945757866, -85709.70871564254, -29828.224161651633, 0.0, 0.0, 0.0, 193.0, 0.0, 1.0, 1.0, 0.0, 0.0, 1.0, 1.0, 256.0, 1.0, 1.750526615935595E9, 0.0, 2025-06-21 19:23:35.935
84.0, -42253.51420086792, -38006.21336772601, -28149.786967013715, -69591.99989938736, -27265.328438917215, -27895.401763367867, -51335.475007948284, -98624.99369680807, -187500.02235174447, -187500.02235174447, -45243.797629332264, -43944.91540728991, -77081.42126577154, -46915.43989365577, -85687.20050897605, -29842.037539725014, 0.0, 0.0, 0.0, 193.0, 0.0, 1.0, 1.0, 0.0, 0.0, 1.0, 1.0, 256.0, 1.0, 1.750526615941698E9, 0.0, 2025-06-21 19:23:35.941
86.0, -42212.76697072589, -37971.43405335356, -28129.066899903646, -69566.7200764084, -27244.04957819576, -27940.172307511846, -51357.49147623676, -98611.31442920142, -187500.02235174447, -187500.02235174447, -45261.567266174236, -43951.15154399294, -77094.98877465591, -46915.84222505596, -85702.15382601666, -29843.15512694778, 0.0, 0.0, 0.0, 193.0, 0.0, 1.0, 1.0, 0.0, 0.0, 1.0, 1.0, 256.0, 1.0, 1.750526615950746E9, 0.0, 2025-06-21 19:23:35.950
88.0, -42227.78734299986, -37985.58270759376, -28131.413833071452, -69576.53249222429, -27245.614200307635, -27890.372620865423, -51288.849269014514, -98612.38731293527, -187500.02235174447, -187500.02235174447, -45234.52165538331, -43932.75605830623, -77084.21523382846, -46886.67319854179, -85705.37247721822, -29816.958882446157, 0.0, 0.0, 0.0, 193.0, 0.0, 1.0, 1.0, 0.0, 0.0, 1.0, 1.0, 256.0, 1.0, 1.750526615958768E9, 0.0, 2025-06-21 19:23:35.958
90.0, -42225.97685169898, -37980.017123224396, -28143.014388443757, -69588.35656504113, -27262.7356365604, -27895.692336045784, -51318.68884786235, -98615.58361239238, -187500.02235174447, -187500.02235174447, -45268.5857139332, -43974.82204137112, -77103.59419627121, -46923.73239084869, -85673.36477915822, -29852.38639740782, 0.0, 0.0, 0.0, 193.0, 0.0, 1.0, 1.0, 0.0, 0.0, 1.0, 1.0, 256.0, 1.0, 1.750526615966745E9, 0.0, 2025-06-21 19:23:35.966
92.0, -42195.86905191768, -37952.0103874219, -28120.90851317746, -69555.36539022511, -27252.275020155314, -27940.887563334414, -51290.41389112639, -98586.23577192257, -187500.02235174447, -187500.02235174447, -45236.95799552894, -43934.678308329385, -77087.50094026339, -46879.94532346074, -85695.33654395778, -29812.980271933113, 0.0, 0.0, 0.0, 193.0, 0.0, 1.0, 1.0, 0.0, 0.0, 1.0, 1.0, 256.0, 1.0, 1.750526615973751E9, 0.0, 2025-06-21 19:23:35.973
94.0, -42235.1187151812, -37988.51078611741, -28153.251487404286, -69604.31571058223, -27250.933915487996, -27845.736187188173, -51326.73547586626, -98614.80130133645, -187500.02235174447, -187500.02235174447, -45246.14456250007, -43955.93481730638, -77087.94797515249, -46901.53710860456, -85669.98966574547, -29831.554571575474, 0.0, 0.0, 0.0, 193.0, 0.0, 1.0, 1.0, 0.0, 0.0, 1.0, 1.0, 256.0, 1.0, 1.750526615982778E9, 0.0, 2025-06-21 19:23:35.982
96.0, -42198.28304031886, -37954.93846594554, -28134.028987172722, -69569.73756190986, -27264.97081100593, -27954.410368729874, -51311.29042044764, -98597.07636798339, -187500.02235174447, -187500.02235174447, -45267.75869938835, -43975.98433208279, -77108.37746958465, -46925.78875133857, -85701.25975623843, -29855.49328988711, 0.0, 0.0, 0.0, 193.0, 0.0, 1.0, 1.0, 0.0, 0.0, 1.0, 1.0, 256.0, 1.0, 1.750526615990803E9, 0.0, 2025-06-21 19:23:35.990
98.0, -42207.06727588979, -37965.57789630627, -28129.066899903646, -69571.27983227729, -27248.855203253654, -27896.60875756845, -51333.55275792513, -98607.71579834411, -187500.02235174447, -187500.02235174447, -45226.09504772366, -43929.6715175714, -77077.4426552585, -46883.43219559577, -85693.86132882372, -29812.95792018866, 0.0, 0.0, 0.0, 193.0, 0.0, 1.0, 1.0, 0.0, 0.0, 1.0, 1.0, 256.0, 1.0, 1.750526615999783E9, 0.0, 2025-06-21 19:23:35.999
100.0, -42201.79226419834, -37959.319407858784, -28128.10577489207, -69566.7200764084, -27258.600563836168, -27920.212199713256, -51322.287478719656, -98599.11037672883, -187500.02235174447, -187500.02235174447, -45249.72084161292, -43956.068927773114, -77085.08695186222, -46915.79752156705, -85666.94982849954, -29840.47291761314, 0.0, 0.0, 0.0, 193.0, 0.0, 1.0, 1.0, 0.0, 0.0, 1.0, 1.0, 256.0, 1.0, 1.750526616006891E9, 0.0, 2025-06-21 19:23:36.006
102.0, -42173.651417929104, -37935.760669202886, -28113.33127180711, -69543.58602089716, -27249.056368953752, -27910.913874019847, -51299.756920308704, -98587.68863531217, -187500.02235174447, -187500.02235174447, -45216.953184241436, -43911.72306677378, -77066.37854175312, -46857.70533772771, -85682.50664264044, -29786.739323942584, 0.0, 0.0, 0.0, 193.0, 0.0, 1.0, 1.0, 0.0, 0.0, 1.0, 1.0, 256.0, 1.0, 1.750526616014919E9, 0.0, 2025-06-21 19:23:36.014
104.0, -42245.221703675, -37999.70901008952, -28162.505109608785, -69597.74429771237, -27267.273040684828, -27895.781743023606, -51356.99973785874, -98637.55537719195, -187500.02235174447, -187500.02235174447, -45253.587693403686, -43956.18068649539, -77091.50190252089, -46906.36508540691, -85689.56979388831, -29833.499173343083, 0.0, 0.0, 0.0, 193.0, 0.0, 1.0, 1.0, 0.0, 0.0, 1.0, 1.0, 256.0, 1.0, 1.750526616022934E9, 0.0, 2025-06-21 19:23:36.022
106.0, -42208.67660149057, -37964.57206780578, -28139.393405841998, -69566.42950373048, -27283.74627634839, -27938.898258077894, -51337.0172783157, -98617.19293799317, -187500.02235174447, -187500.02235174447, -45270.4856122119, -43964.96492206633, -77106.79049572832, -46920.31257394703, -85708.88170109769, -29848.251324683588, 0.0, 0.0, 0.0, 193.0, 0.0, 1.0, 1.0, 0.0, 0.0, 1.0, 1.0, 256.0, 1.0, 1.750526616030017E9, 0.0, 2025-06-21 19:23:36.030
108.0, -42203.28983107684, -37961.88985847114, -28125.892952190992, -69564.10492230713, -27246.35180787466, -27906.443525128787, -51326.80253109962, -98608.83338556689, -187500.02235174447, -187500.02235174447, -45225.89388202356, -43925.35763089152, -77075.27453604633, -46875.474974569675, -85701.46092193853, -29803.749001473072, 0.0, 0.0, 0.0, 193.0, 0.0, 1.0, 1.0, 0.0, 0.0, 1.0, 1.0, 256.0, 1.0, 1.750526616038981E9, 0.0, 2025-06-21 19:23:36.038
110.0, -42226.0662586768, -37983.12401570368, -28158.05711246218, -69595.79969594475, -27267.518909873834, -27871.530100289598, -51344.12513305249, -98623.98786830758, -187500.02235174447, -187500.02235174447, -45261.18728651849, -43970.329340735596, -77096.26282408986, -46923.151245492845, -85679.95854377253, -29846.977275249636, 0.0, 0.0, 0.0, 193.0, 0.0, 1.0, 1.0, 0.0, 0.0, 1.0, 1.0, 256.0, 1.0, 1.750526616046981E9, 0.0, 2025-06-21 19:23:36.046
112.0, -42190.437578015044, -37948.210590864495, -28137.225286629833, -69565.28956476325, -27256.54420334628, -27952.309304751077, -51316.319562950084, -98603.20074596415, -187500.02235174447, -187500.02235174447, -45247.776239845305, -43949.65397711444, -77099.39206831361, -46898.85489926993, -85724.55027396086, -29826.32426337293, 0.0, 0.0, 0.0, 193.0, 0.0, 1.0, 1.0, 0.0, 0.0, 1.0, 1.0, 256.0, 1.0, 1.750526616054006E9, 0.0, 2025-06-21 19:23:36.054
114.0, -42216.656174261116, -37968.550678318825, -28138.499336063785, -69582.90273939405, -27267.362447662646, -27887.019859197124, -51337.97840332728, -98619.33870546088, -187500.02235174447, -187500.02235174447, -45240.578978130696, -43944.177799722886, -77082.31533554976, -46906.63330634038, -85687.8710613097, -29832.135716931312, 0.0, 0.0, 0.0, 193.0, 0.0, 1.0, 1.0, 0.0, 0.0, 1.0, 1.0, 256.0, 1.0, 1.750526616062011E9, 0.0, 2025-06-21 19:23:36.062
116.0, -42189.16352858109, -37943.42731755106, -28129.670397003938, -69566.00482058583, -27249.257534653847, -27892.27251914412, -51317.526557150675, -98596.78579530548, -187500.02235174447, -187500.02235174447, -45254.72763237091, -43955.06309927262, -77095.07818163374, -46911.550690120544, -85691.73791310047, -29840.696435057693, 0.0, 0.0, 0.0, 193.0, 0.0, 1.0, 1.0, 0.0, 0.0, 1.0, 1.0, 256.0, 1.0, 1.750526616071085E9, 0.0, 2025-06-21 19:23:36.071
118.0, -42205.055618888815, -37960.12407065917, -28134.878353462023, -69577.53832072477, -27274.380895421615, -27935.43373768732, -51330.937603823855, -98616.99177229307, -187500.02235174447, -187500.02235174447, -45221.37882964359, -43929.44800012684, -77076.30271629128, -46876.79372749254, -85693.99543929046, -29807.66055675275, 0.0, 0.0, 0.0, 193.0, 0.0, 1.0, 1.0, 0.0, 0.0, 1.0, 1.0, 256.0, 1.0, 1.750526616078062E9, 0.0, 2025-06-21 19:23:36.078
120.0, -42224.009898186916, -37972.395178365136, -28157.364208384064, -69597.49842852335, -27265.373142406126, -27902.66608031584, -51344.862740619516, -98626.11128403083, -187500.02235174447, -187500.02235174447, -45273.72661515792, -43979.761776895735, -77109.42800157405, -46937.03167879959, -85691.84967182275, -29864.009304524578, 0.0, 0.0, 0.0, 193.0, 0.0, 1.0, 1.0, 0.0, 0.0, 1.0, 1.0, 256.0, 1.0, 1.750526616086076E9, 0.0, 2025-06-21 19:23:36.086
122.0, -42165.87301085866, -37927.04348886532, -28112.683071217903, -69548.5704599107, -27242.261438639336, -27924.660196859862, -51296.761786551695, -98587.10748995632, -187500.02235174447, -187500.02235174447, -45241.02601301981, -43940.08743048757, -77093.02182114385, -46888.46133809821, -85711.13922728768, -29819.417574336243, 0.0, 0.0, 0.0, 193.0, 0.0, 1.0, 1.0, 0.0, 0.0, 1.0, 1.0, 256.0, 1.0, 1.750526616095101E9, 0.0, 2025-06-21 19:23:36.095
124.0, -42222.75820049742, -37978.94423949054, -28150.412815858464, -69599.93476866899, -27270.089360486196, -27891.154931921355, -51357.26795879221, -98667.86434267335, -187500.02235174447, -187500.02235174447, -45224.28455642278, -43931.75022980574, -77067.3396667647, -46891.32236138849, -85666.68160756608, -29819.886960969805, 0.0, 0.0, 0.0, 193.0, 0.0, 1.0, 1.0, 0.0, 0.0, 1.0, 1.0, 256.0, 1.0, 1.750526616103116E9, 0.0, 2025-06-21 19:23:36.103
126.0, -42215.00214517143, -37965.533192817355, -28149.80931875817, -69590.14470459757, -27290.965889807452, -27922.402670669875, -51332.01048755771, -98616.65649612623, -187500.02235174447, -187500.02235174447, -45281.437966995, -43987.94251536638, -77124.69424303703, -46953.72843190771, -85730.22761705251, -29884.215281512177, 0.0, 0.0, 0.0, 193.0, 0.0, 1.0, 1.0, 0.0, 0.0, 1.0, 1.0, 256.0, 1.0, 1.750526616110127E9, 0.0, 2025-06-21 19:23:36.110
128.0, -42199.62414498617, -37948.88114319815, -28136.822955229636, -69577.40421025804, -27245.50244158536, -27868.177338621303, -51324.88028107647, -98594.12593771529, -187500.02235174447, -187500.02235174447, -45233.85110304965, -43938.47810488679, -77087.25507107438, -46885.689721785755, -85703.49493068397, -29813.58376903341, 0.0, 0.0, 0.0, 193.0, 0.0, 1.0, 1.0, 0.0, 0.0, 1.0, 1.0, 256.0, 1.0, 1.750526616118163E9, 0.0, 2025-06-21 19:23:36.118
130.0, -42205.70381947802, -37966.33785561775, -28126.27293184673, -69566.1165793081, -27239.66863628252, -27907.404650140365, -51327.517786922195, -98592.44955688114, -187500.02235174447, -187500.02235174447, -45249.13969625708, -43960.78514585318, -77086.60687048518, -46917.563309379024, -85670.97314250149, -29844.920914759747, 0.0, 0.0, 0.0, 193.0, 0.0, 1.0, 1.0, 0.0, 0.0, 1.0, 1.0, 256.0, 1.0, 1.750526616127201E9, 0.0, 2025-06-21 19:23:36.127
132.0, -42190.102301848216, -37951.4068903216, -28115.09705961908, -69546.20117499842, -27252.945572488974, -27950.00707507218, -51308.92113553538, -98590.97434174709, -187500.02235174447, -187500.02235174447, -45227.9725942579, -43922.20603492332, -77079.72253319294, -46874.87147746939, -85698.59989864826, -29806.922949185726, 0.0, 0.0, 0.0, 193.0, 0.0, 1.0, 1.0, 0.0, 0.0, 1.0, 1.0, 256.0, 1.0, 1.750526616134222E9, 0.0, 2025-06-21 19:23:36.134
134.0, -42246.54045659786, -38000.04428625635, -28143.10379542158, -69586.74723944036, -27285.467360671446, -27898.151027935866, -51347.38848774296, -98627.69825788717, -187500.02235174447, -187500.02235174447, -45234.6781175945, -43937.539331619664, -77077.57676572523, -46895.122157945894, -85675.24232569247, -29823.887923227303, 0.0, 0.0, 0.0, 193.0, 0.0, 1.0, 1.0, 0.0, 0.0, 1.0, 1.0, 256.0, 1.0, 1.750526616142281E9, 0.0, 2025-06-21 19:23:36.142
136.0, -42212.09641839223, -37967.343684118234, -28118.47217303183, -69555.14187278056, -27250.039845709784, -27897.771048280127, -51314.77729258267, -98593.41068189272, -187500.02235174447, -187500.02235174447, -45254.92879807101, -43956.493610917765, -77096.8439694457, -46906.99093425166, -85688.0722270098, -29837.18721117821, 0.0, 0.0, 0.0, 193.0, 0.0, 1.0, 1.0, 0.0, 0.0, 1.0, 1.0, 256.0, 1.0, 1.750526616150281E9, 0.0, 2025-06-21 19:23:36.150
138.0, -42212.90108119263, -37977.156099934116, -28116.393460797484, -69561.95915483942, -27239.86980198262, -27900.877940759416, -51330.378810212474, -98607.6710948552, -187500.02235174447, -187500.02235174447, -45218.38369588658, -43923.614194824004, -77071.87707088912, -46867.18247737676, -85685.68059035309, -29798.876321181815, 0.0, 0.0, 0.0, 193.0, 0.0, 1.0, 1.0, 0.0, 0.0, 1.0, 1.0, 256.0, 1.0, 1.750526616159218E9, 0.0, 2025-06-21 19:23:36.159
140.0, -42221.84177897475, -37982.40875988111, -28132.66553076095, -69579.50527423684, -27244.563668318235, -27901.861417515447, -51331.228176501776, -98622.02091479552, -187500.02235174447, -187500.02235174447, -45244.13290549909, -43962.95326506535, -77085.10930360667, -46916.602184367446, -85669.60968608972, -29844.473879870642, 0.0, 0.0, 0.0, 193.0, 0.0, 1.0, 1.0, 0.0, 0.0, 1.0, 1.0, 256.0, 1.0, 1.750526616166282E9, 0.0, 2025-06-21 19:23:36.166
142.0, -42196.3607902957, -37960.2581811259, -28110.22437932782, -69553.08551229067, -27231.48789781188, -27930.851630073983, -51320.00760078521, -98600.36207441833, -187500.02235174447, -187500.02235174447, -45216.14852144105, -43926.25170066973, -77072.77114066735, -46870.870515211886, -85690.1732909886, -29805.268920096034, 0.0, 0.0, 0.0, 193.0, 0.0, 1.0, 1.0, 0.0, 0.0, 1.0, 1.0, 256.0, 1.0, 1.75052661617431E9, 0.0, 2025-06-21 19:23:36.174
144.0, -42250.697881066546, -38010.86253057272, -28155.486661849816, -69612.36233858614, -27279.365334435148, -27895.401763367867, -51356.15037156944, -98658.3872030243, -187500.02235174447, -187500.02235174447, -45243.730574098896, -43961.9250848204, -77090.27255657584, -46916.78099832308, -85695.2247852355, -29849.3465601619, 0.0, 0.0, 0.0, 193.0, 0.0, 1.0, 1.0, 0.0, 0.0, 1.0, 1.0, 256.0, 1.0, 1.750526616183335E9, 0.0, 2025-06-21 19:23:36.183
146.0, -42218.55607253982, -37980.55356509132, -28136.0406441737, -69576.2195678019, -27266.043694739783, -27954.43272047433, -51323.33801070905, -98598.39512090625, -187500.02235174447, -187500.02235174447, -45260.11440278464, -43973.816212870624, -77105.94112943902, -46923.508873404135, -85702.31028822783, -29856.365007920864, 0.0, 0.0, 0.0, 193.0, 0.0, 1.0, 1.0, 0.0, 0.0, 1.0, 1.0, 256.0, 1.0, 1.750526616190317E9, 0.0, 2025-06-21 19:23:36.190
148.0, -42213.102246892726, -37970.69644578653, -28128.396347569986, -69572.46447473341, -27243.356674117647, -27912.366737409444, -51302.01444649869, -98604.40774016474, -187500.02235174447, -187500.02235174447, -45234.499303638855, -43940.467410143305, -77088.08208561923, -46887.008474708615, -85710.93806158759, -29817.65178652427, 0.0, 0.0, 0.0, 193.0, 0.0, 1.0, 1.0, 0.0, 0.0, 1.0, 1.0, 256.0, 1.0, 1.750526616198404E9, 0.0, 2025-06-21 19:23:36.198
150.0, -42213.97396492648, -37970.13765217515, -28128.46340280335, -69576.64425094656, -27235.511211813835, -27851.23471632418, -51327.20486249982, -98610.91209780122, -187500.02235174447, -187500.02235174447, -45245.608120633144, -43958.75113710775, -77084.3940477841, -46910.85778604243, -85661.11602319671, -29839.310626901464, 0.0, 0.0, 0.0, 193.0, 0.0, 1.0, 1.0, 0.0, 0.0, 1.0, 1.0, 256.0, 1.0, 1.750526616206422E9, 0.0, 2025-06-21 19:23:36.206
152.0, -42204.94386016654, -37970.785852764355, -28125.892952190992, -69571.54805321075, -27236.338226358683, -27951.28112450613, -51296.3594551515, -98588.51564985701, -187500.02235174447, -187500.02235174447, -45236.175684473004, -43948.26816895821, -77093.37944905514, -46882.62753279538, -85697.01292479192, -29817.629434779818, 0.0, 0.0, 0.0, 193.0, 0.0, 1.0, 1.0, 0.0, 0.0, 1.0, 1.0, 256.0, 1.0, 1.75052661621551E9, 0.0, 2025-06-21 19:23:36.215
154.0, -42229.55313081183, -37997.16091122162, -28146.970647212347, -69604.3827658156, -27248.54227883128, -27889.41149585384, -51350.31656626661, -98634.44848471266, -187500.02235174447, -187500.02235174447, -45246.681004367, -43964.65199764395, -77094.60879500018, -46916.04339075606, -85688.4298549211, -29847.08903397191, 0.0, 0.0, 0.0, 193.0, 0.0, 1.0, 1.0, 0.0, 0.0, 1.0, 1.0, 256.0, 1.0, 1.750526616222495E9, 0.0, 2025-06-21 19:23:36.222
156.0, -42213.16930212609, -37984.53217560437, -28147.596496057096, -69589.85413191964, -27255.091339956685, -27949.023598316147, -51304.227269199764, -98615.91888855922, -187500.02235174447, -187500.02235174447, -45265.121193542625, -43981.66167517444, -77112.82546673126, -46934.39417295387, -85706.17714001861, -29868.39024643782, 0.0, 0.0, 0.0, 193.0, 0.0, 1.0, 1.0, 0.0, 0.0, 1.0, 1.0, 256.0, 1.0, 1.750526616230516E9, 0.0, 2025-06-21 19:23:36.230
158.0, -42207.82723520127, -37971.054073697815, -28133.42549007243, -69573.98439335637, -27261.43923538199, -27901.347327392978, -51319.80643508511, -98596.09289122735, -187500.02235174447, -187500.02235174447, -45256.13579227159, -43937.606386853025, -77084.50580650638, -46885.04152119655, -85703.58433766178, -29817.29415861299, 0.0, 0.0, 0.0, 193.0, 0.0, 1.0, 1.0, 0.0, 0.0, 1.0, 1.0, 256.0, 1.0, 1.750526616238588E9, 0.0, 2025-06-21 19:23:36.238
160.0, -42242.584197829274, -37986.90146051663, -28148.892897235502, -69594.45859127743, -27252.45383411096, -27910.19861819728, -51358.74317392626, -98604.29598144245, -187500.02235174447, -187500.02235174447, -45277.52641171532, -43985.10384382056, -77108.37746958465, -46941.278510246106, -85699.00223004846, -29866.37858943684, 0.0, 0.0, 0.0, 193.0, 0.0, 1.0, 1.0, 0.0, 0.0, 1.0, 1.0, 256.0, 1.0, 1.750526616246579E9, 0.0, 2025-06-21 19:23:36.246
162.0, -42223.13818015315, -37974.60800106621, -28135.750071495782, -69573.96204161191, -27273.15154947657, -27949.470633205252, -51317.88418506196, -98596.18229820518, -187500.02235174447, -187500.02235174447, -45235.058097250236, -43947.59761662455, -77094.18411185553, -46889.109538687415, -85705.70775338504, -29820.9374929592, 0.0, 0.0, 0.0, 193.0, 0.0, 1.0, 1.0, 0.0, 0.0, 1.0, 1.0, 256.0, 1.0, 1.75052661625461E9, 0.0, 2025-06-21 19:23:36.254
164.0, -42270.635637120686, -38024.13946677917, -28155.86664150556, -69608.29432109527, -27275.990221022395, -27920.30160669108, -51343.61104293002, -98634.9849265796, -187500.02235174447, -187500.02235174447, -45248.759716601344, -43972.60921867004, -77105.80701897228, -46921.63132686989, -85701.08094228279, -29851.29116192951, 0.0, 0.0, 0.0, 193.0, 0.0, 1.0, 1.0, 0.0, 0.0, 1.0, 1.0, 256.0, 1.0, 1.750526616262653E9, 0.0, 2025-06-21 19:23:36.262
166.0, -42216.03032541637, -37987.39319889465, -28123.546019023182, -69570.89985262154, -27242.753177017355, -27880.828425983003, -51341.48762720676, -98607.44757741065, -187500.02235174447, -187500.02235174447, -45258.683891139495, -43980.27586701821, -77112.66900452007, -46919.21733846871, -85692.05083752285, -29853.280467186032, 0.0, 0.0, 0.0, 193.0, 0.0, 1.0, 1.0, 0.0, 0.0, 1.0, 1.0, 256.0, 1.0, 1.750526616270699E9, 0.0, 2025-06-21 19:23:36.270
168.0, -42222.534683052865, -37985.18037619357, -28130.74328073779, -69569.75991365433, -27262.91445051604, -27950.409406472376, -51311.06690300309, -98594.88589702678, -187500.02235174447, -187500.02235174447, -45209.73357078237, -43920.52965408917, -77066.46794873095, -46862.93564593025, -85681.1208344842, -29796.70820196965, 0.0, 0.0, 0.0, 193.0, 0.0, 1.0, 1.0, 0.0, 0.0, 1.0, 1.0, 256.0, 1.0, 1.750526616277701E9, 0.0, 2025-06-21 19:23:36.277
170.0, -42219.1148661512, -37981.961724992005, -28113.577140996116, -69573.51500672281, -27213.897074925553, -27899.112152947448, -51316.878356561465, -98611.8732228128, -187500.02235174447, -187500.02235174447, -45260.069699295724, -43969.077643046105, -77095.68167873404, -46927.95687055074, -85680.53968912837, -29858.28725794402, 0.0, 0.0, 0.0, 193.0, 0.0, 1.0, 1.0, 0.0, 0.0, 1.0, 1.0, 256.0, 1.0, 1.750526616286764E9, 0.0, 2025-06-21 19:23:36.286
172.0, -42219.3160318513, -37987.10262621673, -28109.956158394358, -69564.12727405159, -27236.092357169673, -27936.10429002098, -51312.698580348326, -98593.45538538163, -187500.02235174447, -187500.02235174447, -45215.58972782967, -43933.337203662064, -77074.82750115723, -46863.874419197375, -85670.54845935684, -29803.301966583964, 0.0, 0.0, 0.0, 193.0, 0.0, 1.0, 1.0, 0.0, 0.0, 1.0, 1.0, 256.0, 1.0, 1.750526616294766E9, 0.0, 2025-06-21 19:23:36.294
174.0, -42245.98166298648, -38018.01508879842, -28131.61499877155, -69590.52468425331, -27248.475223597914, -27864.93633567528, -51299.57810635306, -98609.1239582448, -187500.02235174447, -187500.02235174447, -45236.48860889538, -43963.73557612128, -77088.01503038585, -46886.33792237496, -85657.80796501732, -29824.066737182944, 0.0, 0.0, 0.0, 193.0, 0.0, 1.0, 1.0, 0.0, 0.0, 1.0, 1.0, 256.0, 1.0, 1.750526616302781E9, 0.0, 2025-06-21 19:23:36.302
176.0, -42220.79124698535, -38000.51367288991, -28120.70734747736, -69568.73173340938, -27250.285714898793, -27951.795214628604, -51313.167966981884, -98589.36501614632, -187500.02235174447, -187500.02235174447, -45264.29417899778, -43968.25062850126, -77102.27544334835, -46897.916126002805, -85670.16847970111, -29835.242609410598, 0.0, 0.0, 0.0, 193.0, 0.0, 1.0, 1.0, 0.0, 0.0, 1.0, 1.0, 256.0, 1.0, 1.750526616309818E9, 0.0, 2025-06-21 19:23:36.309
178.0, -42234.04583144734, -38000.11134148972, -28125.46826904634, -69577.38185851359, -27241.434424094492, -27936.819545843548, -51313.391484426444, -98602.10551048584, -187500.02235174447, -187500.02235174447, -45229.894844281065, -43941.36147992152, -77086.31629780725, -46873.01628267959, -85690.15093924415, -29809.024013164522, 0.0, 0.0, 0.0, 193.0, 0.0, 1.0, 1.0, 0.0, 0.0, 1.0, 1.0, 256.0, 1.0, 1.75052661631885E9, 0.0, 2025-06-21 19:23:36.318
180.0, -42256.12935496919, -38024.07241154581, -28147.14946116799, -69599.95712041344, -27247.24587765287, -27915.94301652229, -51342.9181388519, -98619.02578103851, -187500.02235174447, -187500.02235174447, -45243.931739798994, -43972.45275645885, -77092.88771067711, -46918.01034426813, -85668.82737503378, -29847.379606649833, 0.0, 0.0, 0.0, 193.0, 0.0, 1.0, 1.0, 0.0, 0.0, 1.0, 1.0, 256.0, 1.0, 1.750526616326893E9, 0.0, 2025-06-21 19:23:36.326
182.0, -42231.765953512906, -37999.77606532288, -28128.977492925824, -69577.58302421367, -27271.095188986685, -27950.85644136148, -51341.73349639577, -98612.0743885129, -187500.02235174447, -187500.02235174447, -45249.944359057474, -43970.061119802136, -77112.53489405333, -46905.94040226226, -85716.59305293478, -29840.696435057693, 0.0, 0.0, 0.0, 193.0, 0.0, 1.0, 1.0, 0.0, 0.0, 1.0, 1.0, 256.0, 1.0, 1.750526616333859E9, 0.0, 2025-06-21 19:23:36.333
184.0, -42242.874770507195, -38013.09770501825, -28132.777289483227, -69593.4751145214, -27248.877554998107, -27880.113170160435, -51334.156255025424, -98626.62537415331, -187500.02235174447, -187500.02235174447, -45229.604271603144, -43960.29340747517, -77084.61756522865, -46897.022056224596, -85667.41921513311, -29830.01230120806, 0.0, 0.0, 0.0, 193.0, 0.0, 1.0, 1.0, 0.0, 0.0, 1.0, 1.0, 256.0, 1.0, 1.750526616342012E9, 0.0, 2025-06-21 19:23:36.342
186.0, -42222.28881386385, -37994.09872223124, -28137.828783730125, -69582.88038764958, -27243.49078458438, -27932.37154869694, -51356.44094424736, -98618.53404266048, -187500.02235174447, -187500.02235174447, -45258.125097528115, -43978.21950652832, -77104.33180383824, -46918.47973090169, -85688.20633747654, -29850.91118227377, 0.0, 0.0, 0.0, 193.0, 0.0, 1.0, 1.0, 0.0, 0.0, 1.0, 1.0, 256.0, 1.0, 1.75052661635199E9, 0.0, 2025-06-21 19:23:36.351
188.0, -42224.412229587106, -38000.848949056744, -28122.495487033786, -69577.58302421367, -27247.268229397327, -27935.031406287126, -51309.904612291415, -98607.31346694392, -187500.02235174447, -187500.02235174447, -45241.830675820194, -43952.06796551561, -77095.7934374563, -46892.23878291116, -85705.68540164059, -29825.117269172344, 0.0, 0.0, 0.0, 193.0, 0.0, 1.0, 1.0, 0.0, 0.0, 1.0, 1.0, 256.0, 1.0, 1.750526616358926E9, 0.0, 2025-06-21 19:23:36.358
190.0, -42258.29747418135, -38024.36298422372, -28147.305923379176, -69604.6733384935, -27253.77258703382, -27923.81083057056, -51317.101874006024, -98614.93541180318, -187500.02235174447, -187500.02235174447, -45248.692661367975, -43973.70445414835, -77097.201597357, -46920.513739647125, -85664.26761916491, -29853.034597997023, 0.0, 0.0, 0.0, 193.0, 0.0, 1.0, 1.0, 0.0, 0.0, 1.0, 1.0, 256.0, 1.0, 1.750526616367027E9, 0.0, 2025-06-21 19:23:36.367
192.0, -42233.68820353606, -38007.196844482045, -28143.372016355042, -69591.75403019834, -27254.197270178473, -27976.940927140826, -51308.00471401271, -98606.26293495452, -187500.02235174447, -187500.02235174447, -45253.00654804785, -43974.19619252637, -77117.38522260013, -46905.538070862065, -85717.0847913128, -29842.551629847483, 0.0, 0.0, 0.0, 193.0, 0.0, 1.0, 1.0, 0.0, 0.0, 1.0, 1.0, 256.0, 1.0, 1.750526616374056E9, 0.0, 2025-06-21 19:23:36.374
194.0, -42268.91455279762, -38040.23272278699, -28160.38169388553, -69621.72771951291, -27264.680238328012, -27901.36967913743, -51342.94049059635, -98632.01214456704, -187500.02235174447, -187500.02235174447, -45257.789821361286, -43985.52852696521, -77114.88182722114, -46924.224129226706, -85696.65529688065, -29858.868403299857, 0.0, 0.0, 0.0, 193.0, 0.0, 1.0, 1.0, 0.0, 0.0, 1.0, 1.0, 256.0, 1.0, 1.750526616382062E9, 0.0, 2025-06-21 19:23:36.382
196.0, -42223.49580806444, -38002.033591512874, -28136.0406441737, -69587.19427432946, -27238.461642081937, -27947.213107015268, -51315.22432747178, -98602.64195235276, -187500.02235174447, -187500.02235174447, -45265.85880110965, -43987.83075664411, -77119.32982436774, -46931.15317000785, -85699.87394808221, -29866.982086537137, 0.0, 0.0, 0.0, 193.0, 0.0, 1.0, 1.0, 0.0, 0.0, 1.0, 1.0, 256.0, 1.0, 1.750526616391097E9, 0.0, 2025-06-21 19:23:36.391
198.0, -42244.97583448599, -38022.731306878486, -28144.33314136662, -69603.28753033729, -27263.92027901653, -27964.647467690407, -51328.434208444865, -98619.83044383889, -187500.02235174447, -187500.02235174447, -45243.1270769986, -43966.909523833936, -77108.24335911791, -46907.48267262968, -85718.56000644685, -29844.63034208183, 0.0, 0.0, 0.0, 193.0, 0.0, 1.0, 1.0, 0.0, 0.0, 1.0, 1.0, 256.0, 1.0, 1.750526616398163E9, 0.0, 2025-06-21 19:23:36.398
200.0, -42253.96123575702, -38027.60398716974, -28159.487624107318, -69614.70927175395, -27248.475223597914, -27894.775914523118, -51349.91423486641, -98634.47083645713, -187500.02235174447, -187500.02235174447, -45263.40010921957, -43992.81519565764, -77111.99845218641, -46945.950024837264, -85690.01682877741, -29878.604993653895, 0.0, 0.0, 0.0, 193.0, 0.0, 1.0, 1.0, 0.0, 0.0, 1.0, 1.0, 256.0, 1.0, 1.750526616406158E9, 0.0, 2025-06-21 19:23:36.406
202.0, -42224.50163656493, -37999.48549264497, -28134.05133891718, -69580.19817831495, -27253.079682955708, -27931.43277542982, -51316.83365307256, -98606.01706576551, -187500.02235174447, -187500.02235174447, -45254.682928882, -43972.25159075875, -77113.22779813144, -46907.88500402987, -85721.15280880366, -29845.323246159944, 0.0, 0.0, 0.0, 193.0, 0.0, 1.0, 1.0, 0.0, 0.0, 1.0, 1.0, 256.0, 1.0, 1.750526616414164E9, 0.0, 2025-06-21 19:23:36.414
204.0, -42239.164380927614, -38019.24443474346, -28130.56446678215, -69587.90953015203, -27247.894078242076, -27939.479403433732, -51325.81905434359, -98614.22015598061, -187500.02235174447, -187500.02235174447, -45239.19316997447, -43964.18261101039, -77093.6923734775, -46900.75479754863, -85677.49985188244, -29835.66729255525, 0.0, 0.0, 0.0, 193.0, 0.0, 1.0, 1.0, 0.0, 0.0, 1.0, 1.0, 256.0, 1.0, 1.750526616423202E9, 0.0, 2025-06-21 19:23:36.423
206.0, -42224.30047086483, -37998.52436763339, -28128.977492925824, -69570.38576249906, -27245.793014263276, -27963.10519732299, -51315.17962398286, -98599.06567323991, -187500.02235174447, -187500.02235174447, -45250.21257999093, -43967.35655872304, -77099.21325435796, -46902.36412314941, -85678.50568038294, -29838.349501889887, 0.0, 0.0, 0.0, 193.0, 0.0, 1.0, 1.0, 0.0, 0.0, 1.0, 1.0, 256.0, 1.0, 1.750526616430217E9, 0.0, 2025-06-21 19:23:36.430
208.0, -42228.7708197559, -38002.27946070188, -28126.541152780195, -69571.65981193303, -27248.58698232019, -27928.48234516172, -51315.269030960684, -98604.81007156493, -187500.02235174447, -187500.02235174447, -45235.30396643925, -43943.1719712224, -77091.18897809851, -46868.59063727744, -85693.54840440136, -29805.246568351577, 0.0, 0.0, 0.0, 193.0, 0.0, 1.0, 1.0, 0.0, 0.0, 1.0, 1.0, 256.0, 1.0, 1.750526616438224E9, 0.0, 2025-06-21 19:23:36.438
210.0, -42234.64932854764, -38006.97332703749, -28137.225286629833, -69587.41779177402, -27249.257534653847, -27901.77201053763, -51336.30202249313, -98618.82461533841, -187500.02235174447, -187500.02235174447, -45257.05221379426, -43975.04555881567, -77098.20742585749, -46911.349524420446, -85666.83806977727, -29845.1444322043, 0.0, 0.0, 0.0, 193.0, 0.0, 1.0, 1.0, 0.0, 0.0, 1.0, 1.0, 256.0, 1.0, 1.750526616446237E9, 0.0, 2025-06-21 19:23:36.446
212.0, -42222.19940688603, -38003.911138047115, -28134.833649973116, -69582.45570450493, -27268.591793607688, -27923.497906148186, -51332.144598024446, -98613.2813827135, -187500.02235174447, -187500.02235174447, -45242.83650432069, -43962.10389877605, -77102.4989607929, -46890.33888463246, -85710.04399180938, -29827.12892617332, 0.0, 0.0, 0.0, 193.0, 0.0, 1.0, 1.0, 0.0, 0.0, 1.0, 1.0, 256.0, 1.0, 1.750526616454312E9, 0.0, 2025-06-21 19:23:36.454
214.0, -42240.99722397295, -38016.40576319763, -28138.253466874776, -69593.02807963229, -27240.003912449352, -27884.360001606943, -51319.605269385014, -98616.12005425931, -187500.02235174447, -187500.02235174447, -45236.48860889538, -43960.65103538645, -77089.06556237525, -46900.4195213818, -85682.05960775133, -29832.38158612032, 0.0, 0.0, 0.0, 193.0, 0.0, 1.0, 1.0, 0.0, 0.0, 1.0, 1.0, 256.0, 1.0, 1.750526616462334E9, 0.0, 2025-06-21 19:23:36.462
216.0, -42223.7640289979, -38003.218233969004, -28130.74328073779, -69581.42752426, -27234.304217613248, -27948.82243261605, -51319.18058624036, -98611.2250222236, -187500.02235174447, -187500.02235174447, -45258.79564986177, -43981.4828612188, -77108.86920796266, -46915.03756225557, -85686.93228804259, -29850.15122296229, 0.0, 0.0, 0.0, 193.0, 0.0, 1.0, 1.0, 0.0, 0.0, 1.0, 1.0, 256.0, 1.0, 1.750526616470337E9, 0.0, 2025-06-21 19:23:36.470
218.0, -42220.76889524089, -37996.28919318786, -28122.026100400224, -69574.94551836795, -27245.971828218917, -27918.37935666792, -51318.93471705136, -98603.04428375296, -187500.02235174447, -187500.02235174447, -45225.51390236782, -43940.959148521324, -77085.42222802904, -46874.55855304701, -85691.46969216701, -29812.0862021549, 0.0, 0.0, 0.0, 193.0, 0.0, 1.0, 1.0, 0.0, 0.0, 1.0, 1.0, 256.0, 1.0, 1.750526616479368E9, 0.0, 2025-06-21 19:23:36.479
220.0, -42244.55115134134, -38022.32897547829, -28150.43516760292, -69601.09705938066, -27237.63462753709, -27912.1879234538, -51336.10085679303, -98609.66040011172, -187500.02235174447, -187500.02235174447, -45256.605178905156, -43979.828832129104, -77102.38720207062, -46918.18915822377, -85668.42504363359, -29852.76637706356, 0.0, 0.0, 0.0, 193.0, 0.0, 1.0, 1.0, 0.0, 0.0, 1.0, 1.0, 256.0, 1.0, 1.750526616486375E9, 0.0, 2025-06-21 19:23:36.486
222.0, -42227.899101722134, -38004.08995200276, -28133.559600539164, -69575.14668406805, -27249.10107244266, -27934.71848186475, -51312.899746048424, -98605.23475470959, -187500.02235174447, -187500.02235174447, -45256.180495760505, -43968.47414594581, -77115.61943478817, -46897.13381494687, -85715.14018954519, -29834.929684988223, 0.0, 0.0, 0.0, 193.0, 0.0, 1.0, 1.0, 0.0, 0.0, 1.0, 1.0, 256.0, 1.0, 1.750526616494427E9, 0.0, 2025-06-21 19:23:36.494
224.0, -42262.61136086123, -38026.39699296916, -28157.118339195054, -69610.90947519655, -27271.318706431237, -27919.18401946831, -51380.11144162553, -98671.41827004174, -187500.02235174447, -187500.02235174447, -45228.30787042474, -43949.296349203156, -77079.81194017077, -46884.05804444051, -85663.28414240887, -29821.205713892665, 0.0, 0.0, 0.0, 193.0, 0.0, 1.0, 1.0, 0.0, 0.0, 1.0, 1.0, 256.0, 1.0, 1.750526616502407E9, 0.0, 2025-06-21 19:23:36.502
226.0, -42262.14197422767, -38033.79542038387, -28187.42730467645, -69636.4798708534, -27290.69766887399, -27936.640731887906, -51390.41559581943, -98709.86327050487, -187500.02235174447, -187500.02235174447, -45298.38058929212, -44014.585794757106, -77146.7107113255, -46983.25508633317, -85755.41803305365, -29918.525209251075, 0.0, 0.0, 0.0, 193.0, 0.0, 1.0, 1.0, 0.0, 0.0, 1.0, 1.0, 256.0, 1.0, 1.75052661651048E9, 0.0, 2025-06-21 19:23:36.510
228.0, -42240.907816995124, -38029.1239057927, -28156.33602813912, -69611.35651008565, -27245.457738096447, -27928.683510861818, -51366.387470529975, -98644.26090052855, -187500.02235174447, -187500.02235174447, -45271.51379245684, -43993.23987880229, -77133.2102576745, -46950.39802198387, -85763.75523373547, -29889.87027285937, 0.0, 0.0, 0.0, 193.0, 0.0, 1.0, 1.0, 0.0, 0.0, 1.0, 1.0, 256.0, 1.0, 1.750526616518484E9, 0.0, 2025-06-21 19:23:36.518
230.0, -42236.303357637335, -38009.67788811659, -28136.398272084985, -69586.94840514046, -27256.521851601825, -27918.580522368018, -51331.429342201875, -98613.0802170134, -187500.02235174447, -187500.02235174447, -45258.72859462841, -43983.29335251968, -77102.36485032616, -46934.550635165055, -85681.21024146203, -29866.847976070403, 0.0, 0.0, 0.0, 193.0, 0.0, 1.0, 1.0, 0.0, 0.0, 1.0, 1.0, 256.0, 1.0, 1.750526616526519E9, 0.0, 2025-06-21 19:23:36.526
232.0, -42197.61248798519, -37979.14540519064, -28101.484847245796, -69546.40234069852, -27243.289618884282, -27926.80596432757, -51291.933809749346, -98554.87627445177, -187500.02235174447, -187500.02235174447, -45230.85596929264, -43939.52863687619, -77085.4445797735, -46866.400166320826, -85680.00324726144, -29803.123152628323, 0.0, 0.0, 0.0, 193.0, 0.0, 1.0, 1.0, 0.0, 0.0, 1.0, 1.0, 256.0, 1.0, 1.750526616534577E9, 0.0, 2025-06-21 19:23:36.534
234.0, -42222.48997956395, -38003.55351013583, -28123.76953646774, -69580.6228614596, -27220.267322095315, -27876.26867011412, -51327.62954564447, -98596.36111216083, -187500.02235174447, -187500.02235174447, -45220.64122207656, -43946.144753234956, -77074.22400405693, -46879.386529849355, -85655.93041848307, -29814.81311497845, 0.0, 0.0, 0.0, 193.0, 0.0, 1.0, 1.0, 0.0, 0.0, 1.0, 1.0, 256.0, 1.0, 1.750526616541568E9, 0.0, 2025-06-21 19:23:36.541
236.0, -42224.50163656493, -38001.74301883495, -28137.247638374287, -69579.7734951703, -27258.01941848033, -27940.507583678675, -51327.60719390002, -98597.3222371724, -187500.02235174447, -187500.02235174447, -45241.964786286924, -43959.66755863042, -77089.62435598664, -46901.31359116001, -85672.15778495763, -29837.678949556226, 0.0, 0.0, 0.0, 193.0, 0.0, 1.0, 1.0, 0.0, 0.0, 1.0, 1.0, 256.0, 1.0, 1.75052661655055E9, 0.0, 2025-06-21 19:23:36.550
238.0, -42238.538532082865, -38015.891673075166, -28143.99786519979, -69595.19619884447, -27247.24587765287, -27924.481382904218, -51349.4224964884, -98612.81199607992, -187500.02235174447, -187500.02235174447, -45236.7791815733, -43953.38671843847, -77096.46398978996, -46888.818966009494, -85708.6805353976, -29826.458373839665, 0.0, 0.0, 0.0, 193.0, 0.0, 1.0, 1.0, 0.0, 0.0, 1.0, 1.0, 256.0, 1.0, 1.750526616558626E9, 0.0, 2025-06-21 19:23:36.558
240.0, -42258.00690150343, -38028.72157439251, -28164.80733928768, -69615.96096944345, -27265.753122061866, -27924.973121282237, -51341.50997895122, -98621.68563862868, -187500.02235174447, -187500.02235174447, -45273.301932013266, -43999.207794571856, -77118.21223714498, -46939.49037068968, -85689.9721252885, -29875.319287218965, 0.0, 0.0, 0.0, 193.0, 0.0, 1.0, 1.0, 0.0, 0.0, 1.0, 1.0, 256.0, 1.0, 1.750526616565667E9, 0.0, 2025-06-21 19:23:36.565
242.0, -42213.03519165936, -37998.83729205577, -28129.111603392557, -69579.08059109219, -27250.06219745424, -27965.92151712436, -51358.273787292695, -98619.78574034998, -187500.02235174447, -187500.02235174447, -45256.56047541624, -43966.686006389384, -77112.98192894243, -46902.408826638326, -85718.53765470239, -29842.77514729204, 0.0, 0.0, 0.0, 193.0, 0.0, 1.0, 1.0, 0.0, 0.0, 1.0, 1.0, 256.0, 1.0, 1.750526616573616E9, 0.0, 2025-06-21 19:23:36.573
244.0, -42248.30624440983, -38028.34159473677, -28155.173737427445, -69616.94444619947, -27266.49072962889, -27908.14225770739, -51383.128927127, -98654.85562740036, -187500.02235174447, -187500.02235174447, -45248.200922989956, -43968.31768373462, -77096.21812060096, -46914.79169306657, -85687.2228607205, -29852.542859619007, 0.0, 0.0, 0.0, 193.0, 0.0, 1.0, 1.0, 0.0, 0.0, 1.0, 1.0, 256.0, 1.0, 1.750526616582638E9, 0.0, 2025-06-21 19:23:36.582
246.0, -42229.84370348975, -38003.55351013583, -28135.10187090658, -69583.10390509415, -27243.96017121794, -27912.322033920533, -51307.84825180152, -98603.93835353116, -187500.02235174447, -187500.02235174447, -45271.759661645854, -43987.29431477717, -77114.77006849887, -46932.181350252795, -85695.5824131468, -29870.357199949885, 0.0, 0.0, 0.0, 193.0, 0.0, 1.0, 1.0, 0.0, 0.0, 1.0, 1.0, 256.0, 1.0, 1.750526616590821E9, 0.0, 2025-06-21 19:23:36.590
248.0, -42224.59104354275, -38007.979155537985, -28130.005673170766, -69576.15251256854, -27219.99910116185, -27923.18498172581, -51317.45950191731, -98603.17839421969, -187500.02235174447, -187500.02235174447, -45223.05521047774, -43935.12534321849, -77079.94605063749, -46880.794689750044, -85693.50370091245, -29820.244588881087, 0.0, 0.0, 0.0, 193.0, 0.0, 1.0, 1.0, 0.0, 0.0, 1.0, 1.0, 256.0, 1.0, 1.75052661659769E9, 0.0, 2025-06-21 19:23:36.597
250.0, -42230.491904078954, -38019.60206265475, -28139.907495964468, -69595.26325407783, -27227.82221172121, -27865.673943242306, -51333.82097885859, -98605.81590006541, -187500.02235174447, -187500.02235174447, -45244.60229213265, -43969.144698279466, -77090.40666704258, -46921.74308559216, -85667.84389827776, -29856.499118387597, 0.0, 0.0, 0.0, 193.0, 0.0, 1.0, 1.0, 0.0, 0.0, 1.0, 1.0, 256.0, 1.0, 1.750526616605776E9, 0.0, 2025-06-21 19:23:36.605
252.0, -42239.05262220534, -38015.75756260843, -28152.67034204845, -69599.26421633533, -27290.49650317389, -27964.91568862387, -51347.38848774296, -98616.96942054862, -187500.02235174447, -187500.02235174447, -45244.62464387711, -43966.551895922654, -77108.06454516227, -46906.588602851465, -85714.84961686726, -29845.61381883786, 0.0, 0.0, 0.0, 193.0, 0.0, 1.0, 1.0, 0.0, 0.0, 1.0, 1.0, 256.0, 1.0, 1.750526616614811E9, 0.0, 2025-06-21 19:23:36.614
254.0, -42262.36549167222, -38034.86830411772, -28160.94048749691, -69618.06203342225, -27268.25651744086, -27920.033385757615, -51360.33014778259, -98635.25314751305, -187500.02235174447, -187500.02235174447, -45262.52839118581, -43982.980428097304, -77113.83129523174, -46934.64004214288, -85710.73689588749, -29869.53018540504, 0.0, 0.0, 0.0, 193.0, 0.0, 1.0, 1.0, 0.0, 0.0, 1.0, 1.0, 256.0, 1.0, 1.750526616621789E9, 0.0, 2025-06-21 19:23:36.621
0.0, -42224.38987784265, -37996.937393777065, -28152.67034204845, -69601.4770390364, -27258.265287669336, -27924.593141626498, -51342.046420818144, -98616.76825484852, -187500.02235174447, -187500.02235174447, -45263.511867941845, -43985.03678858719, -77112.42313533106, -46932.740143864175, -85698.95752655953, -29869.91016506078, 0.0, 0.0, 0.0, 193.0, 0.0, 1.0, 1.0, 0.0, 0.0, 1.0, 1.0, 256.0, 1.0, 1.750526616629824E9, 0.0, 2025-06-21 19:23:36.629
2.0, -42240.438430361566, -38021.591367911264, -28163.8462142761, -69615.55863804325, -27254.77841553431, -27960.646505432906, -51351.16593255591, -98633.86733935683, -187500.02235174447, -187500.02235174447, -45251.218408491426, -43972.38570122549, -77110.97027194146, -46914.836396555474, -85728.4394774961, -29853.839260797413, 0.0, 0.0, 0.0, 193.0, 0.0, 1.0, 1.0, 0.0, 0.0, 1.0, 1.0, 256.0, 1.0, 1.750526616638836E9, 0.0, 2025-06-21 19:23:36.638
4.0, -42247.188657187064, -38021.50196093344, -28168.00363874479, -69626.84626899318, -27245.748310774365, -27908.835161785504, -51363.861723406524, -98639.81290338194, -187500.02235174447, -187500.02235174447, -45276.00649309236, -44001.37591378402, -77119.88861797913, -46954.5330947081, -85695.67182012461, -29891.121970548866, 0.0, 0.0, 0.0, 193.0, 0.0, 1.0, 1.0, 0.0, 0.0, 1.0, 1.0, 256.0, 1.0, 1.750526616646909E9, 0.0, 2025-06-21 19:23:36.646
6.0, -42230.96129071251, -38018.328013220795, -28158.70531305138, -69606.55088502775, -27272.39159016509, -27978.751418441705, -51343.9686708413, -98620.79156885047, -187500.02235174447, -187500.02235174447, -45272.00553083486, -43992.61402995754, -77129.23164716145, -46932.06959153052, -85737.89426540068, -29870.46895867216, 0.0, 0.0, 0.0, 193.0, 0.0, 1.0, 1.0, 0.0, 0.0, 1.0, 1.0, 256.0, 1.0, 1.750526616653976E9, 0.0, 2025-06-21 19:23:36.653
8.0, -42260.21972420451, -38034.64478667317, -28165.567298599162, -69622.46532707993, -27278.314802445748, -27924.01199627066, -51355.16689481341, -98637.06363881394, -187500.02235174447, -187500.02235174447, -45262.99777781937, -43991.49644273477, -77116.13352491063, -46934.684745631785, -85708.09939004177, -29868.949040049203, 0.0, 0.0, 0.0, 193.0, 0.0, 1.0, 1.0, 0.0, 0.0, 1.0, 1.0, 256.0, 1.0, 1.750526616661983E9, 0.0, 2025-06-21 19:23:36.661
10.0, -42231.09540117924, -38004.29111770286, -28154.972571727347, -69602.19229485898, -27259.651095825568, -27960.937078110826, -51341.88995860696, -98620.38923745028, -187500.02235174447, -187500.02235174447, -45279.20279254947, -43997.84433816008, -77126.5494378268, -46944.139533536385, -85711.00511682095, -29878.940269820723, 0.0, 0.0, 0.0, 193.0, 0.0, 1.0, 1.0, 0.0, 0.0, 1.0, 1.0, 256.0, 1.0, 1.75052661667095E9, 0.0, 2025-06-21 19:23:36.670
