%OpenBCI Raw EXG Data
%Number of channels = 16
%Sample Rate = 125 Hz
%Board = OpenBCI_GUI$BoardCytonSerialDaisy
Sample Index, EXG Channel 0, EXG Channel 1, EXG Channel 2, EXG Channel 3, EXG Channel 4, EXG Channel 5, EXG Channel 6, EXG Channel 7, EXG Channel 8, EXG Channel 9, EXG Channel 10, EXG Channel 11, EXG Channel 12, EXG Channel 13, EXG Channel 14, EXG Channel 15, Accel Channel 0, Accel Channel 1, Accel Channel 2, Not Used, Digital Channel 0 (D11), Digital Channel 1 (D12), Digital Channel 2 (D13), Digital Channel 3 (D17), Not Used, Digital Channel 4 (D18), Analog Channel 0, Analog Channel 1, Analog Channel 2, Timestamp, Marker Channel, Timestamp (Formatted)
10.0, -44072.99090301882, -37478.66749509186, -29857.3484846769, -73714.71210893537, -27380.909309495608, -27732.032863144024, -52662.632186726594, -101675.26920739046, -187500.02235174447, -187500.02235174447, -48654.942054145584, -47103.44041626935, -77567.32583848547, -49146.65808041788, -88918.7933705799, -31872.604116511837, 0.0, 0.0, 0.0, 193.0, 0.0, 1.0, 1.0, 0.0, 0.0, 1.0, 1.0, 256.0, 1.0, 1.750529661475343E9, 0.0, 2025-06-21 20:14:21.475
12.0, -44111.92764185997, -37511.50220769671, -29872.190042995222, -73749.42436807447, -27386.072562464782, -27698.72876390562, -52688.47080331693, -101695.8998675227, -187500.02235174447, -187500.02235174447, -48658.85360942526, -47102.27812555768, -77561.76025411609, -49153.20714154329, -88901.40371339367, -31879.823729970904, 0.0, 0.0, 0.0, 193.0, 0.0, 1.0, 1.0, 0.0, 0.0, 1.0, 1.0, 256.0, 1.0, 1.750529661476713E9, 0.0, 2025-06-21 20:14:21.476
0.0, -22459.949250215202, -19135.350779932833, -15270.443590932322, -37192.07342768591, -13950.215452935154, -14314.705349767846, -26693.034373883533, -51184.44427066377, -93750.01117587223, -93750.01117587223, -24340.826194384837, -23566.695876919734, -38791.519557418775, -24594.496142208118, -44449.617797090745, -15957.647974210737, 0.0, 0.0, 0.0, 193.0, 0.0, 1.0, 1.0, 0.0, 0.0, 1.0, 1.0, 256.0, 1.0, 1.750529661562368E9, 0.0, 2025-06-21 20:14:21.562
2.0, -44910.063732870076, -38256.217629458624, -30543.211763287996, -74383.05161989351, -27896.117019190435, -28632.29407457043, -53394.249486237706, -102371.30252972872, -187500.02235174447, -187500.02235174447, -49396.86350785059, -47826.63110812082, -78201.713049616, -49818.14918734422, -89482.39260702046, -32616.269006284358, 0.0, 0.0, 0.0, 193.0, 0.0, 1.0, 1.0, 0.0, 0.0, 1.0, 1.0, 256.0, 1.0, 1.750529661569398E9, 0.0, 2025-06-21 20:14:21.569
4.0, -44893.43403499533, -38243.14185895227, -30523.430469445047, -74365.05846560698, -27894.306527889556, -28663.92179297469, -53393.1542507594, -102359.8137330787, -187500.02235174447, -187500.02235174447, -49388.88393508005, -47815.94697427118, -78203.09885777222, -49799.68664642413, -89548.64317758598, -32596.510064185866, 0.0, 0.0, 0.0, 193.0, 0.0, 1.0, 1.0, 0.0, 0.0, 1.0, 1.0, 256.0, 1.0, 1.750529661578435E9, 0.0, 2025-06-21 20:14:21.578
6.0, -44914.91406141687, -38264.957161540646, -30547.10096682322, -74393.22166362067, -27897.56988258003, -28606.81308589138, -53391.47786992525, -102380.93613158895, -187500.02235174447, -187500.02235174447, -49380.83730707614, -47817.645706849784, -78194.8063605793, -49802.34650401432, -89511.74044749027, -32599.326383987238, 0.0, 0.0, 0.0, 193.0, 0.0, 1.0, 1.0, 0.0, 0.0, 1.0, 1.0, 256.0, 1.0, 1.750529661586498E9, 0.0, 2025-06-21 20:14:21.586
8.0, -44873.87625859693, -38228.70263203414, -30500.676393589547, -74346.17124154225, -27866.61271650943, -28670.62731631128, -53372.12125922695, -102349.53193062925, -187500.02235174447, -187500.02235174447, -49381.01612103178, -47819.34443942839, -78194.8063605793, -49806.794501160926, -89501.01161015173, -32604.89196835661, 0.0, 0.0, 0.0, 193.0, 0.0, 1.0, 1.0, 0.0, 0.0, 1.0, 1.0, 256.0, 1.0, 1.750529661593505E9, 0.0, 2025-06-21 20:14:21.593
10.0, -44863.572104403036, -38219.49371331855, -30483.04086721431, -74329.67565413423, -27848.351341289443, -28627.242580323527, -53346.81908450354, -102335.45033162241, -187500.02235174447, -187500.02235174447, -49338.883082733526, -47770.86350570482, -78151.35456935818, -49742.533235851915, -89496.0271711382, -32543.089394937684, 0.0, 0.0, 0.0, 193.0, 0.0, 1.0, 1.0, 0.0, 0.0, 1.0, 1.0, 256.0, 1.0, 1.750529661601526E9, 0.0, 2025-06-21 20:14:21.601
12.0, -44891.176508805336, -38238.20212342765, -30510.868789061165, -74356.36363701387, -27874.100550901956, -28622.973397132566, -53373.26119819417, -102367.16745700449, -187500.02235174447, -187500.02235174447, -49364.65464409049, -47797.39502637328, -78170.5547178453, -49788.44371896311, -89451.65895839442, -32588.8434158377, 0.0, 0.0, 0.0, 193.0, 0.0, 1.0, 1.0, 0.0, 0.0, 1.0, 1.0, 256.0, 1.0, 1.750529661610571E9, 0.0, 2025-06-21 20:14:21.610
14.0, -44859.504086912166, -38207.51317829051, -30473.921355476545, -74316.66693886125, -27865.629239753394, -28657.305676615917, -53346.19323565879, -102336.94789850092, -187500.02235174447, -187500.02235174447, -49340.35829786758, -47770.19295337117, -78152.53921181432, -49755.51959938045, -89499.06700838411, -32555.181688688004, 0.0, 0.0, 0.0, 193.0, 0.0, 1.0, 1.0, 0.0, 0.0, 1.0, 1.0, 256.0, 1.0, 1.750529661617661E9, 0.0, 2025-06-21 20:14:21.617
16.0, -44900.340724032016, -38247.63455958779, -30517.171980997562, -74359.58228821543, -27865.85275719795, -28609.763516159477, -53353.68107005132, -102345.26274743829, -187500.02235174447, -187500.02235174447, -49347.91318749347, -47779.58068604239, -78156.20489790499, -49761.129887238734, -89467.95338010234, -32560.45670037946, 0.0, 0.0, 0.0, 193.0, 0.0, 1.0, 1.0, 0.0, 0.0, 1.0, 1.0, 256.0, 1.0, 1.750529661625674E9, 0.0, 2025-06-21 20:14:21.625
18.0, -44888.941334359806, -38233.86588500332, -30511.338175694727, -74344.74072989711, -27892.674850544317, -28645.705121243613, -53347.959023470765, -102323.98388671683, -187500.02235174447, -187500.02235174447, -49376.29990295171, -47804.77110204352, -78184.07752324075, -49790.634189919736, -89484.44896751034, -32588.284622226314, 0.0, 0.0, 0.0, 193.0, 0.0, 1.0, 1.0, 0.0, 0.0, 1.0, 1.0, 256.0, 1.0, 1.750529661633673E9, 0.0, 2025-06-21 20:14:21.633
20.0, -44897.03266585263, -38240.59376008437, -30522.33523396674, -74353.88259337934, -27902.33080414901, -28637.367920561785, -53346.66262229236, -102343.0052212483, -187500.02235174447, -187500.02235174447, -49364.49818187931, -47783.51459306653, -78171.73936030142, -49765.06379426287, -89527.4313720979, -32560.121424212626, 0.0, 0.0, 0.0, 193.0, 0.0, 1.0, 1.0, 0.0, 0.0, 1.0, 1.0, 256.0, 1.0, 1.750529661643717E9, 0.0, 2025-06-21 20:14:21.643
22.0, -44892.227040794736, -38236.5257425935, -30505.191445969518, -74345.9924275866, -27856.040341382068, -28604.108524812287, -53355.22334041874, -102329.86239550858, -187500.02235174447, -187500.02235174447, -49370.08611799313, -47794.93633448319, -78172.20874693498, -49787.28142825144, -89458.92327534239, -32581.377933189626, 0.0, 0.0, 0.0, 193.0, 0.0, 1.0, 1.0, 0.0, 0.0, 1.0, 1.0, 256.0, 1.0, 1.750529661649731E9, 0.0, 2025-06-21 20:14:21.649
24.0, -44885.365055246955, -38233.99999547005, -30488.114713205665, -74333.22958150263, -27870.32310608901, -28685.625336840792, -53357.83849452001, -102330.22002341987, -187500.02235174447, -187500.02235174447, -49358.28439692073, -47787.96259021314, -78174.44392138052, -49761.35340468329, -89504.85611019804, -32558.757967800855, 0.0, 0.0, 0.0, 193.0, 0.0, 1.0, 1.0, 0.0, 0.0, 1.0, 1.0, 256.0, 1.0, 1.750529661658774E9, 0.0, 2025-06-21 20:14:21.658
26.0, -44900.22896530974, -38258.27398994851, -30514.26625421837, -74363.82911966195, -27868.154986876845, -28613.272740038963, -53358.93372999832, -102353.24232020884, -187500.02235174447, -187500.02235174447, -49358.798487043205, -47793.01408446003, -78172.36520914617, -49768.952997798086, -89475.79884240615, -32565.955229515464, 0.0, 0.0, 0.0, 193.0, 0.0, 1.0, 1.0, 0.0, 0.0, 1.0, 1.0, 256.0, 1.0, 1.750529661665791E9, 0.0, 2025-06-21 20:14:21.665
28.0, -44867.841287594, -38222.75706800903, -30482.97381198094, -74330.68148263473, -27845.155041832335, -28630.148307102718, -53339.30889836656, -102325.36969487306, -187500.02235174447, -187500.02235174447, -49363.31353942318, -47801.68656130869, -78177.28259292633, -49777.87134383576, -89465.53939170115, -32575.722941842432, 0.0, 0.0, 0.0, 193.0, 0.0, 1.0, 1.0, 0.0, 0.0, 1.0, 1.0, 256.0, 1.0, 1.750529661673796E9, 0.0, 2025-06-21 20:14:21.673
30.0, -44883.17458429034, -38239.0738414614, -30485.924242249042, -74339.06338680547, -27866.79153046507, -28670.09087444435, -53340.0912094225, -102317.904212225, -187500.02235174447, -187500.02235174447, -49337.34081236611, -47768.561276025925, -78151.2428106359, -49737.1911689271, -89488.98637163478, -32535.735671011887, 0.0, 0.0, 0.0, 193.0, 0.0, 1.0, 1.0, 0.0, 0.0, 1.0, 1.0, 256.0, 1.0, 1.75052966168183E9, 0.0, 2025-06-21 20:14:21.681
32.0, -44903.13469208893, -38254.34008292438, -30524.74922236791, -74365.43844526273, -27877.050981170058, -28631.28824606994, -53363.00174748919, -102349.17430271796, -187500.02235174447, -187500.02235174447, -49375.89757155151, -47807.788587544994, -78182.51290112888, -49790.52243119746, -89456.48693519675, -32589.044581537793, 0.0, 0.0, 0.0, 193.0, 0.0, 1.0, 1.0, 0.0, 0.0, 1.0, 1.0, 256.0, 1.0, 1.750529661689891E9, 0.0, 2025-06-21 20:14:21.689
34.0, -44877.608999920965, -38219.0690301739, -30489.478169617436, -74326.90403782178, -27871.55245203405, -28664.56999356389, -53322.61214525845, -102319.04415119221, -187500.02235174447, -187500.02235174447, -49361.23482718883, -47786.37561635681, -78176.88026152614, -49766.13667799672, -89516.88134871499, -32562.669523080534, 0.0, 0.0, 0.0, 193.0, 0.0, 1.0, 1.0, 0.0, 0.0, 1.0, 1.0, 256.0, 1.0, 1.750529661697834E9, 0.0, 2025-06-21 20:14:21.697
36.0, -44904.60990722298, -38249.310940421936, -30527.40907995809, -74369.70762845369, -27881.968364950226, -28600.442838721614, -53345.589738558505, -102342.37937240355, -187500.02235174447, -187500.02235174447, -49361.23482718883, -47787.8284797464, -78170.7558835454, -49767.65659661968, -89477.87755464048, -32567.273982438324, 0.0, 0.0, 0.0, 193.0, 0.0, 1.0, 1.0, 0.0, 0.0, 1.0, 1.0, 256.0, 1.0, 1.750529661705918E9, 0.0, 2025-06-21 20:14:21.705
38.0, -44877.72075864324, -38215.20217838314, -30486.527739349338, -74328.60277040038, -27866.255088598144, -28636.295036827927, -53340.85116873398, -102326.39787511801, -187500.02235174447, -187500.02235174447, -49375.62935061805, -47804.12290145432, -78189.1513692321, -49790.768300386466, -89483.73371168778, -32588.999878048886, 0.0, 0.0, 0.0, 193.0, 0.0, 1.0, 1.0, 0.0, 0.0, 1.0, 1.0, 256.0, 1.0, 1.750529661714963E9, 0.0, 2025-06-21 20:14:21.714
40.0, -44890.125976815936, -38236.928073993695, -30501.615166856667, -74341.7455961401, -27880.649612027362, -28634.931580416156, -53352.854055506476, -102341.68646832544, -187500.02235174447, -187500.02235174447, -49347.91318749347, -47769.70121499315, -78160.76465377386, -49747.495323120995, -89501.3245345741, -32545.905714739052, 0.0, 0.0, 0.0, 193.0, 0.0, 1.0, 1.0, 0.0, 0.0, 1.0, 1.0, 256.0, 1.0, 1.750529661721965E9, 0.0, 2025-06-21 20:14:21.721
42.0, -44890.84123263851, -38238.93973099467, -30498.70944007748, -74345.59009618641, -27859.169585605814, -28608.28830102543, -53354.50808459617, -102343.2063869484, -187500.02235174447, -187500.02235174447, -49363.268835934265, -47795.60688681685, -78173.08046496875, -49782.654617149194, -89448.61912114848, -32579.5897936332, 0.0, 0.0, 0.0, 193.0, 0.0, 1.0, 1.0, 0.0, 0.0, 1.0, 1.0, 256.0, 1.0, 1.75052966172998E9, 0.0, 2025-06-21 20:14:21.729
44.0, -44871.4399184513, -38219.22549238509, -30477.855262500678, -74315.88462780531, -27869.07140839951, -28659.18322315016, -53327.30601159406, -102312.02570343325, -187500.02235174447, -187500.02235174447, -49346.88500724852, -47771.80227897195, -78163.29040089731, -49748.7917242994, -89495.53543276018, -32544.05051994926, 0.0, 0.0, 0.0, 193.0, 0.0, 1.0, 1.0, 0.0, 0.0, 1.0, 1.0, 256.0, 1.0, 1.750529661738032E9, 0.0, 2025-06-21 20:14:21.738
46.0, -44898.55258447559, -38237.26335016052, -30509.79590532731, -74351.6474189338, -27859.393103050366, -28602.52155095596, -53347.93667172631, -102332.52225309877, -187500.02235174447, -187500.02235174447, -49357.79265854271, -47781.726453510106, -78165.72674104295, -49756.70424183658, -89467.39458649095, -32551.20307817496, 0.0, 0.0, 0.0, 193.0, 0.0, 1.0, 1.0, 0.0, 0.0, 1.0, 1.0, 256.0, 1.0, 1.750529661746065E9, 0.0, 2025-06-21 20:14:21.746
48.0, -44890.57301170505, -38233.30709139194, -30497.345983665706, -74333.54250592501, -27878.816768982026, -28632.71875771508, -53347.37787811493, -102321.41343610447, -187500.02235174447, -187500.02235174447, -49370.08611799313, -47796.45625310615, -78179.80834004979, -49772.19400074411, -89473.20604004932, -32564.77058705933, 0.0, 0.0, 0.0, 193.0, 0.0, 1.0, 1.0, 0.0, 0.0, 1.0, 1.0, 256.0, 1.0, 1.750529661754101E9, 0.0, 2025-06-21 20:14:21.754
50.0, -44898.61963970896, -38236.88337050479, -30499.8493790447, -74336.47058444865, -27876.33572534749, -28651.091891657343, -53345.00859320266, -102329.61652631957, -187500.02235174447, -187500.02235174447, -49358.5526178542, -47777.50197380805, -78168.2971916553, -49741.192131184594, -89506.3313253321, -32535.646264034065, 0.0, 0.0, 0.0, 193.0, 0.0, 1.0, 1.0, 0.0, 0.0, 1.0, 1.0, 256.0, 1.0, 1.750529661762104E9, 0.0, 2025-06-21 20:14:21.762
52.0, -44915.56226200608, -38258.251638204056, -30518.401326942603, -74358.21883180366, -27889.746772020673, -28604.46615272357, -53353.18933167331, -102343.67577358196, -187500.02235174447, -187500.02235174447, -49383.07248152167, -47810.247279435076, -78188.57022387628, -49786.56617242887, -89463.617141678, -32580.997953533886, 0.0, 0.0, 0.0, 193.0, 0.0, 1.0, 1.0, 0.0, 0.0, 1.0, 1.0, 256.0, 1.0, 1.750529661771165E9, 0.0, 2025-06-21 20:14:21.771
54.0, -44882.3922732344, -38219.80663774093, -30489.679335317534, -74325.36176745436, -27879.04028642658, -28642.24060085304, -53337.967793699245, -102318.64181979201, -187500.02235174447, -187500.02235174447, -49361.50304812229, -47781.569991298915, -78173.25927892438, -49749.05994523287, -89504.4761305423, -32544.363444371636, 0.0, 0.0, 0.0, 193.0, 0.0, 1.0, 1.0, 0.0, 0.0, 1.0, 1.0, 256.0, 1.0, 1.750529661777166E9, 0.0, 2025-06-21 20:14:21.777
56.0, -44904.811072923076, -38244.684129319685, -30526.582065413248, -74365.21492781818, -27872.066542156525, -28601.068687566363, -53352.7422967842, -102352.34825043062, -187500.02235174447, -187500.02235174447, -49376.121088996064, -47793.2823053935, -78179.76363656088, -49777.625474646746, -89493.16614784792, -32571.610220862654, 0.0, 0.0, 0.0, 193.0, 0.0, 1.0, 1.0, 0.0, 0.0, 1.0, 1.0, 256.0, 1.0, 1.750529661786203E9, 0.0, 2025-06-21 20:14:21.786
58.0, -44875.95497083128, -38226.936844222175, -30472.647306042592, -74310.56491262495, -27857.582611749487, -28629.05307162441, -53347.064953692556, -102326.68844779592, -187500.02235174447, -187500.02235174447, -49364.07349873466, -47784.90040122276, -78170.86764226767, -49767.72365185305, -89461.15844978791, -32563.54124111429, 0.0, 0.0, 0.0, 193.0, 0.0, 1.0, 1.0, 0.0, 0.0, 1.0, 1.0, 256.0, 1.0, 1.750529661795233E9, 0.0, 2025-06-21 20:14:21.795
60.0, -44866.09785152649, -38225.819256999406, -30470.07685543023, -74317.9409882952, -27851.257068068633, -28630.304769313905, -53336.13495065391, -102321.65930529349, -187500.02235174447, -187500.02235174447, -49323.10275114808, -47751.082211861874, -78138.81524071876, -49723.511901320446, -89481.49853724224, -32521.654072005043, 0.0, 0.0, 0.0, 193.0, 0.0, 1.0, 1.0, 0.0, 0.0, 1.0, 1.0, 256.0, 1.0, 1.750529661802264E9, 0.0, 2025-06-21 20:14:21.802
62.0, -44882.45932846777, -38243.8794665193, -30495.08845747572, -74342.41614847376, -27853.29107681407, -28605.114353312776, -53351.71411653926, -102342.71464857039, -187500.02235174447, -187500.02235174447, -49343.77811476924, -47790.08600593639, -78157.52365082785, -49771.99283504401, -89442.65120537892, -32571.230241206915, 0.0, 0.0, 0.0, 193.0, 0.0, 1.0, 1.0, 0.0, 0.0, 1.0, 1.0, 256.0, 1.0, 1.750529661810281E9, 0.0, 2025-06-21 20:14:21.810
64.0, -44857.31361595555, -38220.208969141124, -30460.77852973682, -74302.85356078787, -27854.09573961446, -28669.375618621783, -53331.41873257384, -102308.51647955376, -187500.02235174447, -187500.02235174447, -49317.42540805643, -47759.486467777075, -78139.03875816331, -49732.16202642465, -89486.41592102242, -32528.359595341637, 0.0, 0.0, 0.0, 193.0, 0.0, 1.0, 1.0, 0.0, 0.0, 1.0, 1.0, 256.0, 1.0, 1.750529661818323E9, 0.0, 2025-06-21 20:14:21.818
66.0, -44877.29607549859, -38242.13603045178, -30495.60254759819, -74344.42780547474, -27838.98596036267, -28617.51957148547, -53362.21943643325, -102347.74379107283, -187500.02235174447, -187500.02235174447, -49330.76939949625, -47776.76436624103, -78149.29820886829, -49752.61387260126, -89461.89605735494, -32551.270133408325, 0.0, 0.0, 0.0, 193.0, 0.0, 1.0, 1.0, 0.0, 0.0, 1.0, 1.0, 256.0, 1.0, 1.750529661826399E9, 0.0, 2025-06-21 20:14:21.826
68.0, -44841.466229136735, -38204.42863755568, -30464.75714024987, -74311.45898240316, -27836.147288816846, -28638.083176384353, -53339.46536057775, -102312.62920053354, -187500.02235174447, -187500.02235174447, -49340.09007693411, -47790.48833733658, -78164.8550230092, -49764.840276818315, -89457.58217067507, -32562.513060869347, 0.0, 0.0, 0.0, 193.0, 0.0, 1.0, 1.0, 0.0, 0.0, 1.0, 1.0, 256.0, 1.0, 1.750529661833431E9, 0.0, 2025-06-21 20:14:21.833
70.0, -44854.56435138755, -38222.37708835329, -30478.302297389782, -74327.12755526633, -27850.161832590322, -28639.692501985133, -53326.97073542723, -102321.88282273804, -187500.02235174447, -187500.02235174447, -49307.03184688471, -47751.48454326207, -78132.22147610445, -49716.873433217224, -89477.76579591821, -32513.361574812126, 0.0, 0.0, 0.0, 193.0, 0.0, 1.0, 1.0, 0.0, 0.0, 1.0, 1.0, 256.0, 1.0, 1.75052966184142E9, 0.0, 2025-06-21 20:14:21.841
72.0, -44853.3350054425, -38223.2711581315, -30472.17791940903, -74333.34134022491, -27820.478715953675, -28598.408829976182, -53340.67235477833, -102326.21906116237, -187500.02235174447, -187500.02235174447, -49338.25723388878, -47790.398930358766, -78156.76369151637, -49768.03657627542, -89432.43645816285, -32569.173880717026, 0.0, 0.0, 0.0, 193.0, 0.0, 1.0, 1.0, 0.0, 0.0, 1.0, 1.0, 256.0, 1.0, 1.75052966185041E9, 0.0, 2025-06-21 20:14:21.850
74.0, -44844.43901114929, -38210.24009111406, -30456.039959912297, -74312.30834869246, -27838.114242328913, -28677.24343267005, -53324.2885260926, -102306.61658127507, -187500.02235174447, -187500.02235174447, -49321.85105345858, -47771.154078382744, -78146.92892395603, -49733.793703769894, -89475.12829007248, -32536.406223345548, 0.0, 0.0, 0.0, 193.0, 0.0, 1.0, 1.0, 0.0, 0.0, 1.0, 1.0, 256.0, 1.0, 1.75052966185737E9, 0.0, 2025-06-21 20:14:21.857
76.0, -44869.987055061705, -38229.41788785671, -30487.868844016655, -74341.58913392892, -27834.672073682796, -28593.6479084072, -53332.715133752245, -102328.67775305246, -187500.02235174447, -187500.02235174447, -49330.32236460714, -47776.540848796474, -78146.45953732247, -49747.71884056555, -89451.52484792768, -32549.191421173982, 0.0, 0.0, 0.0, 193.0, 0.0, 1.0, 1.0, 0.0, 0.0, 1.0, 1.0, 256.0, 1.0, 1.750529661865458E9, 0.0, 2025-06-21 20:14:21.865
78.0, -44852.70915659775, -38208.85428295783, -30474.301335132284, -74318.49978190659, -27846.920829644303, -28645.928638688165, -53321.49455803568, -102312.80801448919, -187500.02235174447, -187500.02235174447, -49342.48171359083, -47782.620523288315, -78161.03287470734, -49767.00839603048, -89454.60938866252, -32567.475148138423, 0.0, 0.0, 0.0, 193.0, 0.0, 1.0, 1.0, 0.0, 0.0, 1.0, 1.0, 256.0, 1.0, 1.750529661874435E9, 0.0, 2025-06-21 20:14:21.874
80.0, -44865.15907825936, -38221.79594299745, -30479.598698568192, -74327.75340411108, -27850.18418433478, -28648.633199767257, -53348.13783742641, -102338.19959619042, -187500.02235174447, -187500.02235174447, -49328.82479772864, -47759.64292998826, -78147.6441797786, -49740.74509629549, -89502.3750665635, -32539.982502458395, 0.0, 0.0, 0.0, 193.0, 0.0, 1.0, 1.0, 0.0, 0.0, 1.0, 1.0, 256.0, 1.0, 1.750529661882518E9, 0.0, 2025-06-21 20:14:21.882
82.0, -44851.41275541935, -38210.284794602965, -30476.312992133262, -74329.36272971187, -27826.089003811958, -28601.18044628864, -53341.387610600905, -102329.39300887502, -187500.02235174447, -187500.02235174447, -49340.268890889754, -47783.604000044346, -78155.37788336014, -49772.35046295529, -89432.30234769611, -32576.01351452035, 0.0, 0.0, 0.0, 193.0, 0.0, 1.0, 1.0, 0.0, 0.0, 1.0, 1.0, 256.0, 1.0, 1.750529661889508E9, 0.0, 2025-06-21 20:14:21.889
84.0, -44815.13587416839, -38182.14394833374, -30439.343206804184, -74293.19760718317, -27813.639082150352, -28662.357170862815, -53307.39060728438, -102299.21815386036, -187500.02235174447, -187500.02235174447, -49296.07949210161, -47742.34267977985, -78121.67145272154, -49719.89091871869, -89460.7114148988, -32522.972824927907, 0.0, 0.0, 0.0, 193.0, 0.0, 1.0, 1.0, 0.0, 0.0, 1.0, 1.0, 256.0, 1.0, 1.750529661897574E9, 0.0, 2025-06-21 20:14:21.897
86.0, -44861.76161310216, -38232.591835569365, -30490.08166671773, -74346.797090387, -27832.83923063746, -28565.66352434916, -53329.65294476187, -102339.09366596863, -187500.02235174447, -187500.02235174447, -49325.42733257143, -47771.77992722749, -78143.68792101002, -49759.25234070449, -89460.59965617654, -32562.334246913702, 0.0, 0.0, 0.0, 193.0, 0.0, 1.0, 1.0, 0.0, 0.0, 1.0, 1.0, 256.0, 1.0, 1.750529661906559E9, 0.0, 2025-06-21 20:14:21.906
88.0, -44837.7334878127, -38203.445160799645, -30463.572497793735, -74315.32583419394, -27837.84602139545, -28676.48347335857, -53319.41584580134, -102309.96934294335, -187500.02235174447, -187500.02235174447, -49326.45551281638, -47777.81489823043, -78146.77246174484, -49767.38837568622, -89457.42570846388, -32569.822081306233, 0.0, 0.0, 0.0, 193.0, 0.0, 1.0, 1.0, 0.0, 0.0, 1.0, 1.0, 256.0, 1.0, 1.750529661913617E9, 0.0, 2025-06-21 20:14:21.913
90.0, -44847.05416525056, -38213.81637022691, -30464.26540187185, -74314.90115104929, -27832.772175404094, -28647.00152242202, -53333.65390701937, -102324.94501172841, -187500.02235174447, -187500.02235174447, -49318.69945749038, -47759.97820615509, -78140.73749074191, -49732.9890409695, -89491.37800829149, -32535.288636122783, 0.0, 0.0, 0.0, 193.0, 0.0, 1.0, 1.0, 0.0, 0.0, 1.0, 1.0, 256.0, 1.0, 1.750529661921666E9, 0.0, 2025-06-21 20:14:21.921
92.0, -44868.98122656122, -38231.273082646505, -30484.717248048455, -74334.10129953639, -27842.204611564233, -28600.46519046607, -53339.86769197795, -102337.03730547873, -187500.02235174447, -187500.02235174447, -49336.75966701027, -47778.79837498646, -78149.47702282394, -49761.50986689447, -89431.18476047335, -32563.273020180826, 0.0, 0.0, 0.0, 193.0, 0.0, 1.0, 1.0, 0.0, 0.0, 1.0, 1.0, 256.0, 1.0, 1.75052966192971E9, 0.0, 2025-06-21 20:14:21.929
94.0, -44833.285490666094, -38194.213890339604, -30442.94183766149, -74289.62132807032, -27824.949064844735, -28654.578763792368, -53312.46445327574, -102299.70989223837, -187500.02235174447, -187500.02235174447, -49321.06874240265, -47758.011252643024, -78139.44108956351, -49729.4351136011, -89483.33138028758, -32529.85716222014, 0.0, 0.0, 0.0, 193.0, 0.0, 1.0, 1.0, 0.0, 0.0, 1.0, 1.0, 256.0, 1.0, 1.75052966193874E9, 0.0, 2025-06-21 20:14:21.938
96.0, -44853.0891362535, -38213.570501037895, -30466.41116933956, -74317.046918517, -27819.070556052993, -28593.960832829576, -53316.644229488884, -102317.12190116906, -187500.02235174447, -187500.02235174447, -49299.36519853654, -47740.532188478974, -78113.55776948427, -49712.3807325817, -89425.86504529299, -32512.847484689653, 0.0, 0.0, 0.0, 193.0, 0.0, 1.0, 1.0, 0.0, 0.0, 1.0, 1.0, 256.0, 1.0, 1.750529661945735E9, 0.0, 2025-06-21 20:14:21.945
98.0, -44846.11539198344, -38205.769742223, -30463.08075941572, -74311.10135449188, -27846.496146499652, -28616.066708095874, -53322.20981385825, -102309.81288073218, -187500.02235174447, -187500.02235174447, -49335.77619025424, -47782.352302354855, -78154.52851707084, -49752.30094817888, -89448.95439731532, -32553.125328198115, 0.0, 0.0, 0.0, 193.0, 0.0, 1.0, 1.0, 0.0, 0.0, 1.0, 1.0, 256.0, 1.0, 1.750529661953782E9, 0.0, 2025-06-21 20:14:21.953
100.0, -44848.23880770669, -38211.71530624811, -30466.634686784113, -74312.66597660375, -27835.74495741665, -28628.51662975748, -53313.06795037603, -102304.06848240715, -187500.02235174447, -187500.02235174447, -49313.13387312101, -47754.949063652646, -78133.45082204949, -49716.538157050396, -89482.41495876492, -32512.355746311638, 0.0, 0.0, 0.0, 193.0, 0.0, 1.0, 1.0, 0.0, 0.0, 1.0, 1.0, 256.0, 1.0, 1.750529661962768E9, 0.0, 2025-06-21 20:14:21.962
102.0, -44859.235865978706, -38222.80177149794, -30476.26828864435, -74325.38411919882, -27819.718756642196, -28596.441876464116, -53327.66363950535, -102319.33472387014, -187500.02235174447, -187500.02235174447, -49336.37968735453, -47778.10547090834, -78148.98528444592, -49757.10657323678, -89424.23336794775, -32553.706473553953, 0.0, 0.0, 0.0, 193.0, 0.0, 1.0, 1.0, 0.0, 0.0, 1.0, 1.0, 256.0, 1.0, 1.750529661969769E9, 0.0, 2025-06-21 20:14:21.969
104.0, -44825.171807428815, -38194.638573484255, -30440.12551786012, -74293.71169730565, -27817.014195563104, -28656.031627181965, -53312.64326723138, -102294.45723229137, -187500.02235174447, -187500.02235174447, -49316.17371036694, -47757.74303170956, -78137.51883954035, -49728.74220952299, -89470.3673685035, -32528.58311278619, 0.0, 0.0, 0.0, 193.0, 0.0, 1.0, 1.0, 0.0, 0.0, 1.0, 1.0, 256.0, 1.0, 1.750529661977819E9, 0.0, 2025-06-21 20:14:21.977
106.0, -44864.533229414614, -38227.629748300285, -30481.386838124614, -74335.26359024807, -27831.811050392516, -28600.28637651043, -53336.626689031924, -102332.83517752113, -187500.02235174447, -187500.02235174447, -49317.24659410079, -47762.1239736228, -78134.21078136096, -49739.9404334951, -89443.67938562387, -32537.903790224052, 0.0, 0.0, 0.0, 193.0, 0.0, 1.0, 1.0, 0.0, 0.0, 1.0, 1.0, 256.0, 1.0, 1.75052966198585E9, 0.0, 2025-06-21 20:14:21.985
108.0, -44839.61103434695, -38197.81252119691, -30461.516137303846, -74304.41818289974, -27844.21626856521, -28632.651702481715, -53325.719037737734, -102312.27157262225, -187500.02235174447, -187500.02235174447, -49330.411771584964, -47775.06563366242, -78149.05233967929, -49758.35827092627, -89446.65216763642, -32555.807537532753, 0.0, 0.0, 0.0, 193.0, 0.0, 1.0, 1.0, 0.0, 0.0, 1.0, 1.0, 256.0, 1.0, 1.750529661994899E9, 0.0, 2025-06-21 20:14:21.994
110.0, -44840.01336574714, -38199.75712296452, -30458.453948313472, -74303.27824393252, -27829.687634669262, -28620.157077331198, -53310.40809278585, -102293.22788634633, -187500.02235174447, -187500.02235174447, -49313.33503882111, -47748.087078104865, -78131.9979586599, -49723.89188097619, -89482.92904888738, -32519.374194070602, 0.0, 0.0, 0.0, 193.0, 0.0, 1.0, 1.0, 0.0, 0.0, 1.0, 1.0, 256.0, 1.0, 1.750529662001908E9, 0.0, 2025-06-21 20:14:22.001
112.0, -44876.93844758731, -38228.70263203414, -30505.99610876991, -74347.95938109868, -27846.719663944205, -28610.590530704325, -53337.87838672142, -102331.15879668698, -187500.02235174447, -187500.02235174447, -49333.0939809196, -47772.8751627058, -78146.88422046712, -49754.37966041323, -89419.80772254559, -32552.030092719808, 0.0, 0.0, 0.0, 193.0, 0.0, 1.0, 1.0, 0.0, 0.0, 1.0, 1.0, 256.0, 1.0, 1.750529662009957E9, 0.0, 2025-06-21 20:14:22.009
114.0, -44857.38067118891, -38212.810541726416, -30478.615221812157, -74319.70677610717, -27843.925695887294, -28639.536039773946, -53305.110729349944, -102300.98394167233, -187500.02235174447, -187500.02235174447, -49352.53999859572, -47789.46015709164, -78172.2534504239, -49758.51473313746, -89504.40907530894, -32557.193345688982, 0.0, 0.0, 0.0, 193.0, 0.0, 1.0, 1.0, 0.0, 0.0, 1.0, 1.0, 256.0, 1.0, 1.750529662017979E9, 0.0, 2025-06-21 20:14:22.017
116.0, -44869.160040516865, -38232.54713208046, -30489.16524519506, -74343.46668046316, -27825.50785845612, -28591.278623494938, -53327.41777031634, -102325.92848848445, -187500.02235174447, -187500.02235174447, -49341.252367645786, -47778.574857541906, -78156.11549092716, -49753.82086680185, -89457.09043229705, -32553.572363087223, 0.0, 0.0, 0.0, 193.0, 0.0, 1.0, 1.0, 0.0, 0.0, 1.0, 1.0, 256.0, 1.0, 1.750529662026013E9, 0.0, 2025-06-21 20:14:22.026
118.0, -44846.07068849453, -38209.68129750268, -30473.69783803199, -74321.80784008597, -27830.82757363648, -28650.62250502378, -53317.44889228927, -102316.74192151331, -187500.02235174447, -187500.02235174447, -49332.646946030494, -47779.02189243101, -78153.25446763689, -49762.62745411724, -89446.31689146959, -32561.596639346677, 0.0, 0.0, 0.0, 193.0, 0.0, 1.0, 1.0, 0.0, 0.0, 1.0, 1.0, 256.0, 1.0, 1.750529662034033E9, 0.0, 2025-06-21 20:14:22.034
120.0, -44843.92492102682, -38212.40821032622, -30466.724093761935, -74321.07023251895, -27802.574968644974, -28641.95002817512, -53315.19136609929, -102313.79149124521, -187500.02235174447, -187500.02235174447, -49321.113445891555, -47760.671110233205, -78139.99988317488, -49736.43120961561, -89485.83477566658, -32533.09816516616, 0.0, 0.0, 0.0, 193.0, 0.0, 1.0, 1.0, 0.0, 0.0, 1.0, 1.0, 256.0, 1.0, 1.750529662042062E9, 0.0, 2025-06-21 20:14:22.042
122.0, -44851.85979030845, -38219.314899362915, -30476.02241945534, -74327.32872096643, -27818.467058952698, -28603.549731200903, -53324.42263655933, -102320.56406981517, -187500.02235174447, -187500.02235174447, -49331.50700706327, -47777.233752874585, -78144.24671462139, -49763.633282617724, -89422.86991153598, -32561.976619002417, 0.0, 0.0, 0.0, 193.0, 0.0, 1.0, 1.0, 0.0, 0.0, 1.0, 1.0, 256.0, 1.0, 1.750529662050093E9, 0.0, 2025-06-21 20:14:22.050
124.0, -44817.19223465827, -38181.205175066614, -30440.192573093485, -74286.7379530356, -27815.717794384695, -28635.691539727635, -53304.97661888321, -102285.00244438679, -187500.02235174447, -187500.02235174447, -49311.50219577577, -47752.847999673846, -78131.05918539276, -49728.67515428962, -89473.04957783814, -32525.364461584624, 0.0, 0.0, 0.0, 193.0, 0.0, 1.0, 1.0, 0.0, 0.0, 1.0, 1.0, 256.0, 1.0, 1.750529662057136E9, 0.0, 2025-06-21 20:14:22.057
126.0, -44865.78492710411, -38230.46841984611, -30483.97964048143, -74334.10129953639, -27842.36107377542, -28592.03858280642, -53323.84149120349, -102320.0499796927, -187500.02235174447, -187500.02235174447, -49312.32921032062, -47754.83730493037, -78126.67824347953, -49737.928776494125, -89445.17695250237, -32535.3780431006, 0.0, 0.0, 0.0, 193.0, 0.0, 1.0, 1.0, 0.0, 0.0, 1.0, 1.0, 256.0, 1.0, 1.750529662066154E9, 0.0, 2025-06-21 20:14:22.066
128.0, -44855.033738021106, -38217.45970457312, -30466.92525946203, -74310.07317424694, -27852.933448902782, -28628.38251929075, -53319.25938359015, -102308.2482586203, -187500.02235174447, -187500.02235174447, -49338.19017865541, -47786.465023334626, -78155.80256650479, -49764.63911111822, -89455.861086352, -32560.993142246385, 0.0, 0.0, 0.0, 193.0, 0.0, 1.0, 1.0, 0.0, 0.0, 1.0, 1.0, 256.0, 1.0, 1.750529662074188E9, 0.0, 2025-06-21 20:14:22.074
130.0, -44844.43901114929, -38207.93786143516, -30455.74938723438, -74300.57368285343, -27826.2678177676, -28607.57304520286, -53315.45958703275, -102310.9975231883, -187500.02235174447, -187500.02235174447, -49310.38460855301, -47748.75763043852, -78127.5946650022, -49718.72862800701, -89476.11176682852, -32513.450981789945, 0.0, 0.0, 0.0, 193.0, 0.0, 1.0, 1.0, 0.0, 0.0, 1.0, 1.0, 256.0, 1.0, 1.750529662082143E9, 0.0, 2025-06-21 20:14:22.082
132.0, -44849.714022840744, -38211.84941671484, -30465.60650653917, -74312.040127759, -27833.018044593104, -28595.860731108278, -53317.04656088907, -102316.76427325777, -187500.02235174447, -187500.02235174447, -49333.071629175145, -47770.79645047146, -78142.03389192032, -49757.12892498123, -89422.08760048004, -32551.784223530798, 0.0, 0.0, 0.0, 193.0, 0.0, 1.0, 1.0, 0.0, 0.0, 1.0, 1.0, 256.0, 1.0, 1.750529662089182E9, 0.0, 2025-06-21 20:14:22.089
134.0, -44837.44291513478, -38201.835835198865, -30446.45106154097, -74294.27049091703, -27834.448556238243, -28664.793511008444, -53338.1913111438, -102311.91394471098, -187500.02235174447, -187500.02235174447, -49309.80346319717, -47744.77901992548, -78125.51595276785, -49726.93171822211, -89469.87563012549, -32522.503438294345, 0.0, 0.0, 0.0, 193.0, 0.0, 1.0, 1.0, 0.0, 0.0, 1.0, 1.0, 256.0, 1.0, 1.750529662098204E9, 0.0, 2025-06-21 20:14:22.098
136.0, -44863.013310791655, -38223.20410289813, -30478.816387512255, -74330.1450407678, -27844.08215809848, -28582.650850135193, -53319.2817353346, -102327.0013722183, -187500.02235174447, -187500.02235174447, -49316.62074525604, -47751.238674073065, -78126.29826382379, -49737.66055556066, -89438.38202218796, -32535.467450078424, 0.0, 0.0, 0.0, 193.0, 0.0, 1.0, 1.0, 0.0, 0.0, 1.0, 1.0, 256.0, 1.0, 1.75052966210642E9, 0.0, 2025-06-21 20:14:22.106
138.0, -44855.369014187934, -38216.14095165026, -30472.021457197843, -74320.66790111875, -27835.99082660566, -28629.47775476906, -53334.99501168669, -102324.87795649505, -187500.02235174447, -187500.02235174447, -49341.63234730153, -47779.91596220923, -78152.06982518075, -49767.43307917513, -89458.9679788313, -32565.463491137445, 0.0, 0.0, 0.0, 193.0, 0.0, 1.0, 1.0, 0.0, 0.0, 1.0, 1.0, 256.0, 1.0, 1.750529662113415E9, 0.0, 2025-06-21 20:14:22.113
140.0, -44847.12122048393, -38206.64146025675, -30454.83296571171, -74309.53673238, -27814.01906180609, -28608.534170214436, -53335.71026750926, -102318.68652328092, -187500.02235174447, -187500.02235174447, -49320.688762746904, -47759.3747090548, -78138.5470197853, -49728.36222986725, -89481.92322038689, -32528.493705808367, 0.0, 0.0, 0.0, 193.0, 0.0, 1.0, 1.0, 0.0, 0.0, 1.0, 1.0, 256.0, 1.0, 1.750529662121384E9, 0.0, 2025-06-21 20:14:22.121
142.0, -44863.08036602502, -38221.50537031953, -30476.111826433164, -74331.21792450166, -27821.573951431987, -28584.506044924983, -53334.480921564216, -102327.31429664067, -187500.02235174447, -187500.02235174447, -49325.78496048271, -47775.04328191797, -78141.67626400903, -49757.39714591469, -89420.4559231348, -32557.930953256007, 0.0, 0.0, 0.0, 193.0, 0.0, 1.0, 1.0, 0.0, 0.0, 1.0, 1.0, 256.0, 1.0, 1.750529662130414E9, 0.0, 2025-06-21 20:14:22.130
144.0, -44825.28356615109, -38185.27319255748, -30434.895209657578, -74285.75447627956, -27819.227018264177, -28614.81501040638, -53299.07575834701, -102290.9480084119, -187500.02235174447, -187500.02235174447, -49311.681009731416, -47755.865485175316, -78135.57423777274, -49732.944337480585, -89480.06802559711, -32531.086508165183, 0.0, 0.0, 0.0, 193.0, 0.0, 1.0, 1.0, 0.0, 0.0, 1.0, 1.0, 256.0, 1.0, 1.750529662137382E9, 0.0, 2025-06-21 20:14:22.137
146.0, -44862.789793347096, -38228.61322505632, -30477.69880028949, -74333.31898848046, -27826.17841078978, -28574.045428519898, -53331.262270362655, -102329.77298853076, -187500.02235174447, -187500.02235174447, -49307.411826540454, -47754.814953185916, -78125.40419404558, -49733.32431713633, -89437.9126355544, -32530.125383153605, 0.0, 0.0, 0.0, 193.0, 0.0, 1.0, 1.0, 0.0, 0.0, 1.0, 1.0, 256.0, 1.0, 1.750529662145458E9, 0.0, 2025-06-21 20:14:22.145
148.0, -44841.756801814656, -38205.59092826735, -30463.348980349183, -74308.10622073487, -27848.239582567167, -28629.298940813416, -53320.064046390544, -102309.43290107643, -187500.02235174447, -187500.02235174447, -49331.93169020792, -47776.09381390737, -78147.51006931187, -49762.62745411724, -89452.79889736163, -32556.947476499976, 0.0, 0.0, 0.0, 193.0, 0.0, 1.0, 1.0, 0.0, 0.0, 1.0, 1.0, 256.0, 1.0, 1.750529662154456E9, 0.0, 2025-06-21 20:14:22.154
150.0, -44854.40788917636, -38215.89508246125, -30471.239146141907, -74322.1431162528, -27839.477698740688, -28630.930618158654, -53336.336116354, -102322.82159600516, -187500.02235174447, -187500.02235174447, -49314.29616383269, -47749.78581068347, -78129.91924642555, -49722.37196235323, -89482.52671748718, -32516.53552252478, 0.0, 0.0, 0.0, 193.0, 0.0, 1.0, 1.0, 0.0, 0.0, 1.0, 1.0, 256.0, 1.0, 1.750529662161528E9, 0.0, 2025-06-21 20:14:22.161
152.0, -44864.6896916258, -38221.50537031953, -30482.102093947185, -74328.28984597801, -27829.061785824513, -28594.117295040764, -53338.41482858835, -102329.1024361971, -187500.02235174447, -187500.02235174447, -49348.315518893665, -47791.76238677053, -78161.88224099664, -49767.701300108594, -89431.29651919563, -32565.128214970617, 0.0, 0.0, 0.0, 193.0, 0.0, 1.0, 1.0, 0.0, 0.0, 1.0, 1.0, 256.0, 1.0, 1.750529662169542E9, 0.0, 2025-06-21 20:14:22.169
154.0, -44846.24950245017, -38202.14875962124, -30465.27123037234, -74300.8866072758, -27846.02675986609, -28642.039435152943, -53319.05821789005, -102298.39113931551, -187500.02235174447, -187500.02235174447, -49328.57892853963, -47758.34652880985, -78145.65487452208, -49732.69846829158, -89486.08064485558, -32526.10206915165, 0.0, 0.0, 0.0, 193.0, 0.0, 1.0, 1.0, 0.0, 0.0, 1.0, 1.0, 256.0, 1.0, 1.750529662177596E9, 0.0, 2025-06-21 20:14:22.177
156.0, -44873.02689230763, -38235.09523094836, -30501.391649412115, -74342.3490932404, -27833.219210293202, -28583.522568168948, -53325.517872037635, -102326.30846814018, -187500.02235174447, -187500.02235174447, -49340.85003624559, -47773.14338363927, -78151.66749378055, -49749.6410905887, -89462.32074049959, -32545.25751414985, 0.0, 0.0, 0.0, 193.0, 0.0, 1.0, 1.0, 0.0, 0.0, 1.0, 1.0, 256.0, 1.0, 1.750529662186638E9, 0.0, 2025-06-21 20:14:22.186
158.0, -44853.02208102013, -38208.9213381912, -30478.682277045522, -74319.37149994035, -27828.23477127967, -28591.457437450583, -53328.08832265, -102311.82453773315, -187500.02235174447, -187500.02235174447, -49348.159056682474, -47781.368825598816, -78161.97164797445, -49763.298006450896, -89457.82803986408, -32559.942610256985, 0.0, 0.0, 0.0, 193.0, 0.0, 1.0, 1.0, 0.0, 0.0, 1.0, 1.0, 256.0, 1.0, 1.750529662193617E9, 0.0, 2025-06-21 20:14:22.193
160.0, -44865.36024395946, -38221.684184275175, -30484.963117237465, -74331.15086926828, -27838.404815006834, -28622.95104538811, -53331.97752618522, -102321.03345644874, -187500.02235174447, -187500.02235174447, -49330.9929169408, -47760.73816546657, -78147.04068267831, -49734.017221214446, -89491.60152573604, -32529.477182564402, 0.0, 0.0, 0.0, 193.0, 0.0, 1.0, 1.0, 0.0, 0.0, 1.0, 1.0, 256.0, 1.0, 1.750529662201695E9, 0.0, 2025-06-21 20:14:22.201
162.0, -44874.747976630686, -38233.083573947384, -30497.010707498874, -74346.64062817581, -27831.90045737034, -28584.304879224885, -53337.69957276578, -102331.31525889818, -187500.02235174447, -187500.02235174447, -49356.31744340866, -47797.97617172911, -78172.11933995716, -49781.537029926425, -89445.89220832493, -32576.72877034292, 0.0, 0.0, 0.0, 193.0, 0.0, 1.0, 1.0, 0.0, 0.0, 1.0, 1.0, 256.0, 1.0, 1.750529662209693E9, 0.0, 2025-06-21 20:14:22.209
164.0, -44822.042563205076, -38184.55793673491, -30436.862163169644, -74288.05670595846, -27805.324233212978, -28619.039490108433, -53276.947531336256, -102268.84213314559, -187500.02235174447, -187500.02235174447, -49323.75095173728, -47770.01413941552, -78151.55573505828, -49736.520616593436, -89483.19726982084, -32530.326548853704, 0.0, 0.0, 0.0, 193.0, 0.0, 1.0, 1.0, 0.0, 0.0, 1.0, 1.0, 256.0, 1.0, 1.750529662217723E9, 0.0, 2025-06-21 20:14:22.217
166.0, -44897.77027341966, -38265.35949294084, -30511.13700999463, -74366.33251504094, -27845.199745321246, -28614.01034760599, -53345.32151762504, -102346.78266606125, -187500.02235174447, -187500.02235174447, -49323.348620337085, -47777.97136044161, -78149.52172631284, -49741.57211084034, -89447.32271997008, -32537.501458823856, 0.0, 0.0, 0.0, 193.0, 0.0, 1.0, 1.0, 0.0, 0.0, 1.0, 1.0, 256.0, 1.0, 1.750529662225747E9, 0.0, 2025-06-21 20:14:22.225
168.0, -44860.621674134934, -38224.545207565454, -30478.190538667506, -74316.2869592055, -27840.93056213028, -28615.686728440134, -53323.30504933656, -102315.04318893471, -187500.02235174447, -187500.02235174447, -49359.15611495449, -47809.12969221231, -78183.58578486273, -49779.12304152525, -89470.9708656038, -32573.376008674626, 0.0, 0.0, 0.0, 193.0, 0.0, 1.0, 1.0, 0.0, 0.0, 1.0, 1.0, 256.0, 1.0, 1.750529662233788E9, 0.0, 2025-06-21 20:14:22.233
170.0, -44858.61001713396, -38220.09721041885, -30468.154605407075, -74309.04499400199, -27833.040396337557, -28611.32813827135, -53320.153453368366, -102309.27643886524, -187500.02235174447, -187500.02235174447, -49316.41957955594, -47747.75180193804, -78134.7472232279, -49715.88995646119, -89482.77258667619, -32508.10891486513, 0.0, 0.0, 0.0, 193.0, 0.0, 1.0, 1.0, 0.0, 0.0, 1.0, 1.0, 256.0, 1.0, 1.750529662241881E9, 0.0, 2025-06-21 20:14:22.241
172.0, -44876.64787490939, -38234.29056814797, -30489.99225973991, -74330.94970356819, -27840.416472007808, -28591.65860315068, -53327.685991249804, -102317.68069478044, -187500.02235174447, -187500.02235174447, -49353.61288232957, -47792.030607704, -78165.9502584875, -49770.13764025422, -89438.22555997677, -32566.58107836021, 0.0, 0.0, 0.0, 193.0, 0.0, 1.0, 1.0, 0.0, 0.0, 1.0, 1.0, 256.0, 1.0, 1.7505296622488E9, 0.0, 2025-06-21 20:14:22.248
174.0, -44865.47200268174, -38219.35960285182, -30478.101131689684, -74314.02943301552, -27853.916925658814, -28638.217286851086, -53301.757967681646, -102294.97132241385, -187500.02235174447, -187500.02235174447, -49334.122161164545, -47762.03456664498, -78148.8958774681, -49732.877282247224, -89486.10299660004, -32527.86785696362, 0.0, 0.0, 0.0, 193.0, 0.0, 1.0, 1.0, 0.0, 0.0, 1.0, 1.0, 256.0, 1.0, 1.750529662257813E9, 0.0, 2025-06-21 20:14:22.257
176.0, -44903.91700314487, -38259.72685333811, -30518.13310600914, -74359.2023085597, -27860.309524573033, -28577.264079721463, -53332.53631979661, -102332.54460484322, -187500.02235174447, -187500.02235174447, -49365.88399003554, -47792.09766293737, -78172.2534504239, -49762.98508202852, -89478.14577557395, -32557.327456155715, 0.0, 0.0, 0.0, 193.0, 0.0, 1.0, 1.0, 0.0, 0.0, 1.0, 1.0, 256.0, 1.0, 1.750529662265862E9, 0.0, 2025-06-21 20:14:22.265
178.0, -44869.38355796142, -38225.685146532676, -30478.145835178595, -74318.5891888844, -27851.79350993556, -28623.80041167741, -53340.828816989524, -102317.12190116906, -187500.02235174447, -187500.02235174447, -49366.062803991175, -47799.56314558544, -78178.46723538247, -49770.763489098965, -89464.24299052275, -32566.961058015953, 0.0, 0.0, 0.0, 193.0, 0.0, 1.0, 1.0, 0.0, 0.0, 1.0, 1.0, 256.0, 1.0, 1.750529662273913E9, 0.0, 2025-06-21 20:14:22.273
180.0, -44881.60996217847, -38240.03496647298, -30494.261442930874, -74337.25289550459, -27845.89264939936, -28623.018100621477, -53358.41963987585, -102334.73507579984, -187500.02235174447, -187500.02235174447, -49336.893777477, -47764.20268585714, -78151.30986586928, -49730.507997334964, -89493.47907227029, -32525.52092379581, 0.0, 0.0, 0.0, 193.0, 0.0, 1.0, 1.0, 0.0, 0.0, 1.0, 1.0, 256.0, 1.0, 1.750529662280914E9, 0.0, 2025-06-21 20:14:22.280
182.0, -44889.16485180436, -38245.734661309085, -30503.090381990718, -74346.05948281998, -27863.08114088549, -28586.294184481405, -53374.13291622793, -102358.04794526672, -187500.02235174447, -187500.02235174447, -49371.71779533837, -47806.44748287767, -78181.57412786176, -49785.71680613957, -89456.79985961913, -32581.713209356454, 0.0, 0.0, 0.0, 193.0, 0.0, 1.0, 1.0, 0.0, 0.0, 1.0, 1.0, 256.0, 1.0, 1.750529662289949E9, 0.0, 2025-06-21 20:14:22.289
184.0, -44867.79658410509, -38222.71236452012, -30474.390742110103, -74319.03622377351, -27868.33380083249, -28647.493260800038, -53345.1427036694, -102328.07425595216, -187500.02235174447, -187500.02235174447, -49342.97345196885, -47777.36786334132, -78163.2456974084, -49748.344689410296, -89501.79392120766, -32543.044691448773, 0.0, 0.0, 0.0, 193.0, 0.0, 1.0, 1.0, 0.0, 0.0, 1.0, 1.0, 256.0, 1.0, 1.750529662298964E9, 0.0, 2025-06-21 20:14:22.298
186.0, -44876.44670920929, -38241.06314671793, -30479.442236357005, -74332.76019486907, -27825.88783811186, -28552.207774187063, -53337.967793699245, -102339.80892179119, -187500.02235174447, -187500.02235174447, -49335.016230942754, -47773.523363295004, -78151.8463077362, -49749.68579407762, -89460.64435966544, -32546.48686009489, 0.0, 0.0, 0.0, 193.0, 0.0, 1.0, 1.0, 0.0, 0.0, 1.0, 1.0, 256.0, 1.0, 1.750529662305042E9, 0.0, 2025-06-21 20:14:22.305
188.0, -44855.34666244348, -38225.66279478822, -30457.55987853526, -74308.50855213506, -27826.089003811958, -28632.606998992804, -53330.09997965098, -102313.41151158948, -187500.02235174447, -187500.02235174447, -49337.65373678848, -47783.604000044346, -78161.90459274109, -49756.592483114306, -89441.80183908962, -32554.622895076624, 0.0, 0.0, 0.0, 193.0, 0.0, 1.0, 1.0, 0.0, 0.0, 1.0, 1.0, 256.0, 1.0, 1.750529662314023E9, 0.0, 2025-06-21 20:14:22.314
190.0, -44852.507990897655, -38226.04277444396, -30465.98648619491, -74318.83505807341, -27829.84409688045, -28616.08905984033, -53308.061159618046, -102303.26381960677, -187500.02235174447, -187500.02235174447, -49313.916184176946, -47751.90922640672, -78137.27297035135, -49721.03085768591, -89474.122461572, -32516.46846729141, 0.0, 0.0, 0.0, 193.0, 0.0, 1.0, 1.0, 0.0, 0.0, 1.0, 1.0, 256.0, 1.0, 1.750529662322047E9, 0.0, 2025-06-21 20:14:22.322
192.0, -44878.48071795473, -38249.42269914421, -30485.83483527122, -74333.43074720273, -27831.296960270043, -28587.90351008219, -53315.43723528829, -102312.33862785563, -187500.02235174447, -187500.02235174447, -49337.2961088772, -47787.56025881294, -78155.80256650479, -49761.6439773612, -89430.40244941741, -32555.71813055493, 0.0, 0.0, 0.0, 193.0, 0.0, 1.0, 1.0, 0.0, 0.0, 1.0, 1.0, 256.0, 1.0, 1.750529662329049E9, 0.0, 2025-06-21 20:14:22.329
194.0, -44878.97245633274, -38247.32163516541, -30484.136102692617, -74323.55127615348, -27855.50389951514, -28663.698275530136, -53343.64513679089, -102326.9566687294, -187500.02235174447, -187500.02235174447, -49343.62165255805, -47783.045206432966, -78165.77144453186, -49753.97732901303, -89502.75504621924, -32546.82213626172, 0.0, 0.0, 0.0, 193.0, 0.0, 1.0, 1.0, 0.0, 0.0, 1.0, 1.0, 256.0, 1.0, 1.750529662337167E9, 0.0, 2025-06-21 20:14:22.337
196.0, -44898.48552924222, -38256.06116724744, -30512.85809431769, -74350.70864566669, -27857.80612919404, -28591.81506536187, -53346.215587403254, -102337.43963687893, -187500.02235174447, -187500.02235174447, -49352.4505916179, -47785.99563670107, -78164.452691609, -49764.03561401792, -89477.45287149583, -32557.59567708918, 0.0, 0.0, 0.0, 193.0, 0.0, 1.0, 1.0, 0.0, 0.0, 1.0, 1.0, 256.0, 1.0, 1.750529662346129E9, 0.0, 2025-06-21 20:14:22.346
198.0, -44876.11143304246, -38230.87075124631, -30489.433466128525, -74322.00900578607, -27866.344495575966, -28624.22509482206, -53324.7355609817, -102308.38236908703, -187500.02235174447, -187500.02235174447, -49364.56523711267, -47793.77404377151, -78174.51097661388, -49774.18330600063, -89477.38581626247, -32566.11169172665, 0.0, 0.0, 0.0, 193.0, 0.0, 1.0, 1.0, 0.0, 0.0, 1.0, 1.0, 256.0, 1.0, 1.750529662354156E9, 0.0, 2025-06-21 20:14:22.354
200.0, -44870.903476584375, -38227.361527366826, -30476.22358515544, -74317.67276736174, -27843.053977853535, -28610.09879232631, -53348.85309324898, -102317.63599129154, -187500.02235174447, -187500.02235174447, -49337.20670189938, -47762.9733399121, -78150.57225830224, -49730.06096244585, -89496.58596474958, -32523.24104586137, 0.0, 0.0, 0.0, 193.0, 0.0, 1.0, 1.0, 0.0, 0.0, 1.0, 1.0, 256.0, 1.0, 1.750529662361155E9, 0.0, 2025-06-21 20:14:22.361
202.0, -44880.268857511146, -38237.79979202745, -30489.053486472785, -74333.36369196937, -27846.384387777376, -28561.327285924828, -53323.6850289923, -102320.56406981517, -187500.02235174447, -187500.02235174447, -49345.63330955903, -47781.39117734328, -78155.15436591559, -49757.30773893687, -89429.7095453393, -32553.39354913158, 0.0, 0.0, 0.0, 193.0, 0.0, 1.0, 1.0, 0.0, 0.0, 1.0, 1.0, 256.0, 1.0, 1.750529662369197E9, 0.0, 2025-06-21 20:14:22.369
204.0, -44866.433127693315, -38225.93101572168, -30466.679390273024, -74307.41331665675, -27852.195841335757, -28635.937408916645, -53315.50429052166, -102305.47664230784, -187500.02235174447, -187500.02235174447, -49346.43797235942, -47780.85473547634, -78164.54209858681, -49742.22031142954, -89494.95428740434, -32537.00972044584, 0.0, 0.0, 0.0, 193.0, 0.0, 1.0, 1.0, 0.0, 0.0, 1.0, 1.0, 256.0, 1.0, 1.750529662378223E9, 0.0, 2025-06-21 20:14:22.378
206.0, -44887.466119225755, -38252.306074178945, -30490.439294629014, -74339.10809029438, -27826.066652067504, -28559.248573690486, -53328.31184009455, -102322.03928494922, -187500.02235174447, -187500.02235174447, -49333.697478019894, -47769.5224010375, -78147.53242105633, -49734.39720087018, -89444.84167633553, -32530.25949362034, 0.0, 0.0, 0.0, 193.0, 0.0, 1.0, 1.0, 0.0, 0.0, 1.0, 1.0, 256.0, 1.0, 1.750529662385263E9, 0.0, 2025-06-21 20:14:22.385
208.0, -44853.3350054425, -38218.890216218264, -30461.739654748402, -74308.82147655744, -27836.12493707239, -28630.215362336086, -53318.49942427867, -102298.14527012651, -187500.02235174447, -187500.02235174447, -49348.82960901614, -47790.95772397015, -78166.01731372086, -49762.47099190605, -89455.03407180717, -32559.383816645604, 0.0, 0.0, 0.0, 193.0, 0.0, 1.0, 1.0, 0.0, 0.0, 1.0, 1.0, 256.0, 1.0, 1.750529662393309E9, 0.0, 2025-06-21 20:14:22.393
210.0, -44868.91417132785, -38233.3741466253, -30480.783341024322, -74328.84863958939, -27842.763405175618, -28621.408775020693, -53314.38670329889, -102314.73026451234, -187500.02235174447, -187500.02235174447, -49321.0910941471, -47757.094831120354, -78140.82689771973, -49720.226194885516, -89478.5704587186, -32515.797914957755, 0.0, 0.0, 0.0, 193.0, 0.0, 1.0, 1.0, 0.0, 0.0, 1.0, 1.0, 256.0, 1.0, 1.75052966240135E9, 0.0, 2025-06-21 20:14:22.401
212.0, -44873.83155510802, -38237.71038504963, -30486.95242249399, -74339.35395948339, -27828.83826837996, -28580.438027434117, -53338.77245649963, -102326.9566687294, -187500.02235174447, -187500.02235174447, -49354.21637942987, -47802.29005840899, -78172.76754054637, -49778.407785702686, -89443.6123303905, -32575.320610442235, 0.0, 0.0, 0.0, 193.0, 0.0, 1.0, 1.0, 0.0, 0.0, 1.0, 1.0, 256.0, 1.0, 1.750529662410368E9, 0.0, 2025-06-21 20:14:22.410
214.0, -44852.97737753122, -38215.22453012759, -30466.41116933956, -74310.07317424694, -27833.576838204484, -28639.62544675177, -53315.01255214364, -102297.74293872631, -187500.02235174447, -187500.02235174447, -49333.205739641875, -47776.473793563106, -78158.41772060606, -49743.53906435241, -89492.49559551425, -32540.071909436218, 0.0, 0.0, 0.0, 193.0, 0.0, 1.0, 1.0, 0.0, 0.0, 1.0, 1.0, 256.0, 1.0, 1.750529662417406E9, 0.0, 2025-06-21 20:14:22.417
216.0, -44893.83636639552, -38255.41296665823, -30507.47132390396, -74356.11776782486, -27848.194879078255, -28591.099809539297, -53346.148532169886, -102332.61166007658, -187500.02235174447, -187500.02235174447, -49339.28541413372, -47782.57581979941, -78157.0989676832, -49752.47976213453, -89466.63462717946, -32549.660807807544, 0.0, 0.0, 0.0, 193.0, 0.0, 1.0, 1.0, 0.0, 0.0, 1.0, 1.0, 256.0, 1.0, 1.750529662425419E9, 0.0, 2025-06-21 20:14:22.425
218.0, -44878.34660748799, -38237.062184460425, -30497.41303889907, -74333.00606405808, -27854.74394020366, -28604.063821323376, -53327.820101716534, -102318.21713664736, -187500.02235174447, -187500.02235174447, -49369.840248804125, -47812.46010213615, -78188.99490702093, -49783.28046599394, -89482.68317969838, -32580.282697711315, 0.0, 0.0, 0.0, 193.0, 0.0, 1.0, 1.0, 0.0, 0.0, 1.0, 1.0, 256.0, 1.0, 1.750529662434438E9, 0.0, 2025-06-21 20:14:22.434
220.0, -44862.18629624681, -38229.08261168988, -30473.56372756526, -74318.67859586222, -27830.760518403116, -28605.159056801687, -53320.198156857274, -102309.87993596554, -187500.02235174447, -187500.02235174447, -49339.82185600065, -47772.6739970057, -78159.15532817309, -49736.7888375269, -89507.56067127713, -32531.28767386528, 0.0, 0.0, 0.0, 193.0, 0.0, 1.0, 1.0, 0.0, 0.0, 1.0, 1.0, 256.0, 1.0, 1.750529662441478E9, 0.0, 2025-06-21 20:14:22.441
222.0, -44871.4399184513, -38237.1739431827, -30489.724038806446, -74337.49876469359, -27840.617637707906, -28578.85105357779, -53341.65583153437, -102329.16949143047, -187500.02235174447, -187500.02235174447, -49346.95206248189, -47794.9810379721, -78162.88806949712, -49765.13084949623, -89438.7620018437, -32563.250668436373, 0.0, 0.0, 0.0, 193.0, 0.0, 1.0, 1.0, 0.0, 0.0, 1.0, 1.0, 256.0, 1.0, 1.750529662449503E9, 0.0, 2025-06-21 20:14:22.449
224.0, -44848.08234549551, -38211.02240216999, -30461.627896026122, -74305.60282535588, -27840.997617363646, -28635.13274611625, -53335.6879157648, -102310.86341272158, -187500.02235174447, -187500.02235174447, -49322.20868136987, -47761.18520035568, -78144.38082508813, -49730.59740431278, -89483.51019424322, -32527.353766841148, 0.0, 0.0, 0.0, 193.0, 0.0, 1.0, 1.0, 0.0, 0.0, 1.0, 1.0, 256.0, 1.0, 1.750529662457585E9, 0.0, 2025-06-21 20:14:22.457
226.0, -44892.137633816914, -38252.19431545667, -30513.640405373622, -74354.28492477952, -27848.016065122614, -28585.869501336754, -53336.31376460955, -102340.81475029168, -187500.02235174447, -187500.02235174447, -49341.67705079044, -47780.85473547634, -78157.32248512775, -49748.29998592138, -89463.05834806661, -32544.788127516287, 0.0, 0.0, 0.0, 193.0, 0.0, 1.0, 1.0, 0.0, 0.0, 1.0, 1.0, 256.0, 1.0, 1.750529662467583E9, 0.0, 2025-06-21 20:14:22.467
228.0, -44871.819898107045, -38234.51408559252, -30490.863977773664, -74328.96039831167, -27848.261934311624, -28613.98799586153, -53341.29820362308, -102322.73218902735, -187500.02235174447, -187500.02235174447, -49374.13178373955, -47810.381389901806, -78190.29130819933, -49779.05598629189, -89480.22448780829, -32574.69476159749, 0.0, 0.0, 0.0, 193.0, 0.0, 1.0, 1.0, 0.0, 0.0, 1.0, 1.0, 256.0, 1.0, 1.750529662473581E9, 0.0, 2025-06-21 20:14:22.473
230.0, -44875.48558419771, -38238.47034436111, -30497.055410987785, -74337.85639260488, -27841.064672597015, -28617.027833107455, -53336.492578565194, -102321.54754657121, -187500.02235174447, -187500.02235174447, -49340.11242867857, -47772.94221793917, -78160.0941014402, -49733.8384072588, -89496.09422637156, -32530.035976175783, 0.0, 0.0, 0.0, 193.0, 0.0, 1.0, 1.0, 0.0, 0.0, 1.0, 1.0, 256.0, 1.0, 1.750529662481625E9, 0.0, 2025-06-21 20:14:22.481
232.0, -44896.54092747461, -38255.86000154734, -30516.680242619546, -74358.93408762623, -27849.2230593232, -28586.67416413715, -53346.26029089216, -102330.08591295313, -187500.02235174447, -187500.02235174447, -49375.227019217855, -47812.72832306961, -78189.82192156577, -49785.89562009521, -89461.20315327683, -32579.656848866565, 0.0, 0.0, 0.0, 193.0, 0.0, 1.0, 1.0, 0.0, 0.0, 1.0, 1.0, 256.0, 1.0, 1.750529662489599E9, 0.0, 2025-06-21 20:14:22.489
234.0, -44869.80824110607, -38229.66375704572, -30491.489826618414, -74326.81463084396, -27853.55929774753, -28633.18814434864, -53336.64904077638, -102310.90811621048, -187500.02235174447, -187500.02235174447, -49362.12889696704, -47795.71864553913, -78186.08918024173, -49758.93941628211, -89518.55772954914, -32551.225429919417, 0.0, 0.0, 0.0, 193.0, 0.0, 1.0, 1.0, 0.0, 0.0, 1.0, 1.0, 256.0, 1.0, 1.750529662497681E9, 0.0, 2025-06-21 20:14:22.497
236.0, -44887.13084305893, -38248.77449855501, -30512.41105942858, -74360.40930276028, -27840.617637707906, -28558.08628297881, -53327.685991249804, -102328.81186351918, -187500.02235174447, -187500.02235174447, -49350.57304508365, -47791.98590421509, -78169.52653760035, -49753.642052846204, -89469.29448476965, -32548.140889184582, 0.0, 0.0, 0.0, 193.0, 0.0, 1.0, 1.0, 0.0, 0.0, 1.0, 1.0, 256.0, 1.0, 1.750529662505691E9, 0.0, 2025-06-21 20:14:22.505
238.0, -44861.471040424236, -38224.209931398625, -30483.242032914408, -74326.70287212168, -27835.856716138926, -28603.549731200903, -53324.24382260368, -102308.31531385367, -187500.02235174447, -187500.02235174447, -49367.046280747214, -47813.82355854793, -78190.22425296596, -49778.385433958225, -89474.74831041675, -32575.320610442235, 0.0, 0.0, 0.0, 193.0, 0.0, 1.0, 1.0, 0.0, 0.0, 1.0, 1.0, 256.0, 1.0, 1.750529662513716E9, 0.0, 2025-06-21 20:14:22.513
240.0, -44901.88299439943, -38261.44793766116, -30519.42950718755, -74361.19161381622, -27860.64480073986, -28635.512725771994, -53347.15436067038, -102339.60775609109, -187500.02235174447, -187500.02235174447, -49342.928748479935, -47778.440747075176, -78165.43616836502, -49733.25726190296, -89497.14475836096, -32528.8289819752, 0.0, 0.0, 0.0, 193.0, 0.0, 1.0, 1.0, 0.0, 0.0, 1.0, 1.0, 256.0, 1.0, 1.750529662522783E9, 0.0, 2025-06-21 20:14:22.522
242.0, -44905.928660145844, -38264.398367929265, -30528.79488811432, -74367.49480575262, -27849.267762812113, -28585.42246644765, -53355.6927270523, -102347.14029397254, -187500.02235174447, -187500.02235174447, -49398.87516485157, -47829.26861396654, -78213.00068056592, -49803.26292553698, -89476.20117380633, -32599.214625264958, 0.0, 0.0, 0.0, 193.0, 0.0, 1.0, 1.0, 0.0, 0.0, 1.0, 1.0, 256.0, 1.0, 1.750529662528768E9, 0.0, 2025-06-21 20:14:22.528
244.0, -44877.474889454235, -38235.877542004295, -30503.917396535566, -74340.53860193952, -27851.27941981309, -28635.646836238724, -53340.40413384487, -102317.14425291351, -187500.02235174447, -187500.02235174447, -49375.227019217855, -47805.978096244115, -78196.08041001325, -49767.56718964186, -89523.94449996288, -32561.998970746874, 0.0, 0.0, 0.0, 193.0, 0.0, 1.0, 1.0, 0.0, 0.0, 1.0, 1.0, 256.0, 1.0, 1.750529662537811E9, 0.0, 2025-06-21 20:14:22.537
246.0, -44910.533119503634, -38269.025179031516, -30532.66173990509, -74376.7484279571, -27863.662286241328, -28584.32723096934, -53353.85988400697, -102346.29092768324, -187500.02235174447, -187500.02235174447, -49369.147344726014, -47807.31920091143, -78186.29034594183, -49769.377680942736, -89485.03011286618, -32563.29537192528, 0.0, 0.0, 0.0, 193.0, 0.0, 1.0, 1.0, 0.0, 0.0, 1.0, 1.0, 256.0, 1.0, 1.750529662545825E9, 0.0, 2025-06-21 20:14:22.545
248.0, -44875.731453386725, -38230.75899252403, -30498.329460421737, -74334.63774140332, -27860.980076906693, -28605.31551901287, -53330.92699419582, -102313.21034588938, -187500.02235174447, -187500.02235174447, -49382.11135651009, -47818.070389994435, -78200.6625176266, -49787.72846314055, -89490.5733454911, -32579.746255844388, 0.0, 0.0, 0.0, 193.0, 0.0, 1.0, 1.0, 0.0, 0.0, 1.0, 1.0, 256.0, 1.0, 1.750529662552918E9, 0.0, 2025-06-21 20:14:22.552
250.0, -44882.88401161242, -38244.21474268613, -30504.23032095794, -74351.78152940054, -27850.161832590322, -28607.84126613632, -53329.56353778405, -102319.33472387014, -187500.02235174447, -187500.02235174447, -49355.42337363045, -47786.330912867896, -78175.60621209219, -49743.89669226369, -89509.05823815565, -32538.350825113157, 0.0, 0.0, 0.0, 193.0, 0.0, 1.0, 1.0, 0.0, 0.0, 1.0, 1.0, 256.0, 1.0, 1.750529662560911E9, 0.0, 2025-06-21 20:14:22.560
252.0, -44893.411683250866, -38250.562638111434, -30512.79103908432, -74360.09637833791, -27838.94125687376, -28576.101789009786, -53356.47503810824, -102337.7525613013, -187500.02235174447, -187500.02235174447, -49373.282417450246, -47818.18214871671, -78190.62658436615, -49785.53799218393, -89456.75515613022, -32581.154415745073, 0.0, 0.0, 0.0, 193.0, 0.0, 1.0, 1.0, 0.0, 0.0, 1.0, 1.0, 256.0, 1.0, 1.750529662569939E9, 0.0, 2025-06-21 20:14:22.569
254.0, -44872.4904504407, -38238.31388214992, -30484.069047459252, -74329.36272971187, -27858.141405360868, -28623.554542488404, -53333.60920353046, -102318.77593025875, -187500.02235174447, -187500.02235174447, -49354.23873117432, -47792.477642593105, -78176.16500570357, -49750.490456878004, -89504.49848228676, -32544.497554838366, 0.0, 0.0, 0.0, 193.0, 0.0, 1.0, 1.0, 0.0, 0.0, 1.0, 1.0, 256.0, 1.0, 1.750529662577996E9, 0.0, 2025-06-21 20:14:22.577
0.0, -44912.99181139372, -38271.37211219932, -30522.42464094456, -74365.61725921837, -27847.36786453341, -28601.314556755373, -53355.84918926349, -102339.8536252801, -187500.02235174447, -187500.02235174447, -49366.82276330266, -47805.26284042154, -78182.22232845097, -49764.3932419292, -89479.91156338592, -32559.07089222323, 0.0, 0.0, 0.0, 193.0, 0.0, 1.0, 1.0, 0.0, 0.0, 1.0, 1.0, 256.0, 1.0, 1.750529662585003E9, 0.0, 2025-06-21 20:14:22.585
2.0, -44887.801395392584, -38242.314844407425, -30502.352774423693, -74340.22567751714, -27851.03355062408, -28625.09681285582, -53335.28558436461, -102323.06746519417, -187500.02235174447, -187500.02235174447, -49388.14632751302, -47818.36096267235, -78201.98127054946, -49787.16966952916, -89486.90765940043, -32581.154415745073, 0.0, 0.0, 0.0, 193.0, 0.0, 1.0, 1.0, 0.0, 0.0, 1.0, 1.0, 256.0, 1.0, 1.750529662593035E9, 0.0, 2025-06-21 20:14:22.593
4.0, -44883.554563946076, -38241.1749054402, -30494.999050497896, -74337.9457995827, -27844.66330345432, -28601.985109089033, -53321.047523146575, -102313.0985871671, -187500.02235174447, -187500.02235174447, -49350.37187938355, -47780.16183139823, -78169.99592423391, -49740.38746838421, -89511.89690970146, -32533.54520005527, 0.0, 0.0, 0.0, 193.0, 0.0, 1.0, 1.0, 0.0, 0.0, 1.0, 1.0, 256.0, 1.0, 1.750529662602062E9, 0.0, 2025-06-21 20:14:22.602
6.0, -44903.17939557784, -38260.95619928315, -30515.383841441137, -74363.02445686156, -27857.51555651612, -28583.030829790932, -53351.20002641679, -102338.57957584615, -187500.02235174447, -187500.02235174447, -49371.740147082826, -47810.381389901806, -78186.96089827549, -49778.56424791387, -89455.34699622953, -32574.918279042042, 0.0, 0.0, 0.0, 193.0, 0.0, 1.0, 1.0, 0.0, 0.0, 1.0, 1.0, 256.0, 1.0, 1.750529662609087E9, 0.0, 2025-06-21 20:14:22.609
8.0, -44874.949142330785, -38235.29639664846, -30485.52191084885, -74328.93804656721, -27850.765329690617, -28648.074406155876, -53330.055276162064, -102317.01014244679, -187500.02235174447, -187500.02235174447, -49361.77126905576, -47800.05488396346, -78185.53038663034, -49757.55360812588, -89514.13208414699, -32553.974694487417, 0.0, 0.0, 0.0, 193.0, 0.0, 1.0, 1.0, 0.0, 0.0, 1.0, 1.0, 256.0, 1.0, 1.750529662617088E9, 0.0, 2025-06-21 20:14:22.617
10.0, -44897.747921675196, -38256.37409166981, -30509.170056482562, -74357.63768644782, -27845.04328311006, -28571.45262616308, -53336.716096009746, -102333.90806125499, -187500.02235174447, -187500.02235174447, -49356.31744340866, -47793.50582283805, -78172.85694752418, -49756.97246277004, -89470.23325803677, -32552.6335898201, 0.0, 0.0, 0.0, 193.0, 0.0, 1.0, 1.0, 0.0, 0.0, 1.0, 1.0, 256.0, 1.0, 1.750529662626109E9, 0.0, 2025-06-21 20:14:22.626
12.0, -44887.91315411487, -38240.057318217434, -30499.71526857797, -74339.01868331655, -27866.635068253883, -28619.464173253084, -53336.89490996539, -102325.34734312861, -187500.02235174447, -187500.02235174447, -49368.901475537, -47803.385293887295, -78184.61396510768, -49775.63616939022, -89475.8211941506, -32571.856090051664, 0.0, 0.0, 0.0, 193.0, 0.0, 1.0, 1.0, 0.0, 0.0, 1.0, 1.0, 256.0, 1.0, 1.750529662634159E9, 0.0, 2025-06-21 20:14:22.634
14.0, -44879.017159821655, -38236.74926003805, -30489.79109403981, -74332.49197393561, -27840.617637707906, -28588.059972293377, -53317.87357543392, -102308.15885164248, -187500.02235174447, -187500.02235174447, -49351.53417009523, -47777.83724997488, -78166.44199686551, -49739.40399162817, -89506.7336567323, -32534.931008211497, 0.0, 0.0, 0.0, 193.0, 0.0, 1.0, 1.0, 0.0, 0.0, 1.0, 1.0, 256.0, 1.0, 1.750529662641164E9, 0.0, 2025-06-21 20:14:22.641
16.0, -44897.16677631936, -38257.3799201703, -30514.46741991847, -74357.54827947001, -27846.764367433116, -28544.07173920533, -53341.387610600905, -102330.97998273135, -187500.02235174447, -187500.02235174447, -49364.878161535045, -47804.10054970987, -78177.59551734872, -49770.18234374313, -89445.33341471356, -32567.475148138423, 0.0, 0.0, 0.0, 193.0, 0.0, 1.0, 1.0, 0.0, 0.0, 1.0, 1.0, 256.0, 1.0, 1.750529662649197E9, 0.0, 2025-06-21 20:14:22.649
18.0, -44865.42729919282, -38219.89604471875, -30475.933012477522, -74316.46577316115, -27847.971361633703, -28634.14926936022, -53320.01934290163, -102299.06169164917, -187500.02235174447, -187500.02235174447, -49357.05505097569, -47788.34256986887, -78176.52263361486, -49750.51280862246, -89508.94647943336, -32547.35857812865, 0.0, 0.0, 0.0, 193.0, 0.0, 1.0, 1.0, 0.0, 0.0, 1.0, 1.0, 256.0, 1.0, 1.750529662658209E9, 0.0, 2025-06-21 20:14:22.658
20.0, -44908.18618633583, -38263.03491151749, -30521.32940546625, -74363.98558187313, -27857.716722216217, -28594.676088652148, -53350.14949442739, -102339.92068051347, -187500.02235174447, -187500.02235174447, -49357.122106209055, -47788.72254952462, -78171.31467715677, -49755.49724763599, -89473.83188889407, -32552.43242412, 0.0, 0.0, 0.0, 193.0, 0.0, 1.0, 1.0, 0.0, 0.0, 1.0, 1.0, 256.0, 1.0, 1.750529662665216E9, 0.0, 2025-06-21 20:14:22.665
22.0, -44883.68867441281, -38235.4752106041, -30489.589928339712, -74330.41326170127, -27833.442727737754, -28616.75961217399, -53328.736523239204, -102309.4999563098, -187500.02235174447, -187500.02235174447, -49372.701272094404, -47809.77789280151, -78190.76069483289, -49774.63034088974, -89475.93295287287, -32570.91731678454, 0.0, 0.0, 0.0, 193.0, 0.0, 1.0, 1.0, 0.0, 0.0, 1.0, 1.0, 256.0, 1.0, 1.750529662673264E9, 0.0, 2025-06-21 20:14:22.673
24.0, -44898.75375017569, -38251.63552184529, -30494.596719097703, -74339.33160773893, -27846.02675986609, -28604.779077145944, -53337.49840706568, -102321.4581395934, -187500.02235174447, -187500.02235174447, -49345.722716536846, -47778.82072673091, -78167.62663932165, -49732.85493050277, -89499.55874676214, -32528.180781385992, 0.0, 0.0, 0.0, 193.0, 0.0, 1.0, 1.0, 0.0, 0.0, 1.0, 1.0, 256.0, 1.0, 1.750529662681294E9, 0.0, 2025-06-21 20:14:22.681
26.0, -44904.20757582278, -38264.19720222917, -30506.532550636835, -74352.8544131344, -27847.45727151123, -28575.766512842958, -53334.23505237521, -102326.46493035137, -187500.02235174447, -187500.02235174447, -49371.76249882728, -47812.50480562506, -78186.53621513084, -49775.54676241241, -89450.67548163838, -32571.230241206915, 0.0, 0.0, 0.0, 193.0, 0.0, 1.0, 1.0, 0.0, 0.0, 1.0, 1.0, 256.0, 1.0, 1.750529662690365E9, 0.0, 2025-06-21 20:14:22.690
28.0, -44881.14057554491, -38238.4256408722, -30483.130274192128, -74326.65816863277, -27856.532079760087, -28623.86746691078, -53331.41873257384, -102312.13746215553, -187500.02235174447, -187500.02235174447, -49357.323271909154, -47794.62341006081, -78178.24371793792, -49746.869474276245, -89503.89498518646, -32542.687063537487, 0.0, 0.0, 0.0, 193.0, 0.0, 1.0, 1.0, 0.0, 0.0, 1.0, 1.0, 256.0, 1.0, 1.750529662697423E9, 0.0, 2025-06-21 20:14:22.697
30.0, -44895.155119318384, -38249.22153344411, -30501.302242434293, -74350.90981136679, -27845.13269008788, -28568.12221623924, -53336.13495065391, -102323.06746519417, -187500.02235174447, -187500.02235174447, -49351.28830090622, -47789.57191581392, -78167.31371489927, -49751.56334061186, -89465.09235681205, -32547.984426973395, 0.0, 0.0, 0.0, 193.0, 0.0, 1.0, 1.0, 0.0, 0.0, 1.0, 1.0, 256.0, 1.0, 1.750529662706062E9, 0.0, 2025-06-21 20:14:22.706
32.0, -44886.32618025854, -38244.63942583078, -30495.80371329829, -74334.45892744767, -27856.040341382068, -28629.969493147077, -53328.20008137228, -102314.30558136769, -187500.02235174447, -187500.02235174447, -49361.25717893329, -47800.32310489692, -78181.64118309513, -49766.85193381929, -89467.28282776866, -32562.15543295806, 0.0, 0.0, 0.0, 193.0, 0.0, 1.0, 1.0, 0.0, 0.0, 1.0, 1.0, 256.0, 1.0, 1.750529662713518E9, 0.0, 2025-06-21 20:14:22.713
34.0, -44906.778026435146, -38264.04074001798, -30515.249730974407, -74354.26257303507, -27872.290059601077, -28619.844152908823, -53354.97747122973, -102338.42311363497, -187500.02235174447, -187500.02235174447, -49358.48556262083, -47791.583572814896, -78180.85887203919, -49750.06577373335, -89517.06016267063, -32546.24099090588, 0.0, 0.0, 0.0, 193.0, 0.0, 1.0, 1.0, 0.0, 0.0, 1.0, 1.0, 256.0, 1.0, 1.750529662721534E9, 0.0, 2025-06-21 20:14:22.721
36.0, -44910.667229970364, -38262.923152795214, -30518.826010087254, -74352.72030266766, -27863.103492629947, -28569.709190095567, -53355.91624449685, -102340.09949446912, -187500.02235174447, -187500.02235174447, -49384.2571239778, -47816.729285327114, -78196.92977630255, -49789.96363758608, -89467.68515916886, -32585.513005913857, 0.0, 0.0, 0.0, 193.0, 0.0, 1.0, 1.0, 0.0, 0.0, 1.0, 1.0, 256.0, 1.0, 1.750529662729512E9, 0.0, 2025-06-21 20:14:22.729
38.0, -44886.907325614375, -38243.767707797015, -30493.099152219198, -74326.7922790995, -27862.187071107277, -28609.71881267057, -53330.45760756226, -102313.83619473413, -187500.02235174447, -187500.02235174447, -49368.7003098369, -47790.75655827005, -78184.01046800739, -49757.86653254826, -89523.09513367357, -32550.241953163382, 0.0, 0.0, 0.0, 193.0, 0.0, 1.0, 1.0, 0.0, 0.0, 1.0, 1.0, 256.0, 1.0, 1.750529662737544E9, 0.0, 2025-06-21 20:14:22.737
40.0, -44906.28628805713, -38267.393501686274, -30512.388707684127, -74355.6036777024, -27845.4232627658, -28578.716943111056, -53339.10773266647, -102331.94110774292, -187500.02235174447, -187500.02235174447, -49366.845115047116, -47799.965476985635, -78181.03768599483, -49761.86749480576, -89479.39747326345, -32558.266229422836, 0.0, 0.0, 0.0, 193.0, 0.0, 1.0, 1.0, 0.0, 0.0, 1.0, 1.0, 256.0, 1.0, 1.750529662746579E9, 0.0, 2025-06-21 20:14:22.746
42.0, -44864.06384278105, -38227.830914000384, -30467.953439706976, -74311.92836903673, -27822.445669465742, -28604.46615272357, -53320.5334330241, -102299.24050560482, -187500.02235174447, -187500.02235174447, -49344.78394326973, -47783.76046225554, -78165.48087185394, -49747.5400266099, -89447.81445834809, -32544.139926927084, 0.0, 0.0, 0.0, 193.0, 0.0, 1.0, 1.0, 0.0, 0.0, 1.0, 1.0, 256.0, 1.0, 1.750529662753585E9, 0.0, 2025-06-21 20:14:22.753
44.0, -44904.22992756724, -38264.688940607186, -30502.241015701416, -74348.22760203214, -27861.963553662725, -28625.52149600047, -53341.320555367536, -102338.51252061279, -187500.02235174447, -187500.02235174447, -49349.008422971776, -47787.1802791572, -78171.96287774597, -49737.23587241601, -89501.54805201865, -32533.858124477643, 0.0, 0.0, 0.0, 193.0, 0.0, 1.0, 1.0, 0.0, 0.0, 1.0, 1.0, 256.0, 1.0, 1.750529662761642E9, 0.0, 2025-06-21 20:14:22.761
46.0, -44910.15313984789, -38269.04753077597, -30513.528646651346, -74356.6542096918, -27851.480585513185, -28583.075533279844, -53357.525570097634, -102349.5542823737, -187500.02235174447, -187500.02235174447, -49376.18814422943, -47817.80216906097, -78193.1076280007, -49775.122079267756, -89449.64730139343, -32571.811386562753, 0.0, 0.0, 0.0, 193.0, 0.0, 1.0, 1.0, 0.0, 0.0, 1.0, 1.0, 256.0, 1.0, 1.750529662769645E9, 0.0, 2025-06-21 20:14:22.769
48.0, -44883.46515696826, -38241.93486475168, -30493.970870252953, -74329.51919192306, -27852.374655291398, -28633.8586966823, -53343.2428053907, -102310.28226736574, -187500.02235174447, -187500.02235174447, -49361.23482718883, -47793.61758156033, -78182.28938368433, -49745.48366612002, -89507.29245034367, -32540.988330958884, 0.0, 0.0, 0.0, 193.0, 0.0, 1.0, 1.0, 0.0, 0.0, 1.0, 1.0, 256.0, 1.0, 1.750529662777667E9, 0.0, 2025-06-21 20:14:22.777
50.0, -44906.53215724613, -38265.13597549629, -30524.860981090187, -74361.28102079403, -27853.04520762506, -28558.734483568012, -53344.9415379693, -102337.90902351249, -187500.02235174447, -187500.02235174447, -49371.740147082826, -47803.251183420565, -78185.93271803054, -49763.0968407508, -89482.95140063183, -32557.886249767096, 0.0, 0.0, 0.0, 193.0, 0.0, 1.0, 1.0, 0.0, 0.0, 1.0, 1.0, 256.0, 1.0, 1.750529662785653E9, 0.0, 2025-06-21 20:14:22.785
52.0, -44880.80529937807, -38242.56071359643, -30502.352774423693, -74337.58817167142, -27860.957725162236, -28603.14739980071, -53326.009610415655, -102313.59032554511, -187500.02235174447, -187500.02235174447, -49377.953932041404, -47809.91200326825, -78192.3029652003, -49772.1492972552, -89476.37998776197, -32569.643267350588, 0.0, 0.0, 0.0, 193.0, 0.0, 1.0, 1.0, 0.0, 0.0, 1.0, 1.0, 256.0, 1.0, 1.750529662794792E9, 0.0, 2025-06-21 20:14:22.794
54.0, -44878.30190399908, -38243.56654209692, -30493.255614430385, -74334.07894779193, -27848.32898954499, -28616.491391240525, -53330.52466279563, -102319.24531689231, -187500.02235174447, -187500.02235174447, -49350.707155550386, -47782.21819188812, -78167.98426723293, -49735.403029370675, -89503.872633442, -32534.551028555758, 0.0, 0.0, 0.0, 193.0, 0.0, 1.0, 1.0, 0.0, 0.0, 1.0, 1.0, 256.0, 1.0, 1.750529662801703E9, 0.0, 2025-06-21 20:14:22.801
56.0, -44895.17747106284, -38255.41296665823, -30515.09326876322, -74355.98365735813, -27864.399893808353, -28591.79271361741, -53353.43520086232, -102339.2054246909, -187500.02235174447, -187500.02235174447, -49369.19204821492, -47807.3862561448, -78181.93175577304, -49774.965617056565, -89449.37908045997, -32574.538299386302, 0.0, 0.0, 0.0, 193.0, 0.0, 1.0, 1.0, 0.0, 0.0, 1.0, 1.0, 256.0, 1.0, 1.750529662808804E9, 0.0, 2025-06-21 20:14:22.808
58.0, -44865.98609280421, -38228.70263203414, -30483.353791636684, -74314.47646790463, -27866.299792087055, -28632.89757167072, -53324.17676737032, -102308.73999699832, -187500.02235174447, -187500.02235174447, -49354.5516555967, -47784.095738422366, -78170.51001435638, -49744.075506219335, -89504.2302613533, -32539.557819313744, 0.0, 0.0, 0.0, 193.0, 0.0, 1.0, 1.0, 0.0, 0.0, 1.0, 1.0, 256.0, 1.0, 1.750529662817761E9, 0.0, 2025-06-21 20:14:22.817
60.0, -44907.2027095798, -38269.67337962072, -30518.267216475873, -74359.13525332633, -27848.88778315637, -28569.642134862203, -53362.644119577904, -102343.74282881533, -187500.02235174447, -187500.02235174447, -49358.86554227657, -47791.784738514994, -78172.56637484627, -49750.713974322556, -89467.64045567995, -32548.29735139577, 0.0, 0.0, 0.0, 193.0, 0.0, 1.0, 1.0, 0.0, 0.0, 1.0, 1.0, 256.0, 1.0, 1.750529662825832E9, 0.0, 2025-06-21 20:14:22.825
62.0, -44874.50210744168, -38234.73760303707, -30487.779437038833, -74320.86906681885, -27853.29107681407, -28613.898588883712, -53334.27975586412, -102310.23756387683, -187500.02235174447, -187500.02235174447, -49371.98601627183, -47808.25797417855, -78189.86662505468, -49769.80236408739, -89472.15550805992, -32567.43044464951, 0.0, 0.0, 0.0, 193.0, 0.0, 1.0, 1.0, 0.0, 0.0, 1.0, 1.0, 256.0, 1.0, 1.750529662832863E9, 0.0, 2025-06-21 20:14:22.832
64.0, -44893.65755243988, -38255.2788561915, -30501.905739534588, -74337.9457995827, -27858.02964663859, -28612.065745838376, -53336.425523331825, -102327.69427629642, -187500.02235174447, -187500.02235174447, -49347.17557992644, -47776.45144181865, -78165.45852010949, -49729.56922406784, -89503.04561889716, -32525.699737751456, 0.0, 0.0, 0.0, 193.0, 0.0, 1.0, 1.0, 0.0, 0.0, 1.0, 1.0, 256.0, 1.0, 1.7505296628409E9, 0.0, 2025-06-21 20:14:22.840
66.0, -44894.01518035116, -38249.936789266685, -30505.392611669617, -74339.42101471675, -27849.2230593232, -28567.11638773875, -53341.90170072338, -102328.14131118552, -187500.02235174447, -187500.02235174447, -49366.845115047116, -47801.68656130869, -78181.12709297266, -49765.62258787425, -89446.36159495851, -32561.820156791233, 0.0, 0.0, 0.0, 193.0, 0.0, 1.0, 1.0, 0.0, 0.0, 1.0, 1.0, 256.0, 1.0, 1.750529662849916E9, 0.0, 2025-06-21 20:14:22.849
68.0, -44875.97732257573, -38233.53060883649, -30489.053486472785, -74324.2441802316, -27860.108358872934, -28625.923827400668, -53337.677221021324, -102315.95961045739, -187500.02235174447, -187500.02235174447, -49360.0501847327, -47788.85665999135, -78177.48375862643, -49744.54489285289, -89508.16416837742, -32539.781336758297, 0.0, 0.0, 0.0, 193.0, 0.0, 1.0, 1.0, 0.0, 0.0, 1.0, 1.0, 256.0, 1.0, 1.750529662857949E9, 0.0, 2025-06-21 20:14:22.857
70.0, -44887.26495352566, -38250.070899733415, -30501.65987034558, -74345.12070955285, -27846.004408121637, -28574.626573875736, -53337.27488962113, -102326.59904081811, -187500.02235174447, -187500.02235174447, -49352.00355672879, -47786.37561635681, -78165.1008921982, -49751.071602233846, -89470.7696999037, -32547.35857812865, 0.0, 0.0, 0.0, 193.0, 0.0, 1.0, 1.0, 0.0, 0.0, 1.0, 1.0, 256.0, 1.0, 1.750529662864975E9, 0.0, 2025-06-21 20:14:22.864
72.0, -44874.01036906366, -38236.25752166004, -30495.222567942452, -74329.22861924513, -27851.637047724373, -28610.210551048585, -53340.962927456254, -102324.14034892802, -187500.02235174447, -187500.02235174447, -49359.87137077706, -47797.81970951793, -78176.03089523684, -49765.8461053188, -89469.20507779182, -32563.563592858744, 0.0, 0.0, 0.0, 193.0, 0.0, 1.0, 1.0, 0.0, 0.0, 1.0, 1.0, 256.0, 1.0, 1.750529662872997E9, 0.0, 2025-06-21 20:14:22.872
74.0, -44868.109508527465, -38231.36248962432, -30482.571480580747, -74319.34914819589, -27847.3231610445, -28587.434123448627, -53333.83272097501, -102319.42413084795, -187500.02235174447, -187500.02235174447, -49336.75966701027, -47768.427165559195, -78154.68497928203, -49724.003639698465, -89493.09909261455, -32522.704603994443, 0.0, 0.0, 0.0, 193.0, 0.0, 1.0, 1.0, 0.0, 0.0, 1.0, 1.0, 256.0, 1.0, 1.750529662882033E9, 0.0, 2025-06-21 20:14:22.882
76.0, -44886.482642469724, -38250.40617590024, -30502.911568035077, -74341.67854090674, -27846.585553477475, -28559.717960324047, -53347.86961649294, -102333.79630253272, -187500.02235174447, -187500.02235174447, -49350.885969506024, -47792.835270504394, -78167.38077013264, -49760.41463141616, -89436.72799309826, -32558.735616056398, 0.0, 0.0, 0.0, 193.0, 0.0, 1.0, 1.0, 0.0, 0.0, 1.0, 1.0, 256.0, 1.0, 1.750529662889081E9, 0.0, 2025-06-21 20:14:22.889
78.0, -44880.64883716689, -38243.65594907474, -30493.70264931949, -74331.93318032422, -27869.741960733172, -28645.973342177076, -53343.39926760188, -102320.2064419039, -187500.02235174447, -187500.02235174447, -49353.00938522928, -47790.95772397015, -78179.69658132752, -49746.84712253179, -89506.59954626556, -32545.43632810549, 0.0, 0.0, 0.0, 193.0, 0.0, 1.0, 1.0, 0.0, 0.0, 1.0, 1.0, 256.0, 1.0, 1.750529662897019E9, 0.0, 2025-06-21 20:14:22.897
80.0, -44915.83048293954, -38275.70835062365, -30536.32742599576, -74375.13910235633, -27879.152045148858, -28583.835492591323, -53362.48765736671, -102352.2588434528, -187500.02235174447, -187500.02235174447, -49371.181353471446, -47806.402779388765, -78190.06779075478, -49767.41072743067, -89486.81825242261, -32565.932877771007, 0.0, 0.0, 0.0, 193.0, 0.0, 1.0, 1.0, 0.0, 0.0, 1.0, 1.0, 256.0, 1.0, 1.75052966290612E9, 0.0, 2025-06-21 20:14:22.906
82.0, -44881.945238345295, -38238.71621355012, -30504.006803513388, -74336.73880538212, -27859.326047816998, -28611.216379549074, -53336.13495065391, -102322.32985762715, -187500.02235174447, -187500.02235174447, -49386.51465016778, -47823.032477263514, -78207.99388980793, -49788.84605036331, -89495.17780484889, -32586.697648369987, 0.0, 0.0, 0.0, 193.0, 0.0, 1.0, 1.0, 0.0, 0.0, 1.0, 1.0, 256.0, 1.0, 1.750529662914094E9, 0.0, 2025-06-21 20:14:22.914
84.0, -44882.280514512124, -38238.671510061205, -30498.150646466096, -74333.74367162511, -27843.23279180918, -28589.80340836089, -53331.038752918095, -102319.44648259241, -187500.02235174447, -187500.02235174447, -49350.684803805925, -47777.658436019236, -78170.5994213342, -49733.27961364742, -89502.93386017489, -32529.72305175341, 0.0, 0.0, 0.0, 193.0, 0.0, 1.0, 1.0, 0.0, 0.0, 1.0, 1.0, 256.0, 1.0, 1.750529662921201E9, 0.0, 2025-06-21 20:14:22.921
86.0, -44891.26591578316, -38247.00871074304, -30514.534475151835, -74347.42293923175, -27842.271666797602, -28535.84629724578, -53340.31472686705, -102330.22002341987, -187500.02235174447, -187500.02235174447, -49372.27658894975, -47808.05680847845, -78185.23981395243, -49771.21052398808, -89446.16042925841, -32569.285639439302, 0.0, 0.0, 0.0, 193.0, 0.0, 1.0, 1.0, 0.0, 0.0, 1.0, 1.0, 256.0, 1.0, 1.7505296629292E9, 0.0, 2025-06-21 20:14:22.929
88.0, -44862.521572413636, -38218.04084992896, -30490.5957568402, -74317.78452608401, -27864.399893808353, -28622.079327354353, -53326.32253483803, -102315.33376161264, -187500.02235174447, -187500.02235174447, -49358.61967308756, -47786.28620937899, -78174.98036324745, -49745.28250041992, -89504.85611019804, -32541.882400737097, 0.0, 0.0, 0.0, 193.0, 0.0, 1.0, 1.0, 0.0, 0.0, 1.0, 1.0, 256.0, 1.0, 1.750529662938223E9, 0.0, 2025-06-21 20:14:22.938
90.0, -44901.43595951032, -38258.318693437424, -30533.600513172212, -74365.84077666292, -27865.94216417577, -28574.55951864237, -53359.96191024326, -102353.44348590894, -187500.02235174447, -187500.02235174447, -49361.12306846656, -47790.44363384767, -78174.08629346923, -49761.129887238734, -89482.12438608699, -32557.461566622445, 0.0, 0.0, 0.0, 193.0, 0.0, 1.0, 1.0, 0.0, 0.0, 1.0, 1.0, 256.0, 1.0, 1.750529662945237E9, 0.0, 2025-06-21 20:14:22.945
92.0, -44879.419491221845, -38234.625844314796, -30511.42758267255, -74343.73490139663, -27857.962591405227, -28617.47486799656, -53354.686898551816, -102335.98677348933, -187500.02235174447, -187500.02235174447, -49383.92184781097, -47815.49993938207, -78199.67904087056, -49787.99668407401, -89489.23224082378, -32587.278793725825, 0.0, 0.0, 0.0, 193.0, 0.0, 1.0, 1.0, 0.0, 0.0, 1.0, 1.0, 256.0, 1.0, 1.750529662953301E9, 0.0, 2025-06-21 20:14:22.953
94.0, -44879.93358134432, -38236.41398387122, -30507.51602739287, -74343.6007909299, -27854.252201825646, -28595.9501380861, -53349.925976982835, -102332.36579088758, -187500.02235174447, -187500.02235174447, -49349.12018169406, -47779.71479650913, -78170.33120040075, -49745.03663123091, -89513.55093879116, -32543.469374593424, 0.0, 0.0, 0.0, 193.0, 0.0, 1.0, 1.0, 0.0, 0.0, 1.0, 1.0, 256.0, 1.0, 1.7505296629613E9, 0.0, 2025-06-21 20:14:22.961
96.0, -44898.06084609757, -38252.730757323596, -30525.240960745927, -74363.56089872848, -27865.092797886467, -28583.79078910241, -53368.589683603015, -102352.92939578646, -187500.02235174447, -187500.02235174447, -49376.09873725161, -47814.002372503564, -78193.06292451179, -49791.528259697945, -89466.79108939065, -32589.73748561591, 0.0, 0.0, 0.0, 193.0, 0.0, 1.0, 1.0, 0.0, 0.0, 1.0, 1.0, 256.0, 1.0, 1.750529662970434E9, 0.0, 2025-06-21 20:14:22.970
98.0, -44861.314578213045, -38217.638518528765, -30491.17690219604, -74326.23348548812, -27864.98103916419, -28629.075423368864, -53345.90266298088, -102330.1529681865, -187500.02235174447, -187500.02235174447, -49356.8985887645, -47791.136537925784, -78181.99881100642, -49766.20373323008, -89526.15732266394, -32563.250668436373, 0.0, 0.0, 0.0, 193.0, 0.0, 1.0, 1.0, 0.0, 0.0, 1.0, 1.0, 256.0, 1.0, 1.7505296629774E9, 0.0, 2025-06-21 20:14:22.977
100.0, -44878.54777318809, -38243.72300430811, -30516.344966452714, -74362.37625627236, -27839.924733629792, -28554.35354165477, -53356.765610786155, -102348.32493642866, -187500.02235174447, -187500.02235174447, -49350.52834159474, -47787.582610557394, -78168.52070909986, -49763.5438756399, -89479.86685989701, -32563.608296347655, 0.0, 0.0, 0.0, 193.0, 0.0, 1.0, 1.0, 0.0, 0.0, 1.0, 1.0, 256.0, 1.0, 1.750529662985415E9, 0.0, 2025-06-21 20:14:22.985
102.0, -44872.95983707426, -38223.40526859823, -30505.83964655872, -74337.16348852677, -27859.84013793947, -28579.47690242254, -53351.31178513906, -102337.90902351249, -187500.02235174447, -187500.02235174447, -49371.89660929402, -47815.36582891534, -78195.02987802385, -49790.365968986276, -89488.53933674567, -32587.92699431503, 0.0, 0.0, 0.0, 193.0, 0.0, 1.0, 1.0, 0.0, 0.0, 1.0, 1.0, 256.0, 1.0, 1.750529662993452E9, 0.0, 2025-06-21 20:14:22.993
104.0, -44880.15709878887, -38230.490771590565, -30513.930978051543, -74342.88553510733, -27864.399893808353, -28600.5993009328, -53347.064953692556, -102339.89832876902, -187500.02235174447, -187500.02235174447, -49349.38840262752, -47774.21626737312, -78167.78310153284, -49746.26597717595, -89516.14374114797, -32541.457717592446, 0.0, 0.0, 0.0, 193.0, 0.0, 1.0, 1.0, 0.0, 0.0, 1.0, 1.0, 256.0, 1.0, 1.750529663001489E9, 0.0, 2025-06-21 20:14:23.001
106.0, -44894.55162221809, -38244.50531536404, -30528.0572805473, -74354.12846256835, -27862.969382163214, -28553.213602687552, -53353.25638690667, -102339.09366596863, -187500.02235174447, -187500.02235174447, -49378.66918786397, -47806.69335206668, -78193.3087937008, -49788.8013468744, -89470.5685342036, -32583.367238446146, 0.0, 0.0, 0.0, 193.0, 0.0, 1.0, 1.0, 0.0, 0.0, 1.0, 1.0, 256.0, 1.0, 1.750529663009511E9, 0.0, 2025-06-21 20:14:23.009
108.0, -44878.592476677004, -38224.25463488753, -30502.71040233498, -74330.52502042353, -27865.450425797753, -28604.33204225684, -53348.517817082145, -102338.04313397923, -187500.02235174447, -187500.02235174447, -49371.09194649362, -47792.56704957093, -78194.13580824564, -49758.31356743736, -89523.81038949614, -32552.25361016436, 0.0, 0.0, 0.0, 193.0, 0.0, 1.0, 1.0, 0.0, 0.0, 1.0, 1.0, 256.0, 1.0, 1.750529663017534E9, 0.0, 2025-06-21 20:14:23.017
110.0, -44886.95202910328, -38235.51991409301, -30523.51987642287, -74358.37529401486, -27851.324123301998, -28545.99398922849, -53357.21264567526, -102352.16943647499, -187500.02235174447, -187500.02235174447, -49366.93452202494, -47795.27161065002, -78186.91619478658, -49763.767393084454, -89482.86199365402, -32561.373121902125, 0.0, 0.0, 0.0, 193.0, 0.0, 1.0, 1.0, 0.0, 0.0, 1.0, 1.0, 256.0, 1.0, 1.750529663026566E9, 0.0, 2025-06-21 20:14:23.026
112.0, -44873.473927196734, -38221.88534997527, -30509.661794860578, -74343.73490139663, -27873.13942589038, -28608.265949280973, -53346.68497403681, -102338.89250026853, -187500.02235174447, -187500.02235174447, -49378.98211228634, -47812.59421260288, -78202.6071193942, -49787.99668407401, -89492.4732437698, -32585.55770940277, 0.0, 0.0, 0.0, 193.0, 0.0, 1.0, 1.0, 0.0, 0.0, 1.0, 1.0, 256.0, 1.0, 1.750529663032619E9, 0.0, 2025-06-21 20:14:23.032
114.0, -44876.46906095375, -38232.05539370244, -30504.520893635858, -74344.02547407454, -27853.0228558806, -28596.732449142033, -53340.828816989524, -102331.44936936491, -187500.02235174447, -187500.02235174447, -49354.70811780788, -47783.78281399999, -78179.36130516068, -49743.49436086349, -89514.98145043629, -32542.664711793033, 0.0, 0.0, 0.0, 193.0, 0.0, 1.0, 1.0, 0.0, 0.0, 1.0, 1.0, 256.0, 1.0, 1.750529663041611E9, 0.0, 2025-06-21 20:14:23.041
116.0, -44881.49820345619, -38241.3760711403, -30517.5519606533, -74354.64255269081, -27843.076329597992, -28562.78014931442, -53357.48086660873, -102349.26370969579, -187500.02235174447, -187500.02235174447, -49376.59047562963, -47812.92948876971, -78194.78400883485, -49776.86551533527, -89451.25662699422, -32577.645191865588, 0.0, 0.0, 0.0, 193.0, 0.0, 1.0, 1.0, 0.0, 0.0, 1.0, 1.0, 256.0, 1.0, 1.75052966304978E9, 0.0, 2025-06-21 20:14:23.049
118.0, -44855.54782814358, -38219.4713615741, -30487.13123644963, -74325.45117443218, -27860.018951895116, -28612.93746387213, -53354.61984331845, -102329.19184317492, -187500.02235174447, -187500.02235174447, -49354.93163525243, -47788.2308111466, -78180.83652029473, -49746.735363809516, -89504.49848228676, -32545.413976361036, 0.0, 0.0, 0.0, 193.0, 0.0, 1.0, 1.0, 0.0, 0.0, 1.0, 1.0, 256.0, 1.0, 1.7505296630577E9, 0.0, 2025-06-21 20:14:23.057
120.0, -44906.37569503495, -38268.108757508846, -30540.842478375733, -74380.19059660324, -27874.122902646413, -28586.85297809279, -53382.11248899848, -102374.76705011929, -187500.02235174447, -187500.02235174447, -49372.924789538956, -47810.56020385745, -78196.34863094671, -49772.730442611035, -89491.31095305813, -32573.420712163537, 0.0, 0.0, 0.0, 193.0, 0.0, 1.0, 1.0, 0.0, 0.0, 1.0, 1.0, 256.0, 1.0, 1.750529663065701E9, 0.0, 2025-06-21 20:14:23.065
122.0, -44856.73247059971, -38215.09041966086, -30495.37903015364, -74330.70383437918, -27848.641913967364, -28606.276644024452, -53378.62561686345, -102349.97896551836, -187500.02235174447, -187500.02235174447, -49382.31252221019, -47814.65057309277, -78204.10468627271, -49785.113309039276, -89491.24389782475, -32585.02126753584, 0.0, 0.0, 0.0, 193.0, 0.0, 1.0, 1.0, 0.0, 0.0, 1.0, 1.0, 256.0, 1.0, 1.750529663073742E9, 0.0, 2025-06-21 20:14:23.073
124.0, -44875.91026734236, -38237.39746062725, -30510.868789061165, -74350.37336949985, -27868.982001421693, -28601.29220501092, -53368.83555279202, -102358.40557317801, -187500.02235174447, -187500.02235174447, -49351.91414975097, -47783.22402038861, -78178.37782840466, -49746.91417776515, -89518.64713652697, -32546.330397883703, 0.0, 0.0, 0.0, 193.0, 0.0, 1.0, 1.0, 0.0, 0.0, 1.0, 1.0, 256.0, 1.0, 1.750529663081769E9, 0.0, 2025-06-21 20:14:23.081
126.0, -44879.218325521746, -38235.22934141509, -30515.428544930048, -74351.78152940054, -27852.441710524767, -28564.680047593123, -53362.82293353354, -102358.8079045782, -187500.02235174447, -187500.02235174447, -49384.99473154482, -47817.84687254988, -78202.07067752727, -49788.667236407666, -89470.45677548132, -32587.368200703648, 0.0, 0.0, 0.0, 193.0, 0.0, 1.0, 1.0, 0.0, 0.0, 1.0, 1.0, 256.0, 1.0, 1.75052966308874E9, 0.0, 2025-06-21 20:14:23.088
128.0, -44847.03181350611, -38208.60841376882, -30472.088512431208, -74306.07221198943, -27846.09381509946, -28596.821856119856, -53328.177729627816, -102312.02570343325, -187500.02235174447, -187500.02235174447, -49354.08226896313, -47782.08408142139, -78177.72962781544, -49742.71204980756, -89503.380895064, -32540.653054792056, 0.0, 0.0, 0.0, 193.0, 0.0, 1.0, 1.0, 0.0, 0.0, 1.0, 1.0, 256.0, 1.0, 1.750529663097832E9, 0.0, 2025-06-21 20:14:23.097
130.0, -44886.9967325922, -38254.898876535764, -30513.305129206794, -74356.18482305823, -27843.769233676107, -28556.633419589212, -53354.21751191825, -102353.59994812011, -187500.02235174447, -187500.02235174447, -49348.2484636603, -47777.4796220636, -78164.18447067554, -49738.80049452788, -89459.30325499813, -32536.786203001288, 0.0, 0.0, 0.0, 193.0, 0.0, 1.0, 1.0, 0.0, 0.0, 1.0, 1.0, 256.0, 1.0, 1.75052966310597E9, 0.0, 2025-06-21 20:14:23.105
132.0, -44864.332063714515, -38222.75706800903, -30489.70168706199, -74321.5396191525, -27859.057826883534, -28598.38647823173, -53346.43910484781, -102329.92945074195, -187500.02235174447, -187500.02235174447, -49381.46315592089, -47807.25214567807, -78198.94143330354, -49771.255227476984, -89473.9212958719, -32569.77737781732, 0.0, 0.0, 0.0, 193.0, 0.0, 1.0, 1.0, 0.0, 0.0, 1.0, 1.0, 256.0, 1.0, 1.750529663113914E9, 0.0, 2025-06-21 20:14:23.113
134.0, -44860.46521192374, -38222.91353022022, -30484.806655026277, -74320.93612205221, -27846.540849988563, -28586.316536225862, -53327.39541857188, -102317.79245350271, -187500.02235174447, -187500.02235174447, -49335.1950448984, -47759.330005565884, -78156.54017407181, -49712.7830639819, -89485.29833379964, -32509.159446854526, 0.0, 0.0, 0.0, 193.0, 0.0, 1.0, 1.0, 0.0, 0.0, 1.0, 1.0, 256.0, 1.0, 1.750529663120931E9, 0.0, 2025-06-21 20:14:23.120
136.0, -44894.97630536274, -38253.356606168345, -30524.257483989895, -74354.5978492019, -27865.13750137538, -28586.070667036853, -53347.71315428176, -102340.94886075842, -187500.02235174447, -187500.02235174447, -49380.21145823139, -47811.65543933576, -78197.01918328038, -49776.507887423984, -89456.48693519675, -32572.30312494077, 0.0, 0.0, 0.0, 193.0, 0.0, 1.0, 1.0, 0.0, 0.0, 1.0, 1.0, 256.0, 1.0, 1.75052966312991E9, 0.0, 2025-06-21 20:14:23.129
138.0, -44868.13186027192, -38230.40136461274, -30489.23230042843, -74321.07023251895, -27868.602021765953, -28648.409682322705, -53331.55284304057, -102312.47273832235, -187500.02235174447, -187500.02235174447, -49365.54871386871, -47791.8294420039, -78190.02308726587, -49743.33789865231, -89509.79584572266, -32538.06025243524, 0.0, 0.0, 0.0, 193.0, 0.0, 1.0, 1.0, 0.0, 0.0, 1.0, 1.0, 256.0, 1.0, 1.750529663137895E9, 0.0, 2025-06-21 20:14:23.137
140.0, -44894.238697795714, -38256.39644341427, -30522.75991711139, -74358.50940448158, -27861.47181528471, -28560.880251035724, -53361.41477363286, -102354.65048010951, -187500.02235174447, -187500.02235174447, -49370.91313253798, -47799.205517674156, -78190.1571977326, -49754.84904704679, -89476.08941508406, -32551.136022941595, 0.0, 0.0, 0.0, 193.0, 0.0, 1.0, 1.0, 0.0, 0.0, 1.0, 1.0, 256.0, 1.0, 1.750529663144994E9, 0.0, 2025-06-21 20:14:23.144
142.0, -44858.47590666723, -38219.22549238509, -30498.508274377382, -74330.90500007928, -27851.190012835268, -28584.729562369535, -53345.83560774751, -102330.95763098689, -187500.02235174447, -187500.02235174447, -49373.32712093915, -47801.03836071949, -78193.46525591199, -49769.62355013175, -89475.55297321713, -32564.100034725674, 0.0, 0.0, 0.0, 193.0, 0.0, 1.0, 1.0, 0.0, 0.0, 1.0, 1.0, 256.0, 1.0, 1.750529663153E9, 0.0, 2025-06-21 20:14:23.153
144.0, -44871.663435895854, -38234.2235129146, -30514.445068174016, -74350.03809333302, -27869.65255375535, -28600.152266043697, -53349.03190720462, -102342.8040555482, -187500.02235174447, -187500.02235174447, -49360.43016438844, -47787.06852043492, -78184.27868894085, -49744.43313413062, -89516.05433417016, -32539.088432680182, 0.0, 0.0, 0.0, 193.0, 0.0, 1.0, 1.0, 0.0, 0.0, 1.0, 1.0, 256.0, 1.0, 1.750529663161997E9, 0.0, 2025-06-21 20:14:23.161
146.0, -44872.66926439635, -38233.575312325396, -30511.539341394826, -74345.27717176404, -27866.322143831512, -28557.728655067524, -53348.22724440423, -102344.39102940453, -187500.02235174447, -187500.02235174447, -49378.11039425259, -47808.347381156374, -78196.14746524661, -49785.76150962848, -89458.9679788313, -32581.690857612, 0.0, 0.0, 0.0, 193.0, 0.0, 1.0, 1.0, 0.0, 0.0, 1.0, 1.0, 256.0, 1.0, 1.750529663169025E9, 0.0, 2025-06-21 20:14:23.169
148.0, -44853.31265369805, -38219.247844129546, -30491.579233596236, -74322.00900578607, -27875.37460033591, -28623.48748725504, -53331.530491296115, -102322.84394774961, -187500.02235174447, -187500.02235174447, -49361.34658591111, -47784.83334598939, -78184.56926161877, -49752.524465623435, -89515.38378183648, -32545.548086827766, 0.0, 0.0, 0.0, 193.0, 0.0, 1.0, 1.0, 0.0, 0.0, 1.0, 1.0, 256.0, 1.0, 1.750529663177054E9, 0.0, 2025-06-21 20:14:23.177
150.0, -44894.90925012938, -38255.14474572477, -30529.152516025606, -74368.34417204192, -27857.00146639365, -28534.46048908955, -53369.68491908132, -102362.42888717997, -187500.02235174447, -187500.02235174447, -49363.268835934265, -47792.187069915184, -78181.88705228413, -49758.29121569291, -89473.5189644717, -32555.002874732363, 0.0, 0.0, 0.0, 193.0, 0.0, 1.0, 1.0, 0.0, 0.0, 1.0, 1.0, 256.0, 1.0, 1.750529663186084E9, 0.0, 2025-06-21 20:14:23.186
152.0, -44875.709101642264, -38240.28083566199, -30508.678318104547, -74341.07504380644, -27864.109321130436, -28613.049222594407, -53354.70925029627, -102335.33857290013, -187500.02235174447, -187500.02235174447, -49396.483528194854, -47833.11311401286, -78219.79561088033, -49791.93059109814, -89492.24972632524, -32588.172863504038, 0.0, 0.0, 0.0, 193.0, 0.0, 1.0, 1.0, 0.0, 0.0, 1.0, 1.0, 256.0, 1.0, 1.750529663194102E9, 0.0, 2025-06-21 20:14:23.194
154.0, -44876.33495048701, -38243.45478337465, -30514.8026960853, -74341.67854090674, -27858.879012927893, -28604.37674574575, -53339.8900437224, -102331.404665876, -187500.02235174447, -187500.02235174447, -49366.66630109147, -47779.60303778685, -78187.47498839795, -49739.18047418362, -89511.4275230679, -32533.276979121805, 0.0, 0.0, 0.0, 193.0, 0.0, 1.0, 1.0, 0.0, 0.0, 1.0, 1.0, 256.0, 1.0, 1.750529663201102E9, 0.0, 2025-06-21 20:14:23.201
156.0, -44902.97822987774, -38267.59466738637, -30528.504315436403, -74359.80580566, -27861.65062924035, -28571.743198841003, -53349.34483162699, -102344.54749161573, -187500.02235174447, -187500.02235174447, -49399.65747590751, -47821.66902085174, -78214.02886081087, -49791.21533527558, -89470.25560978122, -32587.323497214737, 0.0, 0.0, 0.0, 193.0, 0.0, 1.0, 1.0, 0.0, 0.0, 1.0, 1.0, 256.0, 1.0, 1.750529663209168E9, 0.0, 2025-06-21 20:14:23.209
158.0, -44890.684770427324, -38255.97176026962, -30488.94172775051, -74319.03622377351, -27854.408664036833, -28615.127934828753, -53321.09222663549, -102312.20451738889, -187500.02235174447, -187500.02235174447, -49366.86746679157, -47782.776985499506, -78188.12318898717, -49741.08037246232, -89503.4255985529, -32537.836734990688, 0.0, 0.0, 0.0, 193.0, 0.0, 1.0, 1.0, 0.0, 0.0, 1.0, 1.0, 256.0, 1.0, 1.750529663218191E9, 0.0, 2025-06-21 20:14:23.218
160.0, -44971.70984407781, -38339.276711854545, -30526.35854796869, -74363.85147140641, -27850.050073868046, -28569.79859707339, -53348.02607870413, -102350.29188994074, -187500.02235174447, -187500.02235174447, -49385.41941468947, -47806.51453811104, -78201.15425600461, -49764.77322158495, -89479.97861861928, -32563.071854480728, 0.0, 0.0, 0.0, 193.0, 0.0, 1.0, 1.0, 0.0, 0.0, 1.0, 1.0, 256.0, 1.0, 1.750529663225257E9, 0.0, 2025-06-21 20:14:23.225
162.0, -45022.35889701354, -38385.67893334376, -30533.533457938847, -74356.27423003606, -27892.56309182204, -28633.411661793194, -53336.38081984292, -102339.33953515763, -187500.02235174447, -187500.02235174447, -49402.31733349769, -47818.696238839184, -78218.67802365757, -49782.60991366028, -89484.35956053252, -32579.232165721914, 0.0, 0.0, 0.0, 193.0, 0.0, 1.0, 1.0, 0.0, 0.0, 1.0, 1.0, 256.0, 1.0, 1.750529663233244E9, 0.0, 2025-06-21 20:14:23.233
164.0, -45101.12644447404, -38464.580591271, -30523.050489789308, -74360.52106148256, -27857.962591405227, -28606.768382402468, -53357.72673579773, -102342.401724148, -187500.02235174447, -187500.02235174447, -49398.226964262365, -47810.537852113, -78216.53225618986, -49759.22998896003, -89531.11940993303, -32555.136985199093, 0.0, 0.0, 0.0, 193.0, 0.0, 1.0, 1.0, 0.0, 0.0, 1.0, 1.0, 256.0, 1.0, 1.750529663241282E9, 0.0, 2025-06-21 20:14:23.241
166.0, -45206.58197481418, -38560.58133370654, -30549.7608244134, -74384.32566932746, -27865.048094397556, -28563.450701648082, -53373.01532900517, -102362.5629976467, -187500.02235174447, -187500.02235174447, -49442.773990961796, -47856.06835556845, -78255.20077409754, -49806.45922499409, -89476.35763601752, -32605.40605847908, 0.0, 0.0, 0.0, 193.0, 0.0, 1.0, 1.0, 0.0, 0.0, 1.0, 1.0, 256.0, 1.0, 1.750529663250302E9, 0.0, 2025-06-21 20:14:23.250
168.0, -45244.60229213265, -38594.01954341168, -30535.746280639923, -74363.24797430611, -27891.110228432444, -28630.349472802816, -53356.69855555279, -102337.84196827913, -187500.02235174447, -187500.02235174447, -49441.991679905856, -47847.73115488663, -78260.18521311108, -49774.049195533895, -89534.94155823489, -32570.58204061771, 0.0, 0.0, 0.0, 193.0, 0.0, 1.0, 1.0, 0.0, 0.0, 1.0, 1.0, 256.0, 1.0, 1.750529663257315E9, 0.0, 2025-06-21 20:14:23.257
170.0, -45296.368932291145, -38641.44994514584, -30563.887126909154, -74389.44421880772, -27872.80414972355, -28578.739294855513, -53355.26804390765, -102353.5552446312, -187500.02235174447, -187500.02235174447, -49459.046060925255, -47858.21412303617, -78267.6730475036, -49786.007378817485, -89506.39838056546, -32582.294354712292, 0.0, 0.0, 0.0, 193.0, 0.0, 1.0, 1.0, 0.0, 0.0, 1.0, 1.0, 256.0, 1.0, 1.750529663265361E9, 0.0, 2025-06-21 20:14:23.265
172.0, -45294.04435086779, -38625.02141297119, -30545.51399296689, -74366.04194236302, -27877.76623699263, -28638.127879873264, -53356.11741019695, -102343.0499247372, -187500.02235174447, -187500.02235174447, -49476.12279368911, -47867.780669663036, -78282.51460582193, -49804.06758833738, -89507.49361604376, -32599.97458457644, 0.0, 0.0, 0.0, 193.0, 0.0, 1.0, 1.0, 0.0, 0.0, 1.0, 1.0, 256.0, 1.0, 1.750529663273437E9, 0.0, 2025-06-21 20:14:23.273
174.0, -45310.31642083126, -38652.24583771775, -30560.444958263037, -74390.58415777495, -27896.51935059063, -28621.297016298417, -53351.71411653926, -102349.19665446242, -187500.02235174447, -187500.02235174447, -49459.962482447925, -47846.300643241484, -78268.65652425964, -49774.22800948954, -89545.44687812887, -32569.01741850584, 0.0, 0.0, 0.0, 193.0, 0.0, 1.0, 1.0, 0.0, 0.0, 1.0, 1.0, 256.0, 1.0, 1.750529663281444E9, 0.0, 2025-06-21 20:14:23.281
176.0, -45296.32422880224, -38608.68228777436, -30574.884185181167, -74401.91649221379, -27881.2307573832, -28594.139646785217, -53351.535302583616, -102349.3531166736, -187500.02235174447, -187500.02235174447, -49485.59993333816, -47888.21016409519, -78292.68464954909, -49821.72546645707, -89496.76477870521, -32618.41477375207, 0.0, 0.0, 0.0, 193.0, 0.0, 1.0, 1.0, 0.0, 0.0, 1.0, 1.0, 256.0, 1.0, 1.750529663289484E9, 0.0, 2025-06-21 20:14:23.289
178.0, -45253.4312311925, -38589.37038056498, -30555.505222738415, -74380.68233498125, -27881.633088783397, -28632.450536781616, -53359.2466544207, -102343.4075526485, -187500.02235174447, -187500.02235174447, -49475.65340705555, -47874.262675555074, -78289.80127451435, -49794.65750392169, -89555.88514278951, -32588.485787926413, 0.0, 0.0, 0.0, 193.0, 0.0, 1.0, 1.0, 0.0, 0.0, 1.0, 1.0, 256.0, 1.0, 1.75052966329748E9, 0.0, 2025-06-21 20:14:23.297
180.0, -45250.57020790222, -38600.59095628154, -30584.54013878586, -74416.1098499429, -27877.810940481537, -28600.62165267726, -53373.618826105456, -102372.93420707397, -187500.02235174447, -187500.02235174447, -49460.32011035921, -47860.42694573724, -78270.8246434718, -49793.45050972111, -89506.91247068792, -32590.564500160755, 0.0, 0.0, 0.0, 193.0, 0.0, 1.0, 1.0, 0.0, 0.0, 1.0, 1.0, 256.0, 1.0, 1.750529663306532E9, 0.0, 2025-06-21 20:14:23.306
182.0, -45187.53828853826, -38532.88752232642, -30546.27395227837, -74371.24989882112, -27876.626298025407, -28630.43887978064, -53362.53236085563, -102348.52610212876, -187500.02235174447, -187500.02235174447, -49479.877886757604, -47881.258771569584, -78294.74101003898, -49821.34548680133, -89521.93284296189, -32618.21360805197, 0.0, 0.0, 0.0, 193.0, 0.0, 1.0, 1.0, 0.0, 0.0, 1.0, 1.0, 256.0, 1.0, 1.750529663312549E9, 0.0, 2025-06-21 20:14:23.312
184.0, -45164.69480570493, -38514.15676047287, -30558.880336151164, -74383.49865478261, -27883.108303917445, -28609.09296382582, -53365.929826012834, -102358.00324177781, -187500.02235174447, -187500.02235174447, -49436.604909492125, -47833.873073324336, -78254.73138746398, -49770.31645420986, -89544.39634613947, -32563.72005506993, 0.0, 0.0, 0.0, 193.0, 0.0, 1.0, 1.0, 0.0, 0.0, 1.0, 1.0, 256.0, 1.0, 1.750529663321621E9, 0.0, 2025-06-21 20:14:23.321
186.0, -45133.73763963433, -38482.39493160188, -30564.20005133153, -74390.7629717306, -27873.675867757305, -28575.297126209396, -53370.37782315944, -102362.69710811343, -187500.02235174447, -187500.02235174447, -49461.37064234861, -47869.300588285994, -78274.93736445157, -49821.18902459014, -89497.81531069461, -32613.698555672, 0.0, 0.0, 0.0, 193.0, 0.0, 1.0, 1.0, 0.0, 0.0, 1.0, 1.0, 256.0, 1.0, 1.750529663329616E9, 0.0, 2025-06-21 20:14:23.329
188.0, -45061.7873742327, -38413.864483101905, -30521.46351593298, -74343.91371535228, -27875.151082891356, -28623.42043202167, -53330.055276162064, -102324.29681113921, -187500.02235174447, -187500.02235174447, -49420.534005228765, -47824.284174953005, -78237.20761981102, -49767.72365185305, -89534.27100590123, -32559.115595712137, 0.0, 0.0, 0.0, 193.0, 0.0, 1.0, 1.0, 0.0, 0.0, 1.0, 1.0, 256.0, 1.0, 1.750529663337663E9, 0.0, 2025-06-21 20:14:23.337
190.0, -45051.57262701662, -38414.37857322438, -30534.919266095076, -74376.88253842384, -27852.017027380112, -28566.55759412737, -53358.41963987585, -102356.34921268812, -187500.02235174447, -187500.02235174447, -49405.37952248807, -47822.09370399639, -78221.00260508092, -49773.06571877786, -89492.45089202534, -32565.910526026553, 0.0, 0.0, 0.0, 193.0, 0.0, 1.0, 1.0, 0.0, 0.0, 1.0, 1.0, 256.0, 1.0, 1.750529663345639E9, 0.0, 2025-06-21 20:14:23.345
192.0, -45019.4755219788, -38362.09784294341, -30521.21764674397, -74348.8981543658, -27849.89361165686, -28616.33492902934, -53347.31082288156, -102335.33857290013, -187500.02235174447, -187500.02235174447, -49417.225947049374, -47844.065468795954, -78238.92870413407, -49794.545745199415, -89493.30025831464, -32589.513968171355, 0.0, 0.0, 0.0, 193.0, 0.0, 1.0, 1.0, 0.0, 0.0, 1.0, 1.0, 256.0, 1.0, 1.750529663353719E9, 0.0, 2025-06-21 20:14:23.353
194.0, -45018.80496964514, -38379.487500129646, -30534.338120739238, -74367.62891621934, -27880.269632371623, -28614.43503075064, -53361.28066316613, -102359.34434644513, -187500.02235174447, -187500.02235174447, -49389.979170558356, -47802.066540964435, -78212.12896253217, -49756.592483114306, -89526.98433720879, -32549.794918274278, 0.0, 0.0, 0.0, 193.0, 0.0, 1.0, 1.0, 0.0, 0.0, 1.0, 1.0, 256.0, 1.0, 1.750529663361743E9, 0.0, 2025-06-21 20:14:23.361
196.0, -45012.255908519735, -38369.36215989139, -30548.062091834796, -74383.2527855936, -27869.13846363288, -28567.406960416673, -53363.13585795592, -102358.94201504493, -187500.02235174447, -187500.02235174447, -49406.742978899834, -47838.36577395985, -78231.10559357471, -49803.86642263728, -89474.63655169446, -32599.907529343076, 0.0, 0.0, 0.0, 193.0, 0.0, 1.0, 1.0, 0.0, 0.0, 1.0, 1.0, 256.0, 1.0, 1.750529663368738E9, 0.0, 2025-06-21 20:14:23.368
198.0, -44974.23559120126, -38331.58771176192, -30514.780344340845, -74352.22856428965, -27872.915908445826, -28641.32417933037, -53345.656793791866, -102334.33274439964, -187500.02235174447, -187500.02235174447, -49402.94318234244, -47826.586404631904, -78232.04436684184, -49781.961713071076, -89543.09994496107, -32574.962982530953, 0.0, 0.0, 0.0, 193.0, 0.0, 1.0, 1.0, 0.0, 0.0, 1.0, 1.0, 256.0, 1.0, 1.750529663377778E9, 0.0, 2025-06-21 20:14:23.377
200.0, -44988.987742541765, -38342.852990967396, -30544.53051621086, -74383.52100652707, -27859.84013793947, -28564.27771619293, -53353.43520086232, -102355.18692197645, -187500.02235174447, -187500.02235174447, -49396.95291482841, -47829.13450349981, -78223.61775918219, -49781.537029926425, -89493.27790657019, -32578.516909899347, 0.0, 0.0, 0.0, 193.0, 0.0, 1.0, 1.0, 0.0, 0.0, 1.0, 1.0, 256.0, 1.0, 1.750529663385825E9, 0.0, 2025-06-21 20:14:23.385
202.0, -44960.176343938874, -38317.55081624399, -30527.14085902463, -74358.48705273712, -27867.126806631903, -28619.33006278635, -53356.2962241526, -102349.04019225124, -187500.02235174447, -187500.02235174447, -49406.09477831063, -47829.98386978911, -78229.67508192958, -49794.43398647714, -89496.54126126066, -32589.938651316006, 0.0, 0.0, 0.0, 193.0, 0.0, 1.0, 1.0, 0.0, 0.0, 1.0, 1.0, 256.0, 1.0, 1.750529663393856E9, 0.0, 2025-06-21 20:14:23.393
204.0, -44946.966462965785, -38308.47600799513, -30521.016481043876, -74358.97879111515, -27856.46502452672, -28603.616786434268, -53352.49642759519, -102354.27050045377, -187500.02235174447, -187500.02235174447, -49379.78677508674, -47802.1335961978, -78203.94822406152, -49759.76643082696, -89526.69376453088, -32556.142813699582, 0.0, 0.0, 0.0, 193.0, 0.0, 1.0, 1.0, 0.0, 0.0, 1.0, 1.0, 256.0, 1.0, 1.750529663400873E9, 0.0, 2025-06-21 20:14:23.400
206.0, -44952.3085298906, -38308.92304288424, -30533.7569753834, -74369.26059356458, -27854.94510590376, -28564.32241968184, -53359.917206754355, -102359.99254703433, -187500.02235174447, -187500.02235174447, -49401.3115049972, -47831.66025062326, -78220.48851495844, -49800.87128888027, -89466.9699033463, -32598.901700842587, 0.0, 0.0, 0.0, 193.0, 0.0, 1.0, 1.0, 0.0, 0.0, 1.0, 1.0, 256.0, 1.0, 1.750529663409897E9, 0.0, 2025-06-21 20:14:23.409
208.0, -44923.117151631974, -38286.30307749547, -30509.907664049588, -74345.61244793088, -27860.913021673325, -28632.76346120399, -53334.01153493065, -102327.18018617395, -187500.02235174447, -187500.02235174447, -49394.06953979368, -47808.45913987865, -78215.50407594492, -49772.37281469975, -89529.68889828789, -32566.24580219338, 0.0, 0.0, 0.0, 193.0, 0.0, 1.0, 1.0, 0.0, 0.0, 1.0, 1.0, 256.0, 1.0, 1.750529663417953E9, 0.0, 2025-06-21 20:14:23.417
210.0, -44959.90812300541, -38319.36130754487, -30548.352664512717, -74392.059372909, -27864.019914152614, -28539.489631591994, -53375.56342787307, -102380.4667449554, -187500.02235174447, -187500.02235174447, -49396.39412121703, -47827.10049475438, -78218.23098876847, -49786.72263464006, -89493.34496180355, -32582.853148323677, 0.0, 0.0, 0.0, 193.0, 0.0, 1.0, 1.0, 0.0, 0.0, 1.0, 1.0, 256.0, 1.0, 1.750529663424965E9, 0.0, 2025-06-21 20:14:23.424
212.0, -44910.17549159235, -38271.0815395214, -30510.108829749686, -74341.85735486238, -27846.876126155392, -28621.43112676515, -53345.299165880584, -102339.42894213545, -187500.02235174447, -187500.02235174447, -49405.49128121034, -47839.4386576937, -78231.79849765284, -49804.58167845985, -89497.45768278334, -32599.460494453968, 0.0, 0.0, 0.0, 193.0, 0.0, 1.0, 1.0, 0.0, 0.0, 1.0, 1.0, 256.0, 1.0, 1.75052966343299E9, 0.0, 2025-06-21 20:14:23.432
214.0, -44920.054962641596, -38283.01737106054, -30527.587893913736, -74358.24118354812, -27864.55635601954, -28605.80725739089, -53355.715078796755, -102347.56497711719, -187500.02235174447, -187500.02235174447, -49367.02392900276, -47787.22498264611, -78193.5546628898, -49751.697451078595, -89521.55286330615, -32542.798822259763, 0.0, 0.0, 0.0, 193.0, 0.0, 1.0, 1.0, 0.0, 0.0, 1.0, 1.0, 256.0, 1.0, 1.750529663442028E9, 0.0, 2025-06-21 20:14:23.442
216.0, -44934.8071139821, -38295.95903110016, -30544.95519935551, -74379.72120996968, -27880.157873649347, -28570.0444662624, -53366.488619624215, -102366.92158781548, -187500.02235174447, -187500.02235174447, -49411.45919697991, -47842.52319842854, -78235.15125932112, -49819.222071078075, -89491.13213910248, -32610.5469597038, 0.0, 0.0, 0.0, 193.0, 0.0, 1.0, 1.0, 0.0, 0.0, 1.0, 1.0, 256.0, 1.0, 1.750529663449057E9, 0.0, 2025-06-21 20:14:23.449
218.0, -44886.25912502517, -38248.394518899266, -30493.769704552855, -74329.27332273404, -27865.249260097655, -28621.63229246525, -53353.85988400697, -102337.19376768993, -187500.02235174447, -187500.02235174447, -49375.33877794013, -47803.877032265314, -78203.97057580597, -49774.74209961201, -89538.51783734774, -32563.988276003394, 0.0, 0.0, 0.0, 193.0, 0.0, 1.0, 1.0, 0.0, 0.0, 1.0, 1.0, 256.0, 1.0, 1.750529663457132E9, 0.0, 2025-06-21 20:14:23.457
220.0, -44909.7508084477, -38267.90759180875, -30516.233207730438, -74353.45791023469, -27850.497108757154, -28554.51000386596, -53348.22724440423, -102356.61743362159, -187500.02235174447, -187500.02235174447, -49362.799449300706, -47792.32118038192, -78182.78112206234, -49762.78391632842, -89476.89407788446, -32555.561668343744, 0.0, 0.0, 0.0, 193.0, 0.0, 1.0, 1.0, 0.0, 0.0, 1.0, 1.0, 256.0, 1.0, 1.750529663466097E9, 0.0, 2025-06-21 20:14:23.466
222.0, -44888.82957563753, -38249.24388518857, -30490.931033007033, -74326.3452442104, -27851.23471632418, -28585.42246644765, -53356.38563113042, -102346.82736955016, -187500.02235174447, -187500.02235174447, -49374.57881862865, -47803.76527354304, -78194.13580824564, -49772.93160831113, -89474.30127552763, -32564.14473821458, 0.0, 0.0, 0.0, 193.0, 0.0, 1.0, 1.0, 0.0, 0.0, 1.0, 1.0, 256.0, 1.0, 1.750529663474136E9, 0.0, 2025-06-21 20:14:23.474
224.0, -44891.93646811682, -38256.55290562545, -30492.830931285735, -74330.65913089027, -27848.530155245087, -28590.026925805443, -53344.20393040228, -102348.77197131776, -187500.02235174447, -187500.02235174447, -49352.47294336235, -47778.17252614171, -78175.87443302566, -49735.35832588176, -89505.25844159824, -32526.549104040758, 0.0, 0.0, 0.0, 193.0, 0.0, 1.0, 1.0, 0.0, 0.0, 1.0, 1.0, 256.0, 1.0, 1.750529663481142E9, 0.0, 2025-06-21 20:14:23.481
226.0, -44894.037532095615, -38251.32259742291, -30504.43148665804, -74339.26455250557, -27844.640951709862, -28563.98714351501, -53343.39926760188, -102344.97217476038, -187500.02235174447, -187500.02235174447, -49373.08125175015, -47807.52036661153, -78191.56535763328, -49776.39612870171, -89451.63660664996, -32568.391569661093, 0.0, 0.0, 0.0, 193.0, 0.0, 1.0, 1.0, 0.0, 0.0, 1.0, 1.0, 256.0, 1.0, 1.750529663489207E9, 0.0, 2025-06-21 20:14:23.489
228.0, -44877.87722085443, -38243.03010023, -30487.444160872004, -74318.07509876194, -27853.71575995872, -28622.548713987915, -53347.91431998186, -102333.95276474391, -187500.02235174447, -187500.02235174447, -49350.46128636137, -47778.86543021983, -78177.26024118188, -49739.82867477282, -89501.48099678529, -32532.49466806587, 0.0, 0.0, 0.0, 193.0, 0.0, 1.0, 1.0, 0.0, 0.0, 1.0, 1.0, 256.0, 1.0, 1.750529663498166E9, 0.0, 2025-06-21 20:14:23.498
230.0, -44907.58268923553, -38269.651027876265, -30516.344966452714, -74347.35588399839, -27842.763405175618, -28542.93180023811, -53351.110619438965, -102355.2092737209, -187500.02235174447, -187500.02235174447, -49363.91703652347, -47793.77404377151, -78187.11736048668, -49755.810172058365, -89474.59184820556, -32547.5820955732, 0.0, 0.0, 0.0, 193.0, 0.0, 1.0, 1.0, 0.0, 0.0, 1.0, 1.0, 256.0, 1.0, 1.750529663505237E9, 0.0, 2025-06-21 20:14:23.505
232.0, -44880.24650576669, -38242.49365836306, -30498.46357088847, -74324.4453459317, -27854.810995437027, -28589.266966493964, -53338.32542161053, -102328.87891875255, -187500.02235174447, -187500.02235174447, -49372.857734305595, -47796.45625310615, -78195.2533954684, -49773.44569843361, -89475.48591798377, -32562.624819591623, 0.0, 0.0, 0.0, 193.0, 0.0, 1.0, 1.0, 0.0, 0.0, 1.0, 1.0, 256.0, 1.0, 1.750529663513241E9, 0.0, 2025-06-21 20:14:23.513
234.0, -44900.31837228756, -38268.57814414241, -30515.495600163413, -74350.9992183446, -27864.04226589707, -28599.23584452103, -53357.525570097634, -102345.7544858163, -187500.02235174447, -187500.02235174447, -49352.11531545107, -47771.93638943868, -78174.91330801407, -49736.49826484898, -89505.75017997625, -32525.09624065116, 0.0, 0.0, 0.0, 193.0, 0.0, 1.0, 1.0, 0.0, 0.0, 1.0, 1.0, 256.0, 1.0, 1.750529663521272E9, 0.0, 2025-06-21 20:14:23.521
236.0, -44920.23377659724, -38284.76080712805, -30537.154440540606, -74374.75912270059, -27863.79639670806, -28564.590640615304, -53366.66743357986, -102360.8642650681, -187500.02235174447, -187500.02235174447, -49410.319258012685, -47842.94788157319, -78230.68091043006, -49811.041332607434, -89476.2235255508, -32603.148532289095, 0.0, 0.0, 0.0, 193.0, 0.0, 1.0, 1.0, 0.0, 0.0, 1.0, 1.0, 256.0, 1.0, 1.75052966353031E9, 0.0, 2025-06-21 20:14:23.530
238.0, -44878.32425574354, -38247.14282120977, -30496.273099931852, -74333.96718906966, -27868.691428743772, -28627.13082160125, -53348.07078219304, -102328.72245654136, -187500.02235174447, -187500.02235174447, -49372.701272094404, -47802.1335961978, -78199.32141295927, -49760.74990758299, -89515.24967136976, -32552.611238075646, 0.0, 0.0, 0.0, 193.0, 0.0, 1.0, 1.0, 0.0, 0.0, 1.0, 1.0, 256.0, 1.0, 1.750529663537359E9, 0.0, 2025-06-21 20:14:23.537
240.0, -44920.34553531952, -38282.83855710489, -30541.13305105365, -74379.14006461384, -27869.250222355156, -28568.07751275033, -53376.59160811801, -102377.40455596503, -187500.02235174447, -187500.02235174447, -49383.273647221766, -47812.817730047434, -78205.17757000656, -49784.129832283244, -89494.6190112375, -32575.92410754253, 0.0, 0.0, 0.0, 193.0, 0.0, 1.0, 1.0, 0.0, 0.0, 1.0, 1.0, 256.0, 1.0, 1.750529663545414E9, 0.0, 2025-06-21 20:14:23.545
242.0, -44880.44767146679, -38242.47130661861, -30504.096210491207, -74335.97884607063, -27867.03739965408, -28597.76062938698, -53347.690802537305, -102340.14419795803, -187500.02235174447, -187500.02235174447, -49390.761481614296, -47817.98098301661, -78212.39718346563, -49794.76926264397, -89491.51211875823, -32586.809407092263, 0.0, 0.0, 0.0, 193.0, 0.0, 1.0, 1.0, 0.0, 0.0, 1.0, 1.0, 256.0, 1.0, 1.750529663553437E9, 0.0, 2025-06-21 20:14:23.553
244.0, -44896.96561061926, -38257.80460331495, -30527.274969491362, -74357.01183760307, -27869.56314677753, -28588.618765904757, -53345.433276347314, -102345.93329977195, -187500.02235174447, -187500.02235174447, -49364.52053362376, -47786.330912867896, -78189.21842446548, -49752.680927834626, -89522.67045052892, -32543.96111297144, 0.0, 0.0, 0.0, 193.0, 0.0, 1.0, 1.0, 0.0, 0.0, 1.0, 1.0, 256.0, 1.0, 1.750529663561429E9, 0.0, 2025-06-21 20:14:23.561
246.0, -44905.88395665693, -38260.486812649586, -30531.14182128213, -74364.72318944016, -27852.374655291398, -28548.296218907384, -53363.42643063384, -102359.23258772286, -187500.02235174447, -187500.02235174447, -49407.72645565587, -47833.04605877949, -78224.19890453803, -49810.30372504041, -89479.21865930781, -32602.567386933257, 0.0, 0.0, 0.0, 193.0, 0.0, 1.0, 1.0, 0.0, 0.0, 1.0, 1.0, 256.0, 1.0, 1.750529663569409E9, 0.0, 2025-06-21 20:14:23.569
248.0, -44880.67118891134, -38243.343024652364, -30500.832855800734, -74332.26845649106, -27860.80126295105, -28588.909338582678, -53339.0406774331, -102331.94110774292, -187500.02235174447, -187500.02235174447, -49374.48941165083, -47796.90328799526, -78199.67904087056, -49764.75086984049, -89520.92701446141, -32555.829889277207, 0.0, 0.0, 0.0, 193.0, 0.0, 1.0, 1.0, 0.0, 0.0, 1.0, 1.0, 256.0, 1.0, 1.750529663577469E9, 0.0, 2025-06-21 20:14:23.577
250.0, -44910.197843336806, -38269.8298418319, -30534.651045161612, -74369.66292496478, -27854.788643692573, -28564.7918063154, -53351.31178513906, -102354.3152039427, -187500.02235174447, -187500.02235174447, -49383.78773734424, -47809.12969221231, -78203.59059615024, -49779.23480024753, -89490.90862165793, -32570.179709217515, 0.0, 0.0, 0.0, 193.0, 0.0, 1.0, 1.0, 0.0, 0.0, 1.0, 1.0, 256.0, 1.0, 1.750529663586503E9, 0.0, 2025-06-21 20:14:23.586
252.0, -44885.096834313495, -38243.85711477484, -30504.766762824867, -74337.87874434933, -27862.790568207573, -28602.342737000316, -53359.425468376336, -102349.84485505163, -187500.02235174447, -187500.02235174447, -49390.761481614296, -47815.1870149597, -78211.70427938752, -49789.74012014153, -89481.81146166462, -32580.617973878143, 0.0, 0.0, 0.0, 193.0, 0.0, 1.0, 1.0, 0.0, 0.0, 1.0, 1.0, 256.0, 1.0, 1.75052966359253E9, 0.0, 2025-06-21 20:14:23.592
254.0, -44897.77027341966, -38261.269123705526, -30512.41105942858, -74350.84275613341, -27867.484434543185, -28595.726620641544, -53352.98816597321, -102347.78849456174, -187500.02235174447, -187500.02235174447, -49366.17456271346, -47790.42128210322, -78193.48760765644, -49755.184323213616, -89518.49067431578, -32545.39162461658, 0.0, 0.0, 0.0, 193.0, 0.0, 1.0, 1.0, 0.0, 0.0, 1.0, 1.0, 256.0, 1.0, 1.750529663601555E9, 0.0, 2025-06-21 20:14:23.601
0.0, -44913.30473581609, -38272.62380988882, -30540.14957429762, -74376.54726225702, -27875.531062547096, -28571.05029476289, -53377.1504017294, -102369.24616923883, -187500.02235174447, -187500.02235174447, -49399.54571718523, -47833.157817501764, -78224.15420104912, -49809.52141398447, -89473.54131621616, -32602.16505553306, 0.0, 0.0, 0.0, 193.0, 0.0, 1.0, 1.0, 0.0, 0.0, 1.0, 1.0, 256.0, 1.0, 1.750529663609532E9, 0.0, 2025-06-21 20:14:23.609
2.0, -44883.88984011291, -38240.28083566199, -30504.722059335956, -74335.30829373698, -27860.823614695506, -28611.350490015804, -53348.718982782244, -102334.57861358864, -187500.02235174447, -187500.02235174447, -49375.517591895776, -47798.06557870693, -78204.52936941736, -49768.64007337571, -89527.99016570929, -32557.662732322544, 0.0, 0.0, 0.0, 193.0, 0.0, 1.0, 1.0, 0.0, 0.0, 1.0, 1.0, 256.0, 1.0, 1.750529663617582E9, 0.0, 2025-06-21 20:14:23.617
4.0, -44926.91694818938, -38287.2865542515, -30554.275876793374, -74391.32176534197, -27884.963498707235, -28558.93564926811, -53375.451669150796, -102381.24905601134, -187500.02235174447, -187500.02235174447, -49398.56224042919, -47824.61945111984, -78221.22612252548, -49790.72359689756, -89500.05048514015, -32582.316706456746, 0.0, 0.0, 0.0, 193.0, 0.0, 1.0, 1.0, 0.0, 0.0, 1.0, 1.0, 256.0, 1.0, 1.750529663624601E9, 0.0, 2025-06-21 20:14:23.624
6.0, -44887.4437674813, -38249.84738228886, -30518.691899620524, -74349.76987239956, -27869.116111888423, -28601.985109089033, -53349.993032216196, -102343.2510904373, -187500.02235174447, -187500.02235174447, -49398.49518519583, -47829.00039303308, -78226.18820979455, -49804.67108543767, -89497.9717729058, -32594.61016590717, 0.0, 0.0, 0.0, 193.0, 0.0, 1.0, 1.0, 0.0, 0.0, 1.0, 1.0, 256.0, 1.0, 1.750529663633639E9, 0.0, 2025-06-21 20:14:23.633
8.0, -44907.71679970226, -38271.23800173259, -30528.86194334769, -74366.62308771886, -27866.90328918735, -28598.028850320443, -53364.544017856606, -102360.03725052325, -187500.02235174447, -187500.02235174447, -49376.568123885176, -47805.70987531065, -78207.88213108566, -49764.72851809604, -89526.44789534187, -32554.28761890979, 0.0, 0.0, 0.0, 193.0, 0.0, 1.0, 1.0, 0.0, 0.0, 1.0, 1.0, 256.0, 1.0, 1.750529663641697E9, 0.0, 2025-06-21 20:14:23.641
10.0, -44913.88588117193, -38277.92117332473, -30538.04851031882, -74377.1060558684, -27861.85179494045, -28558.868594034746, -53373.3953086609, -102368.97794830537, -187500.02235174447, -187500.02235174447, -49402.96553408689, -47838.1422565153, -78228.0657563288, -49810.66135295169, -89471.44025223736, -32600.086343298717, 0.0, 0.0, 0.0, 193.0, 0.0, 1.0, 1.0, 0.0, 0.0, 1.0, 1.0, 256.0, 1.0, 1.750529663648688E9, 0.0, 2025-06-21 20:14:23.648
