%OpenBCI Raw EXG Data
%Number of channels = 16
%Sample Rate = 125 Hz
%Board = OpenBCI_GUI$BoardCytonSerialDaisy
Sample Index, EXG Channel 0, EXG Channel 1, EXG Channel 2, EXG Channel 3, EXG Channel 4, EXG Channel 5, EXG Channel 6, EXG Channel 7, EXG Channel 8, EXG Channel 9, EXG Channel 10, EXG Channel 11, EXG Channel 12, EXG Channel 13, EXG Channel 14, EXG Channel 15, Accel Channel 0, Accel Channel 1, Accel Channel 2, Not Used, Digital Channel 0 (D11), Digital Channel 1 (D12), Digital Channel 2 (D13), Digital Channel 3 (D17), Not Used, Digital Channel 4 (D18), Analog Channel 0, Analog Channel 1, Analog Channel 2, Timestamp, Marker Channel, Timestamp (Formatted)
0.0, -42917.51747340173, -40800.27083161722, -28019.11866892799, -67807.68249126464, -28964.463348920748, -27836.147288816846, -51284.40127186791, -97590.01852154953, 0.0, 0.0, 0.0, 0.0, 0.0, 0.0, 0.0, 0.0, 0.0, 0.0, 0.0, 193.0, 0.0, 0.5, 0.5, 0.0, 0.0, 0.5, 0.5, 128.0, 0.5, 1.750525200234E9, 0.0, 2025-06-21 19:00:00.234
152.0, -42904.48640638428, -40789.85491870104, -28007.07107866658, -67779.11696185076, -28958.67424710682, -27866.322143831512, -51257.534475032626, -97573.81350681944, -187500.02235174447, -187500.02235174447, -43789.257858903155, -42917.53982514618, -77417.18917097917, -46276.51527840082, -84683.56247944385, -29618.3412812163, 0.0, 0.0, 0.0, 193.0, 0.0, 1.0, 1.0, 0.0, 0.0, 1.0, 1.0, 256.0, 1.0, 1.75052520023419E9, 0.0, 2025-06-21 19:00:00.234
0.0, -21535.436396054793, -20351.956230635195, -14015.929581633758, -33962.24635389404, -14450.33573512265, -14119.284047995097, -25721.71696683371, -48890.551792448976, -93750.01117587223, -93750.01117587223, -21891.723202672387, -21454.321915426484, -38706.225300577324, -23134.234325198453, -42344.10582114528, -14804.856753928276, 0.0, 0.0, 0.0, 193.0, 0.0, 1.0, 1.0, 0.0, 0.0, 1.0, 1.0, 256.0, 1.0, 1.750525200312207E9, 0.0, 2025-06-21 19:00:00.312
2.0, -43095.415007521515, -40729.862836583, -28056.468433912807, -67950.8901179898, -28939.183525941793, -28251.129776374077, -51474.681672415936, -97809.9373352453, -187500.02235174447, -187500.02235174447, -43891.20416536381, -43016.625108316555, -77506.41733484475, -46420.304050481805, -84832.08982134936, -29723.34977666733, 0.0, 0.0, 0.0, 193.0, 0.0, 1.0, 1.0, 0.0, 0.0, 1.0, 1.0, 256.0, 1.0, 1.750525200319228E9, 0.0, 2025-06-21 19:00:00.319
4.0, -43077.511260212814, -40710.7073915848, -28049.070006498103, -67932.3381700919, -28925.43720310178, -28269.346448105152, -51431.29693642818, -97776.40971856234, -187500.02235174447, -187500.02235174447, -43891.45003455282, -43019.50848335129, -77523.18114318623, -46402.199137473006, -84863.29285660897, -29712.553884095418, 0.0, 0.0, 0.0, 193.0, 0.0, 1.0, 1.0, 0.0, 0.0, 1.0, 1.0, 256.0, 1.0, 1.750525200327274E9, 0.0, 2025-06-21 19:00:00.327
6.0, -43112.35762981864, -40741.150467532934, -28072.94166957637, -67965.86578677486, -28932.56740958302, -28225.268808039287, -51463.19287576591, -97801.68954154129, -187500.02235174447, -187500.02235174447, -43902.82707248057, -43027.398649144016, -77523.29290190851, -46418.91824232558, -84853.43573730419, -29726.07668949088, 0.0, 0.0, 0.0, 193.0, 0.0, 1.0, 1.0, 0.0, 0.0, 1.0, 1.0, 256.0, 1.0, 1.750525200336311E9, 0.0, 2025-06-21 19:00:00.336
8.0, -43092.17400457549, -40717.4129149214, -28062.816329338115, -67941.43533008521, -28938.28945616358, -28284.098599445653, -51450.497084915296, -97796.90626822786, -187500.02235174447, -187500.02235174447, -43930.07384897159, -43048.87867556557, -77545.1082044969, -46436.64317567863, -84870.7359875126, -29745.433300189175, 0.0, 0.0, 0.0, 193.0, 0.0, 1.0, 1.0, 0.0, 0.0, 1.0, 1.0, 256.0, 1.0, 1.750525200343301E9, 0.0, 2025-06-21 19:00:00.343
10.0, -43083.18860330446, -40715.5130166427, -28048.913544286916, -67934.19336488168, -28921.212723399727, -28269.279392871787, -51463.32698623264, -97794.11230017093, -187500.02235174447, -187500.02235174447, -43883.06813038208, -42998.74371275231, -77512.0499744475, -46389.16807045556, -84857.23553386159, -29701.042735700936, 0.0, 0.0, 0.0, 193.0, 0.0, 1.0, 1.0, 0.0, 0.0, 1.0, 1.0, 256.0, 1.0, 1.750525200351335E9, 0.0, 2025-06-21 19:00:00.351
12.0, -43115.28570834228, -40745.33024374607, -28082.910547603435, -67973.19715895619, -28958.74130234019, -28270.26286962782, -51504.76712045278, -97832.37848667843, -187500.02235174447, -187500.02235174447, -43921.110799445014, -43045.43650691945, -77533.73116656914, -46447.17084731709, -84863.9857606871, -29750.685960136172, 0.0, 0.0, 0.0, 193.0, 0.0, 1.0, 1.0, 0.0, 0.0, 1.0, 1.0, 256.0, 1.0, 1.750525200359374E9, 0.0, 2025-06-21 19:00:00.359
14.0, -43081.75809165932, -40720.385696933954, -28058.74831184725, -67943.98342895311, -28939.183525941793, -28286.043201213266, -51460.75653562028, -97810.25025966768, -187500.02235174447, -187500.02235174447, -43902.17887189137, -43025.69991656541, -77531.65245433479, -46418.694724881025, -84883.8341097634, -29727.283683691465, 0.0, 0.0, 0.0, 193.0, 0.0, 1.0, 1.0, 0.0, 0.0, 1.0, 1.0, 256.0, 1.0, 1.750525200367386E9, 0.0, 2025-06-21 19:00:00.367
16.0, -43108.28961232777, -40737.03774655316, -28060.82702408159, -67971.63253684432, -28933.617941572422, -28225.71584292839, -51495.73701569284, -97825.091817986, -187500.02235174447, -187500.02235174447, -43905.48693007075, -43038.59687311613, -77530.37840490084, -46432.57515818777, -84865.55038279896, -29738.50425940803, 0.0, 0.0, 0.0, 193.0, 0.0, 1.0, 1.0, 0.0, 0.0, 1.0, 1.0, 256.0, 1.0, 1.750525200375421E9, 0.0, 2025-06-21 19:00:00.375
18.0, -43091.972838875394, -40724.18549349136, -28057.340151946566, -67947.44794934368, -28933.841459016974, -28257.50002354384, -51456.86733208506, -97802.18127991931, -187500.02235174447, -187500.02235174447, -43914.628793552976, -43053.57254190118, -77541.91190503979, -46437.60430069021, -84863.87400196481, -29746.75205311204, 0.0, 0.0, 0.0, 193.0, 0.0, 1.0, 1.0, 0.0, 0.0, 1.0, 1.0, 256.0, 1.0, 1.750525200383487E9, 0.0, 2025-06-21 19:00:00.383
20.0, -43080.01465559181, -40712.897862541424, -28044.64436109595, -67935.80269048247, -28918.910493720832, -28256.762415976813, -51448.06074476967, -97790.60307629146, -187500.02235174447, -187500.02235174447, -43883.090482126536, -43012.42298035896, -77516.98970997211, -46394.3983786581, -84859.85068796285, -29704.082572946856, 0.0, 0.0, 0.0, 193.0, 0.0, 1.0, 1.0, 0.0, 0.0, 1.0, 1.0, 256.0, 1.0, 1.750525200392502E9, 0.0, 2025-06-21 19:00:00.392
22.0, -43103.55104250325, -40729.39344994944, -28061.341114204064, -67950.13015867832, -28927.24769440266, -28260.83043346768, -51467.46205895687, -97800.46019559624, -187500.02235174447, -187500.02235174447, -43907.11860741599, -43030.885521279044, -77520.78950652952, -46425.266137750885, -84843.39980404376, -29729.02711975898, 0.0, 0.0, 0.0, 193.0, 0.0, 1.0, 1.0, 0.0, 0.0, 1.0, 1.0, 256.0, 1.0, 1.750525200399488E9, 0.0, 2025-06-21 19:00:00.399
24.0, -43084.8202806497, -40720.96684228979, -28053.786224578173, -67927.10786188935, -28930.06401420403, -28281.41639011102, -51438.382439420515, -97783.33875934349, -187500.02235174447, -187500.02235174447, -43899.69782825683, -43017.31801239467, -77526.33273915443, -46392.58788735722, -84864.20927813165, -29700.752163023015, 0.0, 0.0, 0.0, 193.0, 0.0, 1.0, 1.0, 0.0, 0.0, 1.0, 1.0, 256.0, 1.0, 1.750525200407479E9, 0.0, 2025-06-21 19:00:00.407
26.0, -43092.66574295351, -40724.54312140264, -28051.55105013264, -67939.35661785086, -28934.847287517463, -28235.30474129972, -51459.52718967524, -97788.39025359038, -187500.02235174447, -187500.02235174447, -43898.244964867234, -43016.53570133873, -77518.88960825081, -46406.82594857526, -84851.44643204767, -29708.0611834599, 0.0, 0.0, 0.0, 193.0, 0.0, 1.0, 1.0, 0.0, 0.0, 1.0, 1.0, 256.0, 1.0, 1.750525200415535E9, 0.0, 2025-06-21 19:00:00.415
28.0, -43091.570507475204, -40727.82882783757, -28063.710399116328, -67947.17972841022, -28942.759805054644, -28260.40575032303, -51454.833323339626, -97791.29598036957, -187500.02235174447, -187500.02235174447, -43916.573395320585, -43037.27812019326, -77533.93233226924, -46422.65098364961, -84862.95758044215, -29723.774459811983, 0.0, 0.0, 0.0, 193.0, 0.0, 1.0, 1.0, 0.0, 0.0, 1.0, 1.0, 256.0, 1.0, 1.750525200423515E9, 0.0, 2025-06-21 19:00:00.423
30.0, -43099.84065292367, -40730.667499383395, -28059.39651243645, -67946.41976909873, -28937.44008987428, -28268.787654493768, -51453.782791350226, -97790.49131756918, -187500.02235174447, -187500.02235174447, -43899.854290468014, -43023.77766654226, -77527.42797463274, -46399.71809383847, -84868.97019970062, -29703.724945035574, 0.0, 0.0, 0.0, 193.0, 0.0, 1.0, 1.0, 0.0, 0.0, 1.0, 1.0, 256.0, 1.0, 1.750525200431548E9, 0.0, 2025-06-21 19:00:00.431
32.0, -43097.225498822394, -40728.76760110469, -28063.822157838604, -67948.789054011, -28934.221438672717, -28248.40286355053, -51464.75749787778, -97794.82755599351, -187500.02235174447, -187500.02235174447, -43924.687078557865, -43041.100268495116, -77530.87014327887, -46434.18448378855, -84856.96731292813, -29729.161230225713, 0.0, 0.0, 0.0, 193.0, 0.0, 1.0, 1.0, 0.0, 0.0, 1.0, 1.0, 256.0, 1.0, 1.750525200439632E9, 0.0, 2025-06-21 19:00:00.439
34.0, -43072.19154503245, -40706.92994677186, -28046.052520996636, -67920.31293157494, -28923.29143563407, -28258.505852044327, -51436.52724463073, -97774.95685517274, -187500.02235174447, -187500.02235174447, -43894.892203198935, -43011.104227436095, -77521.77298328555, -46385.56943959826, -84854.84389720488, -29690.850340229317, 0.0, 0.0, 0.0, 193.0, 0.0, 1.0, 1.0, 0.0, 0.0, 1.0, 1.0, 256.0, 1.0, 1.75052520044765E9, 0.0, 2025-06-21 19:00:00.447
36.0, -43105.09331287066, -40735.16020001891, -28067.46549218482, -67955.89690874779, -28925.884237990886, -28221.692528926436, -51467.64087291252, -97788.05497742356, -187500.02235174447, -187500.02235174447, -43916.55104357613, -43029.27619567826, -77529.90901826728, -46408.837605576235, -84851.11115588083, -29709.581102082862, 0.0, 0.0, 0.0, 193.0, 0.0, 1.0, 1.0, 0.0, 0.0, 1.0, 1.0, 256.0, 1.0, 1.750525200454688E9, 0.0, 2025-06-21 19:00:00.454
38.0, -43091.81637666421, -40717.167045732385, -28059.932954303382, -67928.5383735345, -28935.227267173206, -28267.2230323819, -51455.302709973184, -97778.93546568579, -187500.02235174447, -187500.02235174447, -43910.069037684094, -43027.64451833302, -77530.04312873402, -46405.194271230015, -84847.95955991263, -29705.669546803183, 0.0, 0.0, 0.0, 193.0, 0.0, 1.0, 1.0, 0.0, 0.0, 1.0, 1.0, 256.0, 1.0, 1.750525200463666E9, 0.0, 2025-06-21 19:00:00.463
40.0, -43100.8241296797, -40732.72385987328, -28065.11855901701, -67945.01160919805, -28943.96679925523, -28253.67787524198, -51442.60691912257, -97782.22117212071, -187500.02235174447, -187500.02235174447, -43903.54232830314, -43019.03909671773, -77533.86527703587, -46391.73852106792, -84869.10431016736, -29694.046639686425, 0.0, 0.0, 0.0, 193.0, 0.0, 1.0, 1.0, 0.0, 0.0, 1.0, 1.0, 256.0, 1.0, 1.750525200471731E9, 0.0, 2025-06-21 19:00:00.471
42.0, -43108.80370245024, -40734.19907500733, -28068.560727663127, -67954.84637675839, -28942.20101144326, -28257.298857843743, -51457.85080884109, -97799.99080896268, -187500.02235174447, -187500.02235174447, -43928.173950692886, -43044.92241679697, -77536.7486520706, -46426.584890673745, -84848.04896689046, -29725.048509245935, 0.0, 0.0, 0.0, 193.0, 0.0, 1.0, 1.0, 0.0, 0.0, 1.0, 1.0, 256.0, 1.0, 1.750525200479758E9, 0.0, 2025-06-21 19:00:00.479
44.0, -43081.62398119259, -40714.864816053494, -28050.053483254134, -67925.81146071095, -28940.077595720006, -28253.70022698644, -51431.45339863937, -97779.06957615251, -187500.02235174447, -187500.02235174447, -43905.35281960402, -43023.531797353244, -77532.79239330202, -46399.36046592718, -84868.79138574497, -29702.96498572409, 0.0, 0.0, 0.0, 193.0, 0.0, 1.0, 1.0, 0.0, 0.0, 1.0, 1.0, 256.0, 1.0, 1.750525200486734E9, 0.0, 2025-06-21 19:00:00.486
46.0, -43116.00096416485, -40749.44296472585, -28073.098131787556, -67963.58590884041, -28931.315711893527, -28260.562212534216, -51471.08304155863, -97803.36592237544, -187500.02235174447, -187500.02235174447, -43902.62590678047, -43030.84081779013, -77523.06938446396, -46410.938669555035, -84848.69716747967, -29710.83279977236, 0.0, 0.0, 0.0, 193.0, 0.0, 1.0, 1.0, 0.0, 0.0, 1.0, 1.0, 256.0, 1.0, 1.750525200495838E9, 0.0, 2025-06-21 19:00:00.495
48.0, -43084.641466694055, -40715.80358932061, -28050.701683843337, -67925.07385314391, -28932.58976132748, -28273.88385222958, -51438.04716325369, -97780.65655000885, -187500.02235174447, -187500.02235174447, -43915.947546475836, -43033.970062013876, -77531.18306770123, -46414.55965215679, -84852.0275774035, -29716.77836379747, 0.0, 0.0, 0.0, 193.0, 0.0, 1.0, 1.0, 0.0, 0.0, 1.0, 1.0, 256.0, 1.0, 1.750525200503837E9, 0.0, 2025-06-21 19:00:00.503
50.0, -43099.79594943475, -40732.8132668511, -28060.961134548324, -67941.05535042947, -28939.608209086444, -28247.888773428058, -51448.865407570054, -97789.12786115741, -187500.02235174447, -187500.02235174447, -43888.43254905135, -43010.23250940234, -77518.1520006838, -46381.568477340756, -84854.44156580468, -29686.759970993993, 0.0, 0.0, 0.0, 193.0, 0.0, 1.0, 1.0, 0.0, 0.0, 1.0, 1.0, 256.0, 1.0, 1.75052520051087E9, 0.0, 2025-06-21 19:00:00.510
52.0, -43106.21090009343, -40733.595577907035, -28062.92808806039, -67946.4868243321, -28941.552810854057, -28246.614723994106, -51468.95962583538, -97796.48158508321, -187500.02235174447, -187500.02235174447, -43921.200206422836, -43036.85343704861, -77529.79725954501, -46423.589756916735, -84847.60193200134, -29722.589817355853, 0.0, 0.0, 0.0, 193.0, 0.0, 1.0, 1.0, 0.0, 0.0, 1.0, 1.0, 256.0, 1.0, 1.750525200518885E9, 0.0, 2025-06-21 19:00:00.518
54.0, -43091.59285921966, -40725.6607086254, -28049.070006498103, -67926.77258572252, -28940.83755503149, -28255.93540143197, -51443.65745111197, -97786.08802391149, -187500.02235174447, -187500.02235174447, -43901.70948525781, -43025.163474698486, -77529.52903861154, -46392.45377689049, -84863.96340894264, -29701.06508744539, 0.0, 0.0, 0.0, 193.0, 0.0, 1.0, 1.0, 0.0, 0.0, 1.0, 1.0, 256.0, 1.0, 1.750525200527928E9, 0.0, 2025-06-21 19:00:00.527
56.0, -43119.28667059978, -40747.54306644715, -28074.059256799133, -67961.66365881726, -28943.318598666025, -28222.45248823792, -51480.269608529765, -97813.11128295795, -187500.02235174447, -187500.02235174447, -43907.632697538465, -43030.37143115657, -77522.89057050832, -46411.788035844336, -84854.62037976032, -29714.67729981867, 0.0, 0.0, 0.0, 193.0, 0.0, 1.0, 1.0, 0.0, 0.0, 1.0, 1.0, 256.0, 1.0, 1.750525200534973E9, 0.0, 2025-06-21 19:00:00.534
58.0, -43089.80471966323, -40704.67242058187, -28074.908623088435, -67945.72686502062, -28940.301113164558, -28279.53884357677, -51450.58649189312, -97798.96262871774, -187500.02235174447, -187500.02235174447, -43929.98444199377, -43047.09053600914, -77542.69421609571, -46429.110637797196, -84869.57369680092, -29731.083480248868, 0.0, 0.0, 0.0, 193.0, 0.0, 1.0, 1.0, 0.0, 0.0, 1.0, 1.0, 256.0, 1.0, 1.750525200543001E9, 0.0, 2025-06-21 19:00:00.543
60.0, -43087.70365568443, -40729.77342960518, -28054.903811800938, -67935.89209746028, -28924.72194727921, -28238.232819823366, -51437.4436661534, -97784.94808494426, -187500.02235174447, -187500.02235174447, -43901.396560835434, -43010.7018960359, -77521.81768677446, -46399.673390349555, -84870.84774623487, -29704.753125280517, 0.0, 0.0, 0.0, 193.0, 0.0, 1.0, 1.0, 0.0, 0.0, 1.0, 1.0, 256.0, 1.0, 1.750525200552019E9, 0.0, 2025-06-21 19:00:00.552
62.0, -43100.6229639796, -40742.22335126679, -28044.26438144021, -67933.05342591446, -28934.24379041717, -28241.451471024928, -51459.12485827504, -97795.14048041588, -187500.02235174447, -187500.02235174447, -43907.476235327274, -43030.21496894538, -77513.72635528164, -46416.303088224304, -84835.53198999548, -29716.68895681965, 0.0, 0.0, 0.0, 193.0, 0.0, 1.0, 1.0, 0.0, 0.0, 1.0, 1.0, 256.0, 1.0, 1.750525200560057E9, 0.0, 2025-06-21 19:00:00.560
64.0, -43087.10015858414, -40735.04844129663, -28037.558858103617, -67920.49174553058, -28925.19133391277, -28280.61172731063, -51443.54569238969, -97792.79354724807, -187500.02235174447, -187500.02235174447, -43889.0583978961, -43014.5016925933, -77516.43091636072, -46387.24582043241, -84856.45322280565, -29695.141875164736, 0.0, 0.0, 0.0, 193.0, 0.0, 1.0, 1.0, 0.0, 0.0, 1.0, 1.0, 256.0, 1.0, 1.750525200567071E9, 0.0, 2025-06-21 19:00:00.567
66.0, -43103.86396692562, -40746.13490654647, -28040.59869534954, -67936.54029804948, -28924.051394945553, -28252.716750230404, -51466.009195567276, -97792.74884375917, -187500.02235174447, -187500.02235174447, -43884.58804900504, -43018.63676531753, -77504.78565749951, -46391.13502396763, -84832.98389112757, -29695.320689120377, 0.0, 0.0, 0.0, 193.0, 0.0, 1.0, 1.0, 0.0, 0.0, 1.0, 1.0, 256.0, 1.0, 1.75052520057509E9, 0.0, 2025-06-21 19:00:00.575
68.0, -43081.89220212605, -40728.991118549246, -28041.805689550125, -67927.84546945637, -28926.286569391083, -28267.714770759914, -51451.90524481598, -97788.50201231266, -187500.02235174447, -187500.02235174447, -43893.34993283152, -43029.075029978165, -77516.81089601647, -46407.11652125318, -84850.70882448064, -29712.911512006704, 0.0, 0.0, 0.0, 193.0, 0.0, 1.0, 1.0, 0.0, 0.0, 1.0, 1.0, 256.0, 1.0, 1.750525200584148E9, 0.0, 2025-06-21 19:00:00.584
70.0, -43084.70852192742, -40727.448848181826, -28042.476241883785, -67931.57821078041, -28918.105830920438, -28240.333883802163, -51451.97230004935, -97791.96653270323, -187500.02235174447, -187500.02235174447, -43871.04289186512, -43012.914718736974, -77504.76330575506, -46383.535430852826, -84857.0790716504, -29693.44314258613, 0.0, 0.0, 0.0, 193.0, 0.0, 1.0, 1.0, 0.0, 0.0, 1.0, 1.0, 256.0, 1.0, 1.750525200591128E9, 0.0, 2025-06-21 19:00:00.591
72.0, -43095.32560054369, -40733.72968837377, -28052.199250721846, -67943.84931848638, -28919.983377454686, -28248.49227052835, -51462.857599599076, -97792.54767805907, -187500.02235174447, -187500.02235174447, -43902.514148058195, -43035.020594003276, -77516.22975066063, -46426.49548369592, -84851.06645239193, -29728.960064525614, 0.0, 0.0, 0.0, 193.0, 0.0, 1.0, 1.0, 0.0, 0.0, 1.0, 1.0, 256.0, 1.0, 1.750525200600141E9, 0.0, 2025-06-21 19:00:00.600
74.0, -43055.89712332453, -40710.34976367352, -28027.232352165265, -67917.51896351803, -28901.431429556782, -28296.302651918253, -51428.950003260376, -97776.00738716214, -187500.02235174447, -187500.02235174447, -43871.53463024314, -43011.238337902825, -77505.1432854108, -46389.525698366844, -84854.19569661567, -29699.746334522526, 0.0, 0.0, 0.0, 193.0, 0.0, 1.0, 1.0, 0.0, 0.0, 1.0, 1.0, 256.0, 1.0, 1.750525200607172E9, 0.0, 2025-06-21 19:00:00.607
76.0, -43080.305228269724, -40729.37109820498, -28041.381006405474, -67951.18069066772, -28901.76670572361, -28238.411633779007, -51458.76723036376, -97796.77215776112, -187500.02235174447, -187500.02235174447, -43868.29362729712, -43013.0041257148, -77493.27450910503, -46408.23410847594, -84837.96833014111, -29714.587892840853, 0.0, 0.0, 0.0, 193.0, 0.0, 1.0, 1.0, 0.0, 0.0, 1.0, 1.0, 256.0, 1.0, 1.750525200615183E9, 0.0, 2025-06-21 19:00:00.615
78.0, -43062.40148096102, -40715.02127826468, -28041.381006405474, -67935.51211780455, -28901.14085687886, -28272.699209773447, -51447.36784069155, -97787.13855590089, -187500.02235174447, -187500.02235174447, -43888.477252540266, -43039.71446033889, -77516.16269542727, -46422.114541782685, -84851.96052217013, -29731.418756415696, 0.0, 0.0, 0.0, 193.0, 0.0, 1.0, 1.0, 0.0, 0.0, 1.0, 1.0, 256.0, 1.0, 1.750525200623191E9, 0.0, 2025-06-21 19:00:00.623
80.0, -43062.04385304974, -40717.07763875456, -28034.004930735224, -67933.90279220376, -28902.884292946375, -28253.16378511951, -51445.579701135124, -97782.55644828755, -187500.02235174447, -187500.02235174447, -43861.49869698271, -43011.46185534738, -77500.47177081964, -46386.84348903221, -84854.03923440448, -29697.555863565907, 0.0, 0.0, 0.0, 193.0, 0.0, 1.0, 1.0, 0.0, 0.0, 1.0, 1.0, 256.0, 1.0, 1.750525200632209E9, 0.0, 2025-06-21 19:00:00.632
82.0, -43055.69595762443, -40708.38281016145, -28023.723128285783, -67924.3362455769, -28890.47907477368, -28240.87032566909, -51444.88679705701, -97780.41068081984, -187500.02235174447, -187500.02235174447, -43884.69980772732, -43040.47441965037, -77510.77592501354, -46412.36918120017, -84830.03346085949, -29718.320634164887, 0.0, 0.0, 0.0, 193.0, 0.0, 1.0, 1.0, 0.0, 0.0, 1.0, 1.0, 256.0, 1.0, 1.750525200639265E9, 0.0, 2025-06-21 19:00:00.639
84.0, -43026.057544476695, -40680.82310924806, -27999.896168696425, -67893.49083822856, -28886.209891582715, -28256.896526443546, -51416.70124729887, -97763.55746550053, -187500.02235174447, -187500.02235174447, -43835.81654260356, -42983.075139889144, -77478.41059904225, -46349.60548276967, -84817.69529792015, -29662.530680004442, 0.0, 0.0, 0.0, 193.0, 0.0, 1.0, 1.0, 0.0, 0.0, 1.0, 1.0, 256.0, 1.0, 1.75052520064728E9, 0.0, 2025-06-21 19:00:00.647
86.0, -43063.541419928246, -40714.2613189532, -28033.021453979192, -67941.32357136293, -28894.569444009, -28233.024863365277, -51457.269663485255, -97800.50489908516, -187500.02235174447, -187500.02235174447, -43850.68045266634, -43003.66109653248, -77481.04810488797, -46383.870707019654, -84819.28227177648, -29692.593776296828, 0.0, 0.0, 0.0, 193.0, 0.0, 1.0, 1.0, 0.0, 0.0, 1.0, 1.0, 256.0, 1.0, 1.750525200656334E9, 0.0, 2025-06-21 19:00:00.656
88.0, -43038.66392834949, -40691.507243097694, -28023.656073052418, -67918.7259577186, -28889.942632906754, -28261.791558479257, -51436.68370684191, -97788.07732916801, -187500.02235174447, -187500.02235174447, -43874.44035702233, -43022.503617108305, -77503.71277376566, -46411.72098061097, -84844.33857731087, -29722.1651342112, 0.0, 0.0, 0.0, 193.0, 0.0, 1.0, 1.0, 0.0, 0.0, 1.0, 1.0, 256.0, 1.0, 1.750525200663336E9, 0.0, 2025-06-21 19:00:00.663
90.0, -43037.099306237615, -40691.1049116975, -28021.2644363957, -67923.21865835413, -28887.707458461224, -28256.382436321073, -51432.88391028451, -97790.7371867582, -187500.02235174447, -187500.02235174447, -43841.0468508061, -42989.914773692464, -77479.10350312036, -46379.51211685087, -84841.32109180941, -29690.69387801813, 0.0, 0.0, 0.0, 193.0, 0.0, 1.0, 1.0, 0.0, 0.0, 1.0, 1.0, 256.0, 1.0, 1.750525200671359E9, 0.0, 2025-06-21 19:00:00.671
92.0, -43050.93503605545, -40703.57718510356, -28041.73863431676, -67945.34688536488, -28900.29149058956, -28240.020959379788, -51462.164695520965, -97807.92567824433, -187500.02235174447, -187500.02235174447, -43879.06716812458, -43024.26940492027, -77497.38723008482, -46434.34094599974, -84846.59610350087, -29739.17481174169, 0.0, 0.0, 0.0, 193.0, 0.0, 1.0, 1.0, 0.0, 0.0, 1.0, 1.0, 256.0, 1.0, 1.750525200679606E9, 0.0, 2025-06-21 19:00:00.679
94.0, -43023.73296305334, -40678.230306891244, -28015.25181713722, -67910.58992273688, -28883.639440970357, -28261.277468356788, -51425.12785495852, -97776.18620111779, -187500.02235174447, -187500.02235174447, -43855.262560279676, -43010.32191638016, -77496.85078821788, -46393.48195713544, -84857.14612688376, -29706.40715437021, 0.0, 0.0, 0.0, 193.0, 0.0, 1.0, 1.0, 0.0, 0.0, 1.0, 1.0, 256.0, 1.0, 1.750525200688408E9, 0.0, 2025-06-21 19:00:00.688
96.0, -43059.67456813748, -40709.835673551046, -28039.592866849052, -67944.67633303122, -28882.723019447687, -28241.764395447302, -51460.37655596454, -97799.02968395111, -187500.02235174447, -187500.02235174447, -43860.26935103766, -43014.0546577042, -77489.78763697001, -46394.75600656939, -84831.776896927, -29701.847398501326, 0.0, 0.0, 0.0, 193.0, 0.0, 1.0, 1.0, 0.0, 0.0, 1.0, 1.0, 256.0, 1.0, 1.750525200695488E9, 0.0, 2025-06-21 19:00:00.695
98.0, -43035.9593672704, -40686.76867327317, -28026.69591029834, -67912.89215241578, -28903.912473191318, -28259.802253222737, -51432.32511667313, -97783.56227678804, -187500.02235174447, -187500.02235174447, -43882.375226303964, -43028.583291600145, -77512.45230584769, -46401.66269560608, -84844.69620522216, -29707.994128226535, 0.0, 0.0, 0.0, 193.0, 0.0, 1.0, 1.0, 0.0, 0.0, 1.0, 1.0, 256.0, 1.0, 1.750525200703476E9, 0.0, 2025-06-21 19:00:00.703
100.0, -43044.453030163415, -40695.88818501093, -28029.44517486634, -67921.11759437533, -28890.367316051404, -28257.052988654734, -51441.13170398852, -97787.80910823455, -187500.02235174447, -187500.02235174447, -43848.71349915427, -42990.36180858157, -77486.05489564597, -46357.719166006944, -84834.526161495, -29664.855261427794, 0.0, 0.0, 0.0, 193.0, 0.0, 1.0, 1.0, 0.0, 0.0, 1.0, 1.0, 256.0, 1.0, 1.750525200711511E9, 0.0, 2025-06-21 19:00:00.711
102.0, -43051.583236644656, -40700.33618215754, -28042.386834905963, -67938.35078935037, -28900.24678710065, -28230.342654030643, -51467.21618976787, -97802.44950085277, -187500.02235174447, -187500.02235174447, -43896.88150845546, -43032.83012304665, -77511.2453116471, -46419.52173942587, -84843.15393485474, -29720.801677799427, 0.0, 0.0, 0.0, 193.0, 0.0, 1.0, 1.0, 0.0, 0.0, 1.0, 1.0, 256.0, 1.0, 1.750525200719568E9, 0.0, 2025-06-21 19:00:00.719
104.0, -43031.77959105725, -40682.74535927121, -28023.1643346744, -67912.75804194904, -28892.066048630008, -28257.745892732848, -51430.11229397205, -97785.2833611111, -187500.02235174447, -187500.02235174447, -43863.376243516956, -43009.38314311304, -77499.4435905747, -46377.3439976387, -84849.97121691362, -29686.223529127066, 0.0, 0.0, 0.0, 193.0, 0.0, 1.0, 1.0, 0.0, 0.0, 1.0, 1.0, 256.0, 1.0, 1.75052520072757E9, 0.0, 2025-06-21 19:00:00.727
106.0, -43056.72413786938, -40700.40323739091, -28039.54816336014, -67938.59665853938, -28890.970813151696, -28218.54093295824, -51452.46403842736, -97794.80520424906, -187500.02235174447, -187500.02235174447, -43866.930170885345, -43009.24903264631, -77490.16761662574, -46392.74434956841, -84830.01110911502, -29696.34886936532, 0.0, 0.0, 0.0, 193.0, 0.0, 1.0, 1.0, 0.0, 0.0, 1.0, 1.0, 256.0, 1.0, 1.750525200735589E9, 0.0, 2025-06-21 19:00:00.735
108.0, -43034.08182073615, -40680.28666738113, -28032.395605134443, -67919.50826877455, -28896.916377176807, -28262.35035209064, -51440.03646851021, -97792.0335879366, -187500.02235174447, -187500.02235174447, -43875.13326110045, -43012.53473908124, -77499.64475627479, -46403.741407840425, -84846.17142035622, -29709.02230847148, 0.0, 0.0, 0.0, 193.0, 0.0, 1.0, 1.0, 0.0, 0.0, 1.0, 1.0, 256.0, 1.0, 1.750525200743613E9, 0.0, 2025-06-21 19:00:00.743
110.0, -43034.730021325355, -40682.34302787102, -28031.613294078506, -67929.45479505716, -28887.37218229439, -28235.036520366255, -51437.71188708686, -97781.55061978706, -187500.02235174447, -187500.02235174447, -43860.89519988241, -43005.22571864435, -77496.2919946065, -46383.02134073035, -84852.98870241508, -29692.12438966327, 0.0, 0.0, 0.0, 193.0, 0.0, 1.0, 1.0, 0.0, 0.0, 1.0, 1.0, 256.0, 1.0, 1.750525200752639E9, 0.0, 2025-06-21 19:00:00.752
112.0, -43053.19256224544, -40694.27885941015, -28050.277000698687, -67947.24678364358, -28902.973699924198, -28216.931607357456, -51448.97716629233, -97788.90434371286, -187500.02235174447, -187500.02235174447, -43889.661894996396, -43034.93118702545, -77509.90420697979, -46415.99016380193, -84835.93432139567, -29720.44404988814, 0.0, 0.0, 0.0, 193.0, 0.0, 1.0, 1.0, 0.0, 0.0, 1.0, 1.0, 256.0, 1.0, 1.750525200759633E9, 0.0, 2025-06-21 19:00:00.759
114.0, -43047.13523949805, -40695.44115012183, -28047.773605319693, -67933.79103348148, -28906.10294414794, -28272.430988839984, -51427.87711952652, -97773.25812259414, -187500.02235174447, -187500.02235174447, -43871.98166513225, -43017.56388158368, -77510.9994424581, -46380.093262206705, -84852.94399892617, -29691.58794779634, 0.0, 0.0, 0.0, 193.0, 0.0, 1.0, 1.0, 0.0, 0.0, 1.0, 1.0, 256.0, 1.0, 1.75052520076769E9, 0.0, 2025-06-21 19:00:00.767
116.0, -43071.990379332354, -40718.999888777726, -28064.872689828004, -67965.61991758585, -28908.38282208238, -28227.794555162738, -51455.436820439914, -97798.18031766181, -187500.02235174447, -187500.02235174447, -43894.64633400993, -43036.22758820386, -77519.26958790656, -46416.526605668856, -84858.3754728288, -29720.958140010614, 0.0, 0.0, 0.0, 193.0, 0.0, 1.0, 1.0, 0.0, 0.0, 1.0, 1.0, 256.0, 1.0, 1.750525200775731E9, 0.0, 2025-06-21 19:00:00.775
118.0, -43051.5608849002, -40699.03978097913, -28049.94172453186, -67939.40132133977, -28900.51500803411, -28268.20650913793, -51424.971392747335, -97783.20464887675, -187500.02235174447, -187500.02235174447, -43900.30132535712, -43049.63863487705, -77526.98093974363, -46424.506178439406, -84867.71850201112, -29731.30699769342, 0.0, 0.0, 0.0, 193.0, 0.0, 1.0, 1.0, 0.0, 0.0, 1.0, 1.0, 256.0, 1.0, 1.750525200782751E9, 0.0, 2025-06-21 19:00:00.782
120.0, -43050.57740814417, -40701.230251935754, -28033.11086095701, -67934.08160615941, -28887.86392067241, -28233.53895348775, -51430.13464571651, -97773.34752957195, -187500.02235174447, -187500.02235174447, -43870.12647034246, -43015.06048620468, -77504.45038133269, -46383.71424480847, -84852.18403961469, -29692.21379664109, 0.0, 0.0, 0.0, 193.0, 0.0, 1.0, 1.0, 0.0, 0.0, 1.0, 1.0, 256.0, 1.0, 1.750525200791804E9, 0.0, 2025-06-21 19:00:00.791
122.0, -43058.31111172571, -40708.47221713927, -28042.096262228046, -67944.27400163103, -28891.03786838506, -28234.25420931032, -51446.786695335715, -97787.87616346791, -187500.02235174447, -187500.02235174447, -43883.91749667138, -43035.84760854812, -77505.63502378881, -46415.74429461292, -84829.34055678136, -29719.505276621017, 0.0, 0.0, 0.0, 193.0, 0.0, 1.0, 1.0, 0.0, 0.0, 1.0, 1.0, 256.0, 1.0, 1.750525200799831E9, 0.0, 2025-06-21 19:00:00.799
124.0, -43031.71253582389, -40687.19335641782, -28026.673558553885, -67915.48495477259, -28889.942632906754, -28249.252229839833, -51411.627401307516, -97767.73724171368, -187500.02235174447, -187500.02235174447, -43863.979740617244, -43012.08770419213, -77501.47759932013, -46379.10978545067, -84847.13254536779, -29690.02332568447, 0.0, 0.0, 0.0, 193.0, 0.0, 1.0, 1.0, 0.0, 0.0, 1.0, 1.0, 256.0, 1.0, 1.750525200806864E9, 0.0, 2025-06-21 19:00:00.806
126.0, -43063.72023388389, -40709.58980436204, -28044.331436673576, -67944.47516733113, -28891.90958641882, -28219.747927158827, -51448.91011105897, -97790.46896582472, -187500.02235174447, -187500.02235174447, -43873.21101107729, -43016.960384483384, -77498.16954114074, -46401.841509561724, -84842.50573426553, -29705.35662238081, 0.0, 0.0, 0.0, 193.0, 0.0, 1.0, 1.0, 0.0, 0.0, 1.0, 1.0, 256.0, 1.0, 1.750525200815865E9, 0.0, 2025-06-21 19:00:00.815
128.0, -43055.09246052414, -40707.667554338885, -28046.20898320782, -67937.43436782771, -28897.81044695502, -28242.144375103042, -51445.15501799047, -97790.22309663572, -187500.02235174447, -187500.02235174447, -43888.58901126254, -43026.79515204372, -77514.77688727104, -46412.257422477895, -84854.48626929359, -29721.338119666354, 0.0, 0.0, 0.0, 193.0, 0.0, 1.0, 1.0, 0.0, 0.0, 1.0, 1.0, 256.0, 1.0, 1.750525200823927E9, 0.0, 2025-06-21 19:00:00.823
130.0, -43050.01861453278, -40701.0067344912, -28038.117651715, -67937.14379514978, -28882.09717060294, -28245.094805371144, -51427.36302940405, -97773.43693654978, -187500.02235174447, -187500.02235174447, -43861.565752216076, -43014.14406468202, -77506.17146565575, -46383.49072736392, -84854.3298070824, -29694.091343175336, 0.0, 0.0, 0.0, 193.0, 0.0, 1.0, 1.0, 0.0, 0.0, 1.0, 1.0, 256.0, 1.0, 1.75052520083094E9, 0.0, 2025-06-21 19:00:00.830
132.0, -43063.541419928246, -40713.56841487508, -28056.17786123489, -67949.59371681139, -28908.695746504756, -28241.71969195839, -51439.32121268764, -97790.42426233582, -187500.02235174447, -187500.02235174447, -43890.33244733005, -43030.34907941212, -77508.16077091226, -46415.58783240173, -84839.26473131952, -29717.851247531325, 0.0, 0.0, 0.0, 193.0, 0.0, 1.0, 1.0, 0.0, 0.0, 1.0, 1.0, 256.0, 1.0, 1.750525200838997E9, 0.0, 2025-06-21 19:00:00.838
134.0, -43041.32378593967, -40694.99411523272, -28030.473355111284, -67924.60446651035, -28895.061182387017, -28264.809043980724, -51428.99470674929, -97780.4330325643, -187500.02235174447, -187500.02235174447, -43876.228496578755, -43024.71643980938, -77514.48631459312, -46392.38672165712, -84867.1820601442, -29701.154494423212, 0.0, 0.0, 0.0, 193.0, 0.0, 1.0, 1.0, 0.0, 0.0, 1.0, 1.0, 256.0, 1.0, 1.750525200848972E9, 0.0, 2025-06-21 19:00:00.848
136.0, -43056.053585535716, -40706.39350490493, -28034.049634224135, -67940.16128065126, -28885.874615415887, -28216.77514514627, -51449.80418083718, -97791.36303560293, -187500.02235174447, -187500.02235174447, -43867.51131624119, -43021.721306052365, -77494.97324168363, -46394.778358313844, -84832.04511786046, -29699.388706611244, 0.0, 0.0, 0.0, 193.0, 0.0, 1.0, 1.0, 0.0, 0.0, 1.0, 1.0, 256.0, 1.0, 1.750525200855996E9, 0.0, 2025-06-21 19:00:00.855
138.0, -43036.36169867059, -40685.69578953931, -28029.534581844164, -67918.32362631841, -28877.068028100497, -28235.997645377833, -51418.15411068846, -97769.48067778119, -187500.02235174447, -187500.02235174447, -43875.334426800546, -43025.83402703214, -77504.56214005496, -46394.68895133602, -84837.45424001865, -29702.205026412612, 0.0, 0.0, 0.0, 193.0, 0.0, 1.0, 1.0, 0.0, 0.0, 1.0, 1.0, 256.0, 1.0, 1.75052520086308E9, 0.0, 2025-06-21 19:00:00.863
140.0, -43058.512277425805, -40704.04657173712, -28047.594791364052, -67938.70841726166, -28894.99412715365, -28241.54087800275, -51436.97427951983, -97783.8304977215, -187500.02235174447, -187500.02235174447, -43862.48217373874, -43004.89044247752, -77497.07430566243, -46368.73857602341, -84840.49407726456, -29677.886328445238, 0.0, 0.0, 0.0, 193.0, 0.0, 1.0, 1.0, 0.0, 0.0, 1.0, 1.0, 256.0, 1.0, 1.750525200871115E9, 0.0, 2025-06-21 19:00:00.871
142.0, -43056.76884135829, -40698.74920830121, -28050.79109082116, -67939.58013529541, -28902.794885968553, -28233.136622087553, -51439.142398732, -97781.64002676489, -187500.02235174447, -187500.02235174447, -43897.86498521149, -43037.50163763781, -77516.85559950538, -46419.0076493034, -84844.40563254424, -29721.941616766646, 0.0, 0.0, 0.0, 193.0, 0.0, 1.0, 1.0, 0.0, 0.0, 1.0, 1.0, 256.0, 1.0, 1.750525200880147E9, 0.0, 2025-06-21 19:00:00.880
144.0, -43036.674623092964, -40684.24292614972, -28029.936913244357, -67918.30127457395, -28895.99995565414, -28245.63124723807, -51421.70803805686, -97773.0793086385, -187500.02235174447, -187500.02235174447, -43866.77370867416, -43004.599869799604, -77504.20451214368, -46371.8454685027, -84852.00522565904, -29682.58019478085, 0.0, 0.0, 0.0, 193.0, 0.0, 1.0, 1.0, 0.0, 0.0, 1.0, 1.0, 256.0, 1.0, 1.750525200887159E9, 0.0, 2025-06-21 19:00:00.887
146.0, -43070.112832798106, -40715.33420268705, -28043.236201195265, -67948.63259179982, -28891.395496296347, -28212.237741021843, -51453.02283203875, -97797.24154439468, -187500.02235174447, -187500.02235174447, -43878.41896753538, -43025.007012487295, -77504.51743656605, -46396.56649787027, -84836.6719289627, -29703.2108549131, 0.0, 0.0, 0.0, 193.0, 0.0, 1.0, 1.0, 0.0, 0.0, 1.0, 1.0, 256.0, 1.0, 1.750525200895204E9, 0.0, 2025-06-21 19:00:00.895
148.0, -43030.192617200926, -40677.15742315739, -28024.907770741913, -67915.99904489506, -28863.500519216126, -28222.25132253782, -51407.22410764982, -97768.78777370308, -187500.02235174447, -187500.02235174447, -43877.0555111236, -43019.352021140105, -77501.47759932013, -46392.61023910168, -84833.20740857213, -29703.501427591018, 0.0, 0.0, 0.0, 193.0, 0.0, 1.0, 1.0, 0.0, 0.0, 1.0, 1.0, 256.0, 1.0, 1.750525200903237E9, 0.0, 2025-06-21 19:00:00.903
150.0, -43049.63863487705, -40704.20303394831, -28038.676445326382, -67940.65301902927, -28896.715211476712, -28237.24934306733, -51440.68466909941, -97790.1336896579, -187500.02235174447, -187500.02235174447, -43863.3538917725, -43004.823387244156, -77494.48150330562, -46374.48297434842, -84841.38814704277, -29687.184654138644, 0.0, 0.0, 0.0, 193.0, 0.0, 1.0, 1.0, 0.0, 0.0, 1.0, 1.0, 256.0, 1.0, 1.750525200911287E9, 0.0, 2025-06-21 19:00:00.911
152.0, -43052.38789944505, -40700.179719946354, -28038.65409358193, -67938.21667888363, -28893.787132953064, -28236.712901200404, -51441.28816619971, -97784.54575354407, -187500.02235174447, -187500.02235174447, -43884.63275249395, -43031.153742212504, -77504.71860226615, -46414.202024245504, -84833.14035333876, -29719.907608021214, 0.0, 0.0, 0.0, 193.0, 0.0, 1.0, 1.0, 0.0, 0.0, 1.0, 1.0, 256.0, 1.0, 1.750525200919283E9, 0.0, 2025-06-21 19:00:00.919
154.0, -43054.377204701574, -40705.58884210454, -28046.477204141287, -67940.72007426263, -28909.09807790495, -28253.87904094208, -51432.660392839956, -97786.26683786712, -187500.02235174447, -187500.02235174447, -43875.312075056085, -43017.541529839225, -77511.87116049185, -46388.47516637745, -84864.41044383174, -29699.67927928916, 0.0, 0.0, 0.0, 193.0, 0.0, 1.0, 1.0, 0.0, 0.0, 1.0, 1.0, 256.0, 1.0, 1.750525200927374E9, 0.0, 2025-06-21 19:00:00.927
156.0, -43060.52393442678, -40705.34297291553, -28038.385872648465, -67944.45281558667, -28878.34207753445, -28203.453505450907, -51445.42323892394, -97780.96947443121, -187500.02235174447, -187500.02235174447, -43881.07882512556, -43025.789323543235, -77506.08205867793, -46397.795843815315, -84837.96833014111, -29705.26721540299, 0.0, 0.0, 0.0, 193.0, 0.0, 1.0, 1.0, 0.0, 0.0, 1.0, 1.0, 256.0, 1.0, 1.750525200936365E9, 0.0, 2025-06-21 19:00:00.936
158.0, -43072.59387643264, -40716.76471433219, -28061.74344560426, -67950.82306275643, -28910.170961638807, -28249.386340306562, -51446.5408261467, -97799.00733220666, -187500.02235174447, -187500.02235174447, -43901.821243980085, -43047.64932962052, -77528.65732057778, -46402.24384096192, -84850.08297563589, -29711.749221295027, 0.0, 0.0, 0.0, 193.0, 0.0, 1.0, 1.0, 0.0, 0.0, 1.0, 1.0, 256.0, 1.0, 1.750525200943376E9, 0.0, 2025-06-21 19:00:00.943
160.0, -43066.536553685255, -40715.02127826468, -28047.70655008633, -67946.15154816528, -28905.544150536556, -28216.998662590824, -51442.092829000096, -97790.71483501373, -187500.02235174447, -187500.02235174447, -43886.3091333281, -43027.19748344392, -77522.64470131931, -46385.636494831626, -84860.20831587414, -29696.617090298783, 0.0, 0.0, 0.0, 193.0, 0.0, 1.0, 1.0, 0.0, 0.0, 1.0, 1.0, 256.0, 1.0, 1.750525200951357E9, 0.0, 2025-06-21 19:00:00.951
162.0, -43065.642483907046, -40713.72487708627, -28051.305180943633, -67950.86776624534, -28899.375069066893, -28243.82075593719, -51449.714773859356, -97794.9840182047, -187500.02235174447, -187500.02235174447, -43899.67547651237, -43043.961291785396, -77519.94014024021, -46413.240899233926, -84837.29777780746, -29718.79002079845, 0.0, 0.0, 0.0, 193.0, 0.0, 1.0, 1.0, 0.0, 0.0, 1.0, 1.0, 256.0, 1.0, 1.750525200959513E9, 0.0, 2025-06-21 19:00:00.959
164.0, -43039.42388766097, -40691.59665007552, -28035.77071854719, -67928.27015260102, -28891.082571873972, -28245.273619326785, -51418.80231127767, -97788.01027393465, -187500.02235174447, -187500.02235174447, -43872.13812734343, -43017.51917809477, -77511.044145947, -46379.10978545067, -84854.3298070824, -29689.665697773184, 0.0, 0.0, 0.0, 193.0, 0.0, 1.0, 1.0, 0.0, 0.0, 1.0, 1.0, 256.0, 1.0, 1.750525200967525E9, 0.0, 2025-06-21 19:00:00.967
166.0, -43071.52099269879, -40725.68306036986, -28059.061236269623, -67959.16026343826, -28885.807560182522, -28218.58563644715, -51447.814875580654, -97789.21726813522, -187500.02235174447, -187500.02235174447, -43893.573450276075, -43034.171227713974, -77512.11702968086, -46408.837605576235, -84848.09367037937, -29713.157381195713, 0.0, 0.0, 0.0, 193.0, 0.0, 1.0, 1.0, 0.0, 0.0, 1.0, 1.0, 256.0, 1.0, 1.750525200974555E9, 0.0, 2025-06-21 19:00:00.974
168.0, -43054.7124808684, -40707.309926427595, -28040.48693662726, -67934.75215849307, -28901.029098156585, -28236.44468026694, -51425.84311078109, -97774.26395109463, -187500.02235174447, -187500.02235174447, -43904.4140463369, -43040.89910279502, -77522.91292225277, -46407.74237009792, -84851.22291460312, -29715.347852152332, 0.0, 0.0, 0.0, 193.0, 0.0, 1.0, 1.0, 0.0, 0.0, 1.0, 1.0, 256.0, 1.0, 1.750525200984524E9, 0.0, 2025-06-21 19:00:00.984
170.0, -43049.75039359932, -40699.44211237933, -28030.45100336683, -67935.71328350465, -28889.7191154622, -28224.978235361366, -51439.07534349863, -97784.99278843317, -187500.02235174447, -187500.02235174447, -43856.55896145808, -43002.74467500981, -77492.67101200474, -46369.811459757264, -84838.28125456348, -29680.97086918007, 0.0, 0.0, 0.0, 193.0, 0.0, 1.0, 1.0, 0.0, 0.0, 1.0, 1.0, 256.0, 1.0, 1.750525200991521E9, 0.0, 2025-06-21 19:00:00.991
172.0, -43054.75718435731, -40698.48098736775, -28035.435442380363, -67941.21181264064, -28902.727830735188, -28216.328110257164, -51449.155980247975, -97788.16673614582, -187500.02235174447, -187500.02235174447, -43885.28095308316, -43038.59687311613, -77511.66999479175, -46420.08053303725, -84840.40467028673, -29728.40127091423, 0.0, 0.0, 0.0, 193.0, 0.0, 1.0, 1.0, 0.0, 0.0, 1.0, 1.0, 256.0, 1.0, 1.750525201000554E9, 0.0, 2025-06-21 19:00:01.000
174.0, -43034.79707655872, -40686.09812093951, -28016.2129421488, -67911.05930937044, -28890.38966779586, -28245.83241293817, -51421.752741545766, -97769.9724161592, -187500.02235174447, -187500.02235174447, -43848.758202643185, -42996.93322145143, -77490.56994802594, -46369.38677661261, -84846.08201337839, -29681.82023546937, 0.0, 0.0, 0.0, 193.0, 0.0, 1.0, 1.0, 0.0, 0.0, 1.0, 1.0, 256.0, 1.0, 1.750525201007519E9, 0.0, 2025-06-21 19:00:01.007
176.0, -43059.67456813748, -40709.6568595954, -28044.532602373674, -67949.77253076703, -28884.980545637674, -28194.177531501955, -51452.68755587191, -97792.92765771481, -187500.02235174447, -187500.02235174447, -43862.21395280528, -43007.326782623146, -77487.82068345793, -46387.446986132505, -84826.21131255761, -29692.794941996926, 0.0, 0.0, 0.0, 193.0, 0.0, 1.0, 1.0, 0.0, 0.0, 1.0, 1.0, 256.0, 1.0, 1.750525201015591E9, 0.0, 2025-06-21 19:00:01.015
178.0, -43074.56082994471, -40725.414839436395, -28046.365445419007, -67939.22250738413, -28924.096098434464, -28262.30564860173, -51440.975241777334, -97796.86156473894, -187500.02235174447, -187500.02235174447, -43899.56371779009, -43046.15176274202, -77526.98093974363, -46413.88909982313, -84860.70005425216, -29720.376994654776, 0.0, 0.0, 0.0, 193.0, 0.0, 1.0, 1.0, 0.0, 0.0, 1.0, 1.0, 256.0, 1.0, 1.750525201022617E9, 0.0, 2025-06-21 19:00:01.022
180.0, -43060.27806523777, -40712.696696841325, -28029.19930567733, -67932.5840392809, -28897.519874277103, -28218.809153891703, -51449.84888432609, -97792.97236120372, -187500.02235174447, -187500.02235174447, -43865.454955751295, -43014.27817514875, -77503.06457317645, -46377.723977294445, -84844.91972266672, -29686.78232273845, 0.0, 0.0, 0.0, 193.0, 0.0, 1.0, 1.0, 0.0, 0.0, 1.0, 1.0, 256.0, 1.0, 1.750525201030662E9, 0.0, 2025-06-21 19:00:01.030
182.0, -43054.64542563503, -40699.64327807943, -28028.685215554862, -67931.77937648051, -28889.85322592893, -28194.04342103522, -51437.22014870884, -97785.43982332227, -187500.02235174447, -187500.02235174447, -43882.73285421525, -43026.79515204372, -77501.7905237425, -46409.64226837662, -84829.273501548, -29712.77740153997, 0.0, 0.0, 0.0, 193.0, 0.0, 1.0, 1.0, 0.0, 0.0, 1.0, 1.0, 256.0, 1.0, 1.750525201039649E9, 0.0, 2025-06-21 19:00:01.039
184.0, -43055.40538494651, -40701.945507758326, -28036.64243658095, -67924.71622523264, -28907.064069159518, -28253.87904094208, -51427.92182301544, -97786.22213437821, -187500.02235174447, -187500.02235174447, -43866.170211573866, -43011.79713151421, -77503.93629121021, -46369.78910801281, -84843.98094939959, -29680.747351735517, 0.0, 0.0, 0.0, 193.0, 0.0, 1.0, 1.0, 0.0, 0.0, 1.0, 1.0, 256.0, 1.0, 1.750525201047731E9, 0.0, 2025-06-21 19:00:01.047
186.0, -43075.23138227837, -40717.792894577135, -28048.17593671989, -67946.0844929319, -28901.94551967925, -28191.517673911774, -51449.51360815926, -97791.98888444768, -187500.02235174447, -187500.02235174447, -43894.35576133201, -43031.578425357155, -77516.9450064832, -46397.7511403264, -84839.01886213051, -29703.255558402012, 0.0, 0.0, 0.0, 193.0, 0.0, 1.0, 1.0, 0.0, 0.0, 1.0, 1.0, 256.0, 1.0, 1.75052520105475E9, 0.0, 2025-06-21 19:00:01.054
188.0, -43046.48703890885, -40695.53055709965, -28034.586076091062, -67921.94460892018, -28887.930975905776, -28217.848028880126, -51425.82075903664, -97775.78386971759, -187500.02235174447, -187500.02235174447, -43878.12839485746, -43017.60858507259, -77506.73025926713, -46384.74242505341, -84833.58738822787, -29693.55490130841, 0.0, 0.0, 0.0, 193.0, 0.0, 1.0, 1.0, 0.0, 0.0, 1.0, 1.0, 256.0, 1.0, 1.75052520106272E9, 0.0, 2025-06-21 19:00:01.062
190.0, -43065.418966462494, -40718.17287423288, -28043.54912561764, -67942.77643475252, -28892.96011840822, -28241.183250091464, -51447.5913581361, -97794.71579727123, -187500.02235174447, -187500.02235174447, -43878.08369136855, -43019.016744973276, -77515.0451082045, -46381.769643040854, -84852.74283322608, -29694.44897108662, 0.0, 0.0, 0.0, 193.0, 0.0, 1.0, 1.0, 0.0, 0.0, 1.0, 1.0, 256.0, 1.0, 1.75052520107179E9, 0.0, 2025-06-21 19:00:01.071
192.0, -43066.64831240753, -40713.948394530824, -28045.046692496147, -67945.92803072072, -28896.491694032156, -28197.977328059358, -51445.51264590176, -97787.71970125672, -187500.02235174447, -187500.02235174447, -43894.55692703211, -43038.03807950474, -77515.33568088242, -46410.156358499094, -84832.4250975162, -29716.77836379747, 0.0, 0.0, 0.0, 193.0, 0.0, 1.0, 1.0, 0.0, 0.0, 1.0, 1.0, 256.0, 1.0, 1.750525201079788E9, 0.0, 2025-06-21 19:00:01.079
194.0, -43054.801887846224, -40705.96882176028, -28040.956323260823, -67937.14379514978, -28902.90664469083, -28248.939305417458, -51427.072456726135, -97784.65751226635, -187500.02235174447, -187500.02235174447, -43879.13422335795, -43027.68922182194, -77518.44257336171, -46381.47907036294, -84855.00035941605, -29694.851302486815, 0.0, 0.0, 0.0, 193.0, 0.0, 1.0, 1.0, 0.0, 0.0, 1.0, 1.0, 256.0, 1.0, 1.750525201086817E9, 0.0, 2025-06-21 19:00:01.086
196.0, -43072.39271073255, -40718.642260866436, -28051.729864088284, -67955.24870815859, -28887.439237527757, -28202.827656606158, -51454.9450820619, -97801.89070724139, -187500.02235174447, -187500.02235174447, -43890.73477873025, -43037.16636147098, -77516.7438407831, -46406.98241078644, -84840.51642900902, -29712.866808517792, 0.0, 0.0, 0.0, 193.0, 0.0, 1.0, 1.0, 0.0, 0.0, 1.0, 1.0, 256.0, 1.0, 1.750525201095866E9, 0.0, 2025-06-21 19:00:01.095
198.0, -43054.62307389058, -40702.32548741406, -28039.07877672658, -67932.49463230307, -28904.33715633597, -28221.87134288208, -51429.41938989394, -97782.3776343319, -187500.02235174447, -187500.02235174447, -43890.24304035223, -43033.29950968022, -77519.56016058447, -46400.54510838331, -84841.16462959822, -29706.854189259317, 0.0, 0.0, 0.0, 193.0, 0.0, 1.0, 1.0, 0.0, 0.0, 1.0, 1.0, 256.0, 1.0, 1.750525201103906E9, 0.0, 2025-06-21 19:00:01.103
200.0, -43064.07786179517, -40716.45178990982, -28041.895096527947, -67941.72590276312, -28881.225452569182, -28197.463237936885, -51433.4427038959, -97780.52243954211, -187500.02235174447, -187500.02235174447, -43874.79798493362, -43019.53083509575, -77512.22878840314, -46372.136041180616, -84836.94014989617, -29682.244918614022, 0.0, 0.0, 0.0, 193.0, 0.0, 1.0, 1.0, 0.0, 0.0, 1.0, 1.0, 256.0, 1.0, 1.750525201110922E9, 0.0, 2025-06-21 19:00:01.110
202.0, -43069.50933569781, -40713.99309801973, -28047.348922175042, -67948.81140575545, -28900.24678710065, -28219.52440971427, -51442.9421952894, -97792.21240189223, -187500.02235174447, -187500.02235174447, -43900.72600850177, -43050.3091872107, -77525.68453856523, -46410.20106198801, -84828.89352189226, -29716.666605075196, 0.0, 0.0, 0.0, 193.0, 0.0, 1.0, 1.0, 0.0, 0.0, 1.0, 1.0, 256.0, 1.0, 1.750525201118962E9, 0.0, 2025-06-21 19:00:01.118
204.0, -43050.17507674397, -40697.452807122805, -28038.005892992725, -67931.5335072915, -28895.687031231766, -28241.16089834701, -51430.69343932789, -97781.81884072052, -187500.02235174447, -187500.02235174447, -43866.90781914089, -43018.03326821724, -77512.58641631441, -46362.03305268682, -84835.42023127321, -29675.673505744162, 0.0, 0.0, 0.0, 193.0, 0.0, 1.0, 1.0, 0.0, 0.0, 1.0, 1.0, 256.0, 1.0, 1.750525201128023E9, 0.0, 2025-06-21 19:00:01.128
206.0, -43087.54719347325, -40734.42259245188, -28071.13117827549, -67974.53826362352, -28921.950330966753, -28216.037537579246, -51492.33955053563, -97822.32020167354, -187500.02235174447, -187500.02235174447, -43906.157482404415, -43054.868943079586, -77537.3968526598, -46415.274907979365, -84851.46878379212, -29723.30507317842, 0.0, 0.0, 0.0, 193.0, 0.0, 1.0, 1.0, 0.0, 0.0, 1.0, 1.0, 256.0, 1.0, 1.750525201134988E9, 0.0, 2025-06-21 19:00:01.134
208.0, -43056.90295182502, -40707.89107178344, -28050.858146054525, -67943.98342895311, -28899.173903366795, -28226.386395262052, -51466.45623045638, -97811.21138467925, -187500.02235174447, -187500.02235174447, -43903.87760446997, -43047.33640519815, -77534.37936715834, -46409.30699220979, -84849.88180993579, -29719.505276621017, 0.0, 0.0, 0.0, 193.0, 0.0, 1.0, 1.0, 0.0, 0.0, 1.0, 1.0, 256.0, 1.0, 1.750525201143074E9, 0.0, 2025-06-21 19:00:01.143
210.0, -43054.19839074593, -40704.67242058187, -28035.1672214469, -67941.72590276312, -28884.198234581738, -28195.89861582501, -51451.815837838156, -97799.18614616229, -187500.02235174447, -187500.02235174447, -43877.63665647944, -43026.817503788174, -77515.42508786025, -46383.28956166382, -84847.04313838997, -29694.82895074236, 0.0, 0.0, 0.0, 193.0, 0.0, 1.0, 1.0, 0.0, 0.0, 1.0, 1.0, 256.0, 1.0, 1.750525201151055E9, 0.0, 2025-06-21 19:00:01.151
212.0, -43073.84557412214, -40723.06790626859, -28047.97477101979, -67956.92508899274, -28903.44308655776, -28208.348537486618, -51463.416393210464, -97810.49612885668, -187500.02235174447, -187500.02235174447, -43897.060322411104, -43045.928245297466, -77521.95179724118, -46411.40805618859, -84824.80315265694, -29717.895951020237, 0.0, 0.0, 0.0, 193.0, 0.0, 1.0, 1.0, 0.0, 0.0, 1.0, 1.0, 256.0, 1.0, 1.750525201160162E9, 0.0, 2025-06-21 19:00:01.160
214.0, -43057.93113206996, -40709.92508052887, -28039.25759068222, -67941.72590276312, -28895.128237620385, -28238.858668668112, -51429.64290733849, -97784.6351605219, -187500.02235174447, -187500.02235174447, -43876.6084762345, -43027.37629739956, -77520.56598908496, -46376.62874181614, -84843.08687962138, -29691.11856116278, 0.0, 0.0, 0.0, 193.0, 0.0, 1.0, 1.0, 0.0, 0.0, 1.0, 1.0, 256.0, 1.0, 1.750525201167089E9, 0.0, 2025-06-21 19:00:01.167
216.0, -43078.628847435575, -40727.06886852609, -28053.205079222334, -67961.08251346141, -28891.86488292991, -28203.453505450907, -51450.85471282658, -97791.51949781412, -187500.02235174447, -187500.02235174447, -43896.34506658853, -43045.2576929638, -77525.61748333187, -46400.34394268322, -84831.46397250461, -29710.229302672065, 0.0, 0.0, 0.0, 193.0, 0.0, 1.0, 1.0, 0.0, 0.0, 1.0, 1.0, 256.0, 1.0, 1.750525201175121E9, 0.0, 2025-06-21 19:00:01.175
218.0, -43048.632806376554, -40698.52569085666, -28037.514154614706, -67926.37025432232, -28892.177807352284, -28214.763488145294, -51414.01903796423, -97770.7770789596, -187500.02235174447, -187500.02235174447, -43890.555964774605, -43036.31699518168, -77523.89639900881, -46389.50334662239, -84833.31916729441, -29700.327479878364, 0.0, 0.0, 0.0, 193.0, 0.0, 1.0, 1.0, 0.0, 0.0, 1.0, 1.0, 256.0, 1.0, 1.750525201183108E9, 0.0, 2025-06-21 19:00:01.183
220.0, -43058.89225708154, -40712.24966195222, -28041.470413383297, -67940.69772251818, -28888.445066028245, -28213.1094590556, -51430.69343932789, -97775.4262418063, -187500.02235174447, -187500.02235174447, -43879.60360999151, -43027.62216658857, -77520.76715478506, -46373.253628403385, -84841.29874006496, -29685.418866326676, 0.0, 0.0, 0.0, 193.0, 0.0, 1.0, 1.0, 0.0, 0.0, 1.0, 1.0, 256.0, 1.0, 1.750525201191191E9, 0.0, 2025-06-21 19:00:01.191
222.0, -43090.67643769699, -40739.09410704304, -28078.149626034454, -67977.6451561028, -28909.232188371683, -28213.9588253449, -51469.920750846955, -97810.47377711223, -187500.02235174447, -187500.02235174447, -43905.956316704316, -43055.09246052414, -77532.77004155757, -46411.13983525513, -84829.13939108126, -29717.06893647539, 0.0, 0.0, 0.0, 193.0, 0.0, 1.0, 1.0, 0.0, 0.0, 1.0, 1.0, 256.0, 1.0, 1.750525201199224E9, 0.0, 2025-06-21 19:00:01.199
224.0, -43060.322768726684, -40712.04849625212, -28050.03113150968, -67946.24095514309, -28897.966909166207, -28226.386395262052, -51416.12010194303, -97782.91407619884, -187500.02235174447, -187500.02235174447, -43902.40238933592, -43052.365547700596, -77545.51053589709, -46397.594678115216, -84865.34921709886, -29711.525703850475, 0.0, 0.0, 0.0, 193.0, 0.0, 1.0, 1.0, 0.0, 0.0, 1.0, 1.0, 256.0, 1.0, 1.750525201207245E9, 0.0, 2025-06-21 19:00:01.207
226.0, -43066.78242287427, -40715.80358932061, -28049.226468709287, -67958.4450076157, -28895.23999634266, -28189.90834831099, -51436.10256148608, -97787.36207334544, -187500.02235174447, -187500.02235174447, -43891.00299966372, -43039.87092255008, -77519.76132628457, -46400.47805314995, -84829.49701899255, -29707.703555548618, 0.0, 0.0, 0.0, 193.0, 0.0, 1.0, 1.0, 0.0, 0.0, 1.0, 1.0, 256.0, 1.0, 1.750525201216287E9, 0.0, 2025-06-21 19:00:01.216
228.0, -43051.33736745565, -40704.024219992665, -28039.794032549147, -67938.61901028383, -28899.48682778917, -28224.2629795388, -51426.781884048214, -97782.42233782081, -187500.02235174447, -187500.02235174447, -43895.182775876856, -43045.28004470826, -77531.0489572345, -46403.56259388478, -84839.778821442, -29714.63259632976, 0.0, 0.0, 0.0, 193.0, 0.0, 1.0, 1.0, 0.0, 0.0, 1.0, 1.0, 256.0, 1.0, 1.750525201222341E9, 0.0, 2025-06-21 19:00:01.222
230.0, -43067.60943741911, -40715.62477536497, -28047.997122764245, -67949.81723425594, -28902.43725805727, -28229.180363318967, -51440.975241777334, -97791.51949781412, -187500.02235174447, -187500.02235174447, -43875.44618552282, -43022.481265363844, -77514.70983203767, -46376.673445305045, -84838.48242026358, -29689.710401262095, 0.0, 0.0, 0.0, 193.0, 0.0, 1.0, 1.0, 0.0, 0.0, 1.0, 1.0, 256.0, 1.0, 1.750525201231351E9, 0.0, 2025-06-21 19:00:01.231
232.0, -43073.175021788484, -40715.088333498046, -28059.284753714175, -67955.9863157256, -28900.6714702453, -28208.415592719986, -51458.43195419693, -97800.52725082962, -187500.02235174447, -187500.02235174447, -43912.527729574176, -43053.10315526762, -77533.61940784687, -46422.829797605256, -84840.29291156447, -29730.859962804316, 0.0, 0.0, 0.0, 193.0, 0.0, 1.0, 1.0, 0.0, 0.0, 1.0, 1.0, 256.0, 1.0, 1.750525201239374E9, 0.0, 2025-06-21 19:00:01.239
234.0, -43053.50548666781, -40700.64910657991, -28040.06225348261, -67934.55099279297, -28904.24774935815, -28208.527351442262, -51429.8887765275, -97786.1327274004, -187500.02235174447, -187500.02235174447, -43883.33635131554, -43024.06823922017, -77521.70592805218, -46377.63457031662, -84845.85849593383, -29694.001936197514, 0.0, 0.0, 0.0, 193.0, 0.0, 1.0, 1.0, 0.0, 0.0, 1.0, 1.0, 256.0, 1.0, 1.750525201247409E9, 0.0, 2025-06-21 19:00:01.247
236.0, -43051.40442268901, -40696.84931002251, -28026.293578898145, -67936.62970502731, -28880.979583380176, -28184.99096453082, -51436.1919684639, -97785.43982332227, -187500.02235174447, -187500.02235174447, -43880.274162325164, -43021.94482349692, -77502.55048305399, -46388.206945443984, -84816.37654499729, -29699.902796733713, 0.0, 0.0, 0.0, 193.0, 0.0, 1.0, 1.0, 0.0, 0.0, 1.0, 1.0, 256.0, 1.0, 1.750525201254505E9, 0.0, 2025-06-21 19:00:01.254
238.0, -43055.09246052414, -40701.90080426941, -28041.93980001686, -67935.89209746028, -28897.452819043738, -28226.274636539776, -51433.46505564035, -97793.12882341491, -187500.02235174447, -187500.02235174447, -43884.65510423841, -43030.259672434295, -77515.0451082045, -46394.308971680286, -84831.39691727125, -29707.30122414842, 0.0, 0.0, 0.0, 193.0, 0.0, 1.0, 1.0, 0.0, 0.0, 1.0, 1.0, 256.0, 1.0, 1.750525201263497E9, 0.0, 2025-06-21 19:00:01.263
240.0, -43067.7658996303, -40721.03389752316, -28046.901887285938, -67949.72782727813, -28897.274005088093, -28196.658575136495, -51445.244424968296, -97798.71675952873, -187500.02235174447, -187500.02235174447, -43876.34025530103, -43021.117808952076, -77510.6418145468, -46381.45671861848, -84842.48338252108, -29693.197273397123, 0.0, 0.0, 0.0, 193.0, 0.0, 1.0, 1.0, 0.0, 0.0, 1.0, 1.0, 256.0, 1.0, 1.750525201271514E9, 0.0, 2025-06-21 19:00:01.271
242.0, -43075.11962355609, -40717.457618410306, -28050.500518143243, -67951.42655985673, -28901.47613304569, -28208.63911016454, -51454.14041926151, -97803.25416365317, -187500.02235174447, -187500.02235174447, -43906.40335159342, -43052.05262327822, -77525.39396588731, -46424.30501273931, -84838.99651038606, -29731.239942460055, 0.0, 0.0, 0.0, 193.0, 0.0, 1.0, 1.0, 0.0, 0.0, 1.0, 1.0, 256.0, 1.0, 1.750525201278543E9, 0.0, 2025-06-21 19:00:01.278
244.0, -43044.721251096875, -40688.33329538504, -28030.987445233757, -67926.75023397806, -28907.444048815258, -28209.220255520377, -51420.67985781191, -97781.4835645537, -187500.02235174447, -187500.02235174447, -43869.43356626434, -43015.149893182504, -77508.16077091226, -46371.51019233587, -84842.88571392128, -29687.028191927457, 0.0, 0.0, 0.0, 193.0, 0.0, 1.0, 1.0, 0.0, 0.0, 1.0, 1.0, 256.0, 1.0, 1.750525201287532E9, 0.0, 2025-06-21 19:00:01.287
246.0, -43054.578370401665, -40698.52569085666, -28029.244009166243, -67939.87070797333, -28879.303202546027, -28182.800493574203, -51446.3396604466, -97785.39511983337, -187500.02235174447, -187500.02235174447, -43876.25084832321, -43024.604681087105, -77503.42220108774, -46389.43629138903, -84819.70695492113, -29702.54030257944, 0.0, 0.0, 0.0, 193.0, 0.0, 1.0, 1.0, 0.0, 0.0, 1.0, 1.0, 256.0, 1.0, 1.750525201295621E9, 0.0, 2025-06-21 19:00:01.295
248.0, -43067.162402530004, -40714.82011256458, -28059.59767813655, -67951.80653951246, -28905.67826100329, -28232.82369766518, -51442.025773766734, -97800.12491942942, -187500.02235174447, -187500.02235174447, -43889.41602580739, -43028.35977415559, -77518.12964893933, -46391.40324490109, -84833.83325741687, -29706.295395647932, 0.0, 0.0, 0.0, 193.0, 0.0, 1.0, 1.0, 0.0, 0.0, 1.0, 1.0, 256.0, 1.0, 1.750525201303626E9, 0.0, 2025-06-21 19:00:01.303
250.0, -43068.145879286036, -40717.167045732385, -28053.540355389163, -67953.30410639098, -28898.48099928868, -28209.175552031465, -51455.83915184011, -97800.57195431853, -187500.02235174447, -187500.02235174447, -43897.417950322386, -43041.54730338422, -77533.37353865785, -46402.690875851025, -84869.037254934, -29717.895951020237, 0.0, 0.0, 0.0, 193.0, 0.0, 1.0, 1.0, 0.0, 0.0, 1.0, 1.0, 256.0, 1.0, 1.750525201310676E9, 0.0, 2025-06-21 19:00:01.310
252.0, -43046.84466682013, -40696.71519955578, -28033.624951079484, -67940.96594345164, -28881.896004902843, -28175.58088011514, -51457.403773951984, -97798.06855893953, -187500.02235174447, -187500.02235174447, -43889.661894996396, -43028.091553222126, -77509.05484069049, -46412.391532944624, -84828.4688387476, -29723.08155573387, 0.0, 0.0, 0.0, 193.0, 0.0, 1.0, 1.0, 0.0, 0.0, 1.0, 1.0, 256.0, 1.0, 1.750525201319708E9, 0.0, 2025-06-21 19:00:01.319
254.0, -43040.49677139483, -40696.91636525588, -28032.17208768989, -67937.30025736097, -28892.826007941487, -28227.615741207093, -51429.82172129414, -97792.10064316996, -187500.02235174447, -187500.02235174447, -43868.65125520841, -43024.314108409184, -77510.32889012444, -46382.9989889859, -84848.94303666867, -29702.003860712513, 0.0, 0.0, 0.0, 193.0, 0.0, 1.0, 1.0, 0.0, 0.0, 1.0, 1.0, 256.0, 1.0, 1.750525201327741E9, 0.0, 2025-06-21 19:00:01.327
0.0, -43065.642483907046, -40715.33420268705, -28044.17497446239, -67957.41682737075, -28893.38480155287, -28189.90834831099, -51456.12972451803, -97802.33774213049, -187500.02235174447, -187500.02235174447, -43875.11090935599, -43026.95161425491, -77500.76234349755, -46398.89107929362, -84826.70305093564, -29711.525703850475, 0.0, 0.0, 0.0, 193.0, 0.0, 1.0, 1.0, 0.0, 0.0, 1.0, 1.0, 256.0, 1.0, 1.750525201334752E9, 0.0, 2025-06-21 19:00:01.334
2.0, -43051.33736745565, -40704.85123453751, -28046.186631463366, -67938.93193470621, -28895.262348087115, -28230.87909589757, -51429.91112827195, -97787.27266636761, -187500.02235174447, -187500.02235174447, -43895.5627555326, -43040.36266092809, -77521.9965007301, -46404.367256685175, -84846.26082733403, -29717.806544042414, 0.0, 0.0, 0.0, 193.0, 0.0, 1.0, 1.0, 0.0, 0.0, 1.0, 1.0, 256.0, 1.0, 1.75052520134275E9, 0.0, 2025-06-21 19:00:01.342
4.0, -43059.62986464857, -40709.701563084316, -28049.98642802077, -67952.32062963494, -28901.632595256877, -28188.0531535212, -51446.65258486898, -97793.44174783728, -187500.02235174447, -187500.02235174447, -43877.860173924, -43025.87873052106, -77513.61459655936, -46380.249724417896, -84849.05479539094, -29694.44897108662, 0.0, 0.0, 0.0, 193.0, 0.0, 1.0, 1.0, 0.0, 0.0, 1.0, 1.0, 256.0, 1.0, 1.750525201351743E9, 0.0, 2025-06-21 19:00:01.351
6.0, -43068.794079875246, -40716.78706607665, -28052.82509956659, -67951.67242904574, -28907.645214515356, -28202.96176707289, -51465.56216067817, -97806.69633229928, -187500.02235174447, -187500.02235174447, -43901.97770619127, -43054.26544597929, -77526.39979438779, -46411.631573633145, -84833.36387078332, -29722.768631311494, 0.0, 0.0, 0.0, 193.0, 0.0, 1.0, 1.0, 0.0, 0.0, 1.0, 1.0, 256.0, 1.0, 1.750525201360811E9, 0.0, 2025-06-21 19:00:01.360
8.0, -43044.34127144114, -40697.89984201191, -28041.93980001686, -67931.66761775823, -28896.022307398598, -28207.968557830878, -51442.83043656712, -97786.3785965894, -187500.02235174447, -187500.02235174447, -43877.703711712806, -43020.335497896136, -77516.34150938291, -46371.86782024716, -84847.8254494459, -29688.659869272695, 0.0, 0.0, 0.0, 193.0, 0.0, 1.0, 1.0, 0.0, 0.0, 1.0, 1.0, 256.0, 1.0, 1.750525201366827E9, 0.0, 2025-06-21 19:00:01.366
10.0, -43078.27121952429, -40720.40804867841, -28063.956268305337, -67968.3468304094, -28915.222455885705, -28200.123095527066, -51476.73803290582, -97820.4873586282, -187500.02235174447, -187500.02235174447, -43904.45874982581, -43054.35485295711, -77530.53486711203, -46415.87840507965, -84850.35119656935, -29726.859000546814, 0.0, 0.0, 0.0, 193.0, 0.0, 1.0, 1.0, 0.0, 0.0, 1.0, 1.0, 256.0, 1.0, 1.750525201374884E9, 0.0, 2025-06-21 19:00:01.374
12.0, -43053.99722504583, -40707.91342352789, -28055.417901923407, -67943.26817313053, -28901.990223168163, -28220.373776003573, -51441.93636678891, -97797.48741358369, -187500.02235174447, -187500.02235174447, -43898.110854400504, -43040.58617837264, -77527.67384382174, -46411.497463166415, -84855.53680128299, -29723.75210806753, 0.0, 0.0, 0.0, 193.0, 0.0, 1.0, 1.0, 0.0, 0.0, 1.0, 1.0, 256.0, 1.0, 1.750525201383915E9, 0.0, 2025-06-21 19:00:01.383
14.0, -43066.42479496298, -40720.34099344504, -28055.26143971222, -67959.1379116938, -28892.133103863373, -28186.66734536497, -51453.693384372404, -97804.2823438981, -187500.02235174447, -187500.02235174447, -43886.55500251711, -43032.31603292418, -77523.76228854207, -46398.82402406025, -84860.56594378543, -29711.905683506215, 0.0, 0.0, 0.0, 193.0, 0.0, 1.0, 1.0, 0.0, 0.0, 1.0, 1.0, 256.0, 1.0, 1.750525201390974E9, 0.0, 2025-06-21 19:00:01.390
16.0, -43055.60655064661, -40707.600499105516, -28045.180802962877, -67946.10684467637, -28896.42463879879, -28205.733383385348, -51460.75653562028, -97807.07631195502, -187500.02235174447, -187500.02235174447, -43900.88247071296, -43052.03027153376, -77525.50572460958, -46427.54601568532, -84842.17045809871, -29736.626712873785, 0.0, 0.0, 0.0, 193.0, 0.0, 1.0, 1.0, 0.0, 0.0, 1.0, 1.0, 256.0, 1.0, 1.750525201398932E9, 0.0, 2025-06-21 19:00:01.398
18.0, -43038.84274230513, -40690.38965587493, -28030.741576044747, -67919.24004784109, -28889.04856312854, -28208.61675842008, -51428.950003260376, -97781.39415757587, -187500.02235174447, -187500.02235174447, -43862.48217373874, -43001.94001220942, -77501.72346850914, -46366.9951399559, -84839.68941446417, -29681.21673836908, 0.0, 0.0, 0.0, 193.0, 0.0, 1.0, 1.0, 0.0, 0.0, 1.0, 1.0, 256.0, 1.0, 1.750525201407988E9, 0.0, 2025-06-21 19:00:01.407
20.0, -43076.14780380104, -40726.66653712589, -28056.51313740172, -67962.289507662, -28908.874560460397, -28181.414685417974, -51472.13357354803, -97813.51361435815, -187500.02235174447, -187500.02235174447, -43894.93690668785, -43034.97589051436, -77518.17435242825, -46400.67921885005, -84836.13548709577, -29708.664680560196, 0.0, 0.0, 0.0, 193.0, 0.0, 1.0, 1.0, 0.0, 0.0, 1.0, 1.0, 256.0, 1.0, 1.750525201415092E9, 0.0, 2025-06-21 19:00:01.415
22.0, -43061.82033560519, -40709.34393517303, -28051.014608265712, -67938.08256841691, -28908.271063360105, -28200.570130416174, -51446.40671567997, -97790.44661408027, -187500.02235174447, -187500.02235174447, -43897.70852300031, -43040.16149522799, -77527.11505021037, -46392.051445490295, -84840.71759470912, -29704.619014813783, 0.0, 0.0, 0.0, 193.0, 0.0, 1.0, 1.0, 0.0, 0.0, 1.0, 1.0, 256.0, 1.0, 1.750525201424075E9, 0.0, 2025-06-21 19:00:01.424
24.0, -43076.95246660143, -40726.08539177005, -28065.54324216166, -67958.62382157134, -28902.839589457464, -28230.8120406642, -51459.19191350841, -97805.15406193187, -187500.02235174447, -187500.02235174447, -43902.447092824834, -43042.7095940959, -77537.08392823744, -46388.56457335527, -84859.47070830711, -29700.774514767472, 0.0, 0.0, 0.0, 193.0, 0.0, 1.0, 1.0, 0.0, 0.0, 1.0, 1.0, 256.0, 1.0, 1.750525201431017E9, 0.0, 2025-06-21 19:00:01.431
26.0, -43058.780498359265, -40706.57231886057, -28045.247858196242, -67943.96107720865, -28887.416885783303, -28189.28249946624, -51445.736163346315, -97791.05011118056, -187500.02235174447, -187500.02235174447, -43909.10791267251, -43048.90102731002, -77529.48433512263, -46413.598527145215, -84835.1743620842, -29720.2652359325, 0.0, 0.0, 0.0, 193.0, 0.0, 1.0, 1.0, 0.0, 0.0, 1.0, 1.0, 256.0, 1.0, 1.750525201440082E9, 0.0, 2025-06-21 19:00:01.440
28.0, -43047.82814357617, -40699.82209203507, -28035.54720110264, -67928.35955957885, -28886.835740427465, -28216.842200379637, -51429.6876108274, -97784.38929133289, -187500.02235174447, -187500.02235174447, -43878.12839485746, -43018.793227528724, -77517.07911694993, -46374.12534643714, -84845.52321976701, -29688.123427405768, 0.0, 0.0, 0.0, 193.0, 0.0, 1.0, 1.0, 0.0, 0.0, 1.0, 1.0, 256.0, 1.0, 1.750525201447142E9, 0.0, 2025-06-21 19:00:01.447
30.0, -43079.43351023597, -40729.885188327455, -28055.55201239014, -67963.11652220685, -28899.03979290006, -28161.678095063937, -51463.01406181027, -97806.80809102155, -187500.02235174447, -187500.02235174447, -43892.791139220135, -43037.099306237615, -77517.77202102805, -46404.12138749616, -84832.53685623847, -29712.03979397295, 0.0, 0.0, 0.0, 193.0, 0.0, 1.0, 1.0, 0.0, 0.0, 1.0, 1.0, 256.0, 1.0, 1.75052520145515E9, 0.0, 2025-06-21 19:00:01.455
32.0, -43056.47826868037, -40705.857063038005, -28042.699759328338, -67934.8862689598, -28906.751144737143, -28208.43794446444, -51439.07534349863, -97787.89851521236, -187500.02235174447, -187500.02235174447, -43897.50735730021, -43043.73777434084, -77529.10435546689, -46401.05919850578, -84844.33857731087, -29711.324538150377, 0.0, 0.0, 0.0, 193.0, 0.0, 1.0, 1.0, 0.0, 0.0, 1.0, 1.0, 256.0, 1.0, 1.750525201463144E9, 0.0, 2025-06-21 19:00:01.463
34.0, -43067.743547885846, -40716.407086420906, -28042.945628517347, -67943.69285627519, -28891.73077246318, -28194.401048946507, -51442.60691912257, -97788.85964022395, -187500.02235174447, -187500.02235174447, -43880.47532802526, -43027.62216658857, -77518.46492510616, -46381.23320117393, -84845.76908895602, -29694.672488531174, 0.0, 0.0, 0.0, 193.0, 0.0, 1.0, 1.0, 0.0, 0.0, 1.0, 1.0, 256.0, 1.0, 1.750525201471196E9, 0.0, 2025-06-21 19:00:01.471
36.0, -43091.65991445302, -40733.886150584956, -28067.197271251356, -67958.35560063786, -28916.250636130648, -28206.649804908015, -51461.96352982087, -97807.94802998878, -187500.02235174447, -187500.02235174447, -43913.93588947486, -43052.99139654534, -77534.15584971379, -46417.018344046875, -84840.58348424238, -29725.1155644793, 0.0, 0.0, 0.0, 193.0, 0.0, 1.0, 1.0, 0.0, 0.0, 1.0, 1.0, 256.0, 1.0, 1.750525201479234E9, 0.0, 2025-06-21 19:00:01.479
38.0, -43066.38009147407, -40718.79872307763, -28044.286733184665, -67931.80172822496, -28899.084496388972, -28218.518581213782, -51436.95192777538, -97785.81980297802, -187500.02235174447, -187500.02235174447, -43893.32758108707, -43030.86316953459, -77531.85362003489, -46377.5451633388, -84857.45905130614, -29690.49271231803, 0.0, 0.0, 0.0, 193.0, 0.0, 1.0, 1.0, 0.0, 0.0, 1.0, 1.0, 256.0, 1.0, 1.75052520148727E9, 0.0, 2025-06-21 19:00:01.487
40.0, -43076.93011485697, -40731.092182528046, -28052.46747165531, -67952.29827789048, -28903.800714469042, -28191.048287278212, -51456.93438731842, -97804.66232355384, -187500.02235174447, -187500.02235174447, -43896.97091543328, -43039.51329463879, -77520.92361699625, -46394.37602691365, -84831.53102773799, -29703.12144793528, 0.0, 0.0, 0.0, 193.0, 0.0, 1.0, 1.0, 0.0, 0.0, 1.0, 1.0, 256.0, 1.0, 1.750525201495248E9, 0.0, 2025-06-21 19:00:01.495
42.0, -43045.2576929638, -40702.92898451436, -28028.886381254957, -67919.59767575236, -28889.67441197329, -28198.737287370837, -51427.36302940405, -97780.34362558647, -187500.02235174447, -187500.02235174447, -43897.50735730021, -43039.91562603899, -77526.24333217661, -46396.03005600334, -84842.68454822118, -29708.17294218218, 0.0, 0.0, 0.0, 193.0, 0.0, 1.0, 1.0, 0.0, 0.0, 1.0, 1.0, 256.0, 1.0, 1.750525201502314E9, 0.0, 2025-06-21 19:00:01.502
44.0, -43071.990379332354, -40722.86674056849, -28048.466509397807, -67947.55970806595, -28899.71034523372, -28190.556548900197, -51451.27939597123, -97801.26485839664, -187500.02235174447, -187500.02235174447, -43868.29362729712, -43011.528910580746, -77502.17050339824, -46371.53254408033, -84833.74385043906, -29685.06123841539, 0.0, 0.0, 0.0, 193.0, 0.0, 1.0, 1.0, 0.0, 0.0, 1.0, 1.0, 256.0, 1.0, 1.750525201511316E9, 0.0, 2025-06-21 19:00:01.511
46.0, -43067.85530660812, -40709.81332180659, -28044.130270973477, -67939.80365273997, -28906.348813336946, -28182.39816217401, -51454.833323339626, -97805.0870066985, -187500.02235174447, -187500.02235174447, -43901.41891257989, -43041.07791675066, -77518.1520006838, -46416.86188183569, -84836.98485338507, -29723.662701089706, 0.0, 0.0, 0.0, 193.0, 0.0, 1.0, 1.0, 0.0, 0.0, 1.0, 1.0, 256.0, 1.0, 1.750525201519395E9, 0.0, 2025-06-21 19:00:01.519
48.0, -43061.663873394, -40709.36628691749, -28039.21288719331, -67926.8843444448, -28906.125295892394, -28221.334901015154, -51440.908186543966, -97793.84407923747, -187500.02235174447, -187500.02235174447, -43875.69205471183, -43016.66981180547, -77513.36872737035, -46379.690930806515, -84851.31232158093, -29693.800770497415, 0.0, 0.0, 0.0, 193.0, 0.0, 1.0, 1.0, 0.0, 0.0, 1.0, 1.0, 256.0, 1.0, 1.750525201527372E9, 0.0, 2025-06-21 19:00:01.527
50.0, -43085.80375740573, -40728.94641506033, -28058.41303568042, -67951.69478079019, -28910.908569205832, -28172.071656235657, -51469.58547468013, -97809.66911431184, -187500.02235174447, -187500.02235174447, -43895.942735188335, -43030.7067073234, -77517.70496579468, -46407.67531486456, -84843.71272846613, -29715.54901785243, 0.0, 0.0, 0.0, 193.0, 0.0, 1.0, 1.0, 0.0, 0.0, 1.0, 1.0, 256.0, 1.0, 1.750525201534488E9, 0.0, 2025-06-21 19:00:01.534
52.0, -43060.725100126874, -40711.33324042955, -28047.594791364052, -67929.49949854607, -28901.073801645496, -28187.695525609917, -51437.64483185349, -97786.49035531167, -187500.02235174447, -187500.02235174447, -43899.362552089995, -43037.70280333791, -77527.20445718819, -46400.7015705945, -84854.26275184903, -29711.995090484037, 0.0, 0.0, 0.0, 193.0, 0.0, 1.0, 1.0, 0.0, 0.0, 1.0, 1.0, 256.0, 1.0, 1.750525201543477E9, 0.0, 2025-06-21 19:00:01.543
54.0, -43067.877658352576, -40726.21950223679, -28043.526773873185, -67942.93289696371, -28903.085458646474, -28205.241645007332, -51455.32506171764, -97797.84504149498, -187500.02235174447, -187500.02235174447, -43876.18379308985, -43023.01770723078, -77515.0004047156, -46374.77354702634, -84847.28900757898, -29685.798845982416, 0.0, 0.0, 0.0, 193.0, 0.0, 1.0, 1.0, 0.0, 0.0, 1.0, 1.0, 256.0, 1.0, 1.750525201551468E9, 0.0, 2025-06-21 19:00:01.551
56.0, -43059.85338209312, -40715.53536838715, -28032.797936534636, -67936.54029804948, -28897.542226021556, -28206.426287463462, -51447.63606162502, -97793.75467225966, -187500.02235174447, -187500.02235174447, -43889.21486010729, -43037.725155082364, -77512.63111980334, -46403.4061316736, -84825.1160770793, -29711.525703850475, 0.0, 0.0, 0.0, 193.0, 0.0, 1.0, 1.0, 0.0, 0.0, 1.0, 1.0, 256.0, 1.0, 1.750525201558546E9, 0.0, 2025-06-21 19:00:01.558
58.0, -43048.364585443094, -40708.04753399462, -28025.69008179785, -67926.10203338886, -28894.167112608804, -28215.88107536806, -51424.50200611377, -97786.44565182277, -187500.02235174447, -187500.02235174447, -43862.37041501646, -43016.066314705175, -77503.17633189874, -46372.22544815844, -84841.94694065416, -29688.995145439523, 0.0, 0.0, 0.0, 193.0, 0.0, 1.0, 1.0, 0.0, 0.0, 1.0, 1.0, 256.0, 1.0, 1.750525201566578E9, 0.0, 2025-06-21 19:00:01.566
60.0, -43077.69007416846, -40731.94154881735, -28041.336302916567, -67949.97369646713, -28887.461589272214, -28171.959897513378, -51454.56510240616, -97803.32121888653, -187500.02235174447, -187500.02235174447, -43875.043854122625, -43026.549282854714, -77499.0412591745, -46398.555803126794, -84825.80898115743, -29710.631634072262, 0.0, 0.0, 0.0, 193.0, 0.0, 1.0, 1.0, 0.0, 0.0, 1.0, 1.0, 256.0, 1.0, 1.75052520157562E9, 0.0, 2025-06-21 19:00:01.575
62.0, -43051.73969885585, -40710.12624622897, -28031.903866756424, -67918.9271234187, -28892.602490496934, -28177.883109794035, -51421.28335491221, -97775.78386971759, -187500.02235174447, -187500.02235174447, -43886.107967628, -43029.656175334, -77512.63111980334, -46392.61023910168, -84837.63305397428, -29708.59762532683, 0.0, 0.0, 0.0, 193.0, 0.0, 1.0, 1.0, 0.0, 0.0, 1.0, 1.0, 256.0, 1.0, 1.75052520158263E9, 0.0, 2025-06-21 19:00:01.582
64.0, -43078.58414394667, -40726.10774351451, -28051.483994899274, -67943.80461499747, -28903.979528424687, -28194.155179757498, -51448.038393025214, -97791.05011118056, -187500.02235174447, -187500.02235174447, -43869.098290097514, -43002.83408198763, -77498.03543067402, -46362.25657013137, -84829.85464690384, -29678.467473801076, 0.0, 0.0, 0.0, 193.0, 0.0, 1.0, 1.0, 0.0, 0.0, 1.0, 1.0, 256.0, 1.0, 1.750525201590699E9, 0.0, 2025-06-21 19:00:01.590
66.0, -43085.222612049896, -40723.85021732452, -28058.45773916933, -67945.8386237429, -28908.248711615648, -28181.638202862527, -51451.257044226775, -97793.55350655956, -187500.02235174447, -187500.02235174447, -43919.143845932944, -43051.47147792238, -77535.13932646983, -46421.60045166021, -84847.28900757898, -29730.994073271046, 0.0, 0.0, 0.0, 193.0, 0.0, 1.0, 1.0, 0.0, 0.0, 1.0, 1.0, 256.0, 1.0, 1.750525201598739E9, 0.0, 2025-06-21 19:00:01.598
68.0, -43059.7639751153, -40707.62285084997, -28036.46362262531, -67920.49174553058, -28898.793923711055, -28202.87236009507, -51429.64290733849, -97776.7226429847, -187500.02235174447, -187500.02235174447, -43882.19641234832, -43013.51821583727, -77518.21905591716, -46373.96888422596, -84853.34633032637, -29687.34111634983, 0.0, 0.0, 0.0, 193.0, 0.0, 1.0, 1.0, 0.0, 0.0, 1.0, 1.0, 256.0, 1.0, 1.750525201607779E9, 0.0, 2025-06-21 19:00:01.607
70.0, -43087.7707109178, -40737.864761098004, -28058.45773916933, -67960.41196112776, -28905.208874369728, -28158.90647875148, -51460.8459425981, -97801.46602409674, -187500.02235174447, -187500.02235174447, -43889.41602580739, -43028.49388462232, -77510.3959453578, -46397.147643226104, -84830.83812365987, -29703.680241546663, 0.0, 0.0, 0.0, 193.0, 0.0, 1.0, 1.0, 0.0, 0.0, 1.0, 1.0, 256.0, 1.0, 1.750525201614793E9, 0.0, 2025-06-21 19:00:01.614
72.0, -43050.5103529108, -40707.868720038976, -28033.580247590573, -67923.41982405423, -28877.649173456335, -28195.29511872472, -51420.74691304528, -97772.2746458381, -187500.02235174447, -187500.02235174447, -43898.58024103406, -43041.100268495116, -77527.56208509947, -46404.09903575171, -84851.04410064747, -29713.515009106995, 0.0, 0.0, 0.0, 193.0, 0.0, 1.0, 1.0, 0.0, 0.0, 1.0, 1.0, 256.0, 1.0, 1.750525201622841E9, 0.0, 2025-06-21 19:00:01.622
74.0, -43074.024388077785, -40725.571301647586, -28049.807614065125, -67951.784187768, -28891.44019978526, -28194.602214646606, -51447.412544180464, -97797.80033800607, -187500.02235174447, -187500.02235174447, -43874.909743655895, -43018.07797170615, -77508.07136393445, -46375.198230170994, -84839.39884178626, -29687.095247160825, 0.0, 0.0, 0.0, 193.0, 0.0, 1.0, 1.0, 0.0, 0.0, 1.0, 1.0, 256.0, 1.0, 1.750525201631874E9, 0.0, 2025-06-21 19:00:01.631
76.0, -43063.116736783595, -40714.082504997554, -28038.83290753757, -67937.94845795017, -28892.96011840822, -28186.04149652022, -51442.13753248901, -97791.09481466947, -187500.02235174447, -187500.02235174447, -43897.39559857793, -43043.5589603852, -77517.21322741667, -46416.79482660232, -84832.71567019411, -29725.18261971267, 0.0, 0.0, 0.0, 193.0, 0.0, 1.0, 1.0, 0.0, 0.0, 1.0, 1.0, 256.0, 1.0, 1.750525201638904E9, 0.0, 2025-06-21 19:00:01.638
78.0, -43048.409288932, -40702.63841183644, -28026.9641312318, -67921.31876007543, -28883.304164803525, -28196.658575136495, -51421.57392759013, -97772.65462549384, -187500.02235174447, -187500.02235174447, -43864.404423761895, -43004.89044247752, -77503.26573887655, -46365.67638703303, -84839.19767608616, -29681.462607558085, 0.0, 0.0, 0.0, 193.0, 0.0, 1.0, 1.0, 0.0, 0.0, 1.0, 1.0, 256.0, 1.0, 1.750525201646946E9, 0.0, 2025-06-21 19:00:01.646
80.0, -43085.28966728326, -40733.4167639514, -28047.12540473049, -67953.79584476899, -28904.717135991712, -28157.341856639607, -51456.643814640505, -97796.63804729439, -187500.02235174447, -187500.02235174447, -43887.426720550866, -43029.67852707845, -77510.68651803571, -46397.28175369284, -84825.45135324614, -29708.73173579356, 0.0, 0.0, 0.0, 193.0, 0.0, 1.0, 1.0, 0.0, 0.0, 1.0, 1.0, 256.0, 1.0, 1.750525201654971E9, 0.0, 2025-06-21 19:00:01.654
82.0, -43075.87958286757, -40726.44301968134, -28047.88536404197, -67935.80269048247, -28906.05824065903, -28210.561360187694, -51433.86738704055, -97784.99278843317, -187500.02235174447, -187500.02235174447, -43896.34506658853, -43037.099306237615, -77526.48920136562, -46392.29731467931, -84839.39884178626, -29707.32357589288, 0.0, 0.0, 0.0, 193.0, 0.0, 1.0, 1.0, 0.0, 0.0, 1.0, 1.0, 256.0, 1.0, 1.750525201664035E9, 0.0, 2025-06-21 19:00:01.664
84.0, -43110.368324562114, -40760.95411312034, -28067.756064862737, -67960.70253380567, -28914.753069252143, -28192.925833812456, -51461.22592225384, -97802.15892817485, -187500.02235174447, -187500.02235174447, -43899.42960732336, -43036.18288471495, -77535.295788681, -46392.74434956841, -84863.65048452026, -29707.368279381786, 0.0, 0.0, 0.0, 193.0, 0.0, 1.0, 1.0, 0.0, 0.0, 1.0, 1.0, 256.0, 1.0, 1.750525201672023E9, 0.0, 2025-06-21 19:00:01.672
86.0, -43124.89695845806, -40772.12998534799, -28073.58987016557, -67965.41875188575, -28906.259406359128, -28187.315545954174, -51457.91786407446, -97802.67301829733, -187500.02235174447, -187500.02235174447, -43932.06315422811, -43069.48698395336, -77549.39973943231, -46436.21849253398, -84854.10628963784, -29744.2710094775, 0.0, 0.0, 0.0, 193.0, 0.0, 1.0, 1.0, 0.0, 0.0, 1.0, 1.0, 256.0, 1.0, 1.750525201679047E9, 0.0, 2025-06-21 19:00:01.679
88.0, -43103.61809773661, -40751.700490915835, -28047.70655008633, -67939.22250738413, -28903.465438302213, -28206.62745316356, -51428.65943058246, -97782.26587560964, -187500.02235174447, -187500.02235174447, -43896.18860437735, -43034.99824225882, -77534.4464223917, -46381.97080874095, -84861.39295833028, -29695.92418622067, 0.0, 0.0, 0.0, 193.0, 0.0, 1.0, 1.0, 0.0, 0.0, 1.0, 1.0, 256.0, 1.0, 1.750525201687079E9, 0.0, 2025-06-21 19:00:01.687
90.0, -43157.46345012945, -40804.1823868969, -28071.645268397962, -67977.35458342488, -28909.545112794058, -28169.747074812305, -51470.99363458081, -97808.32800964452, -187500.02235174447, -187500.02235174447, -43911.65601154042, -43056.679434380465, -77537.10627998189, -46417.24186149143, -84844.00330114404, -29724.757936568018, 0.0, 0.0, 0.0, 193.0, 0.0, 1.0, 1.0, 0.0, 0.0, 1.0, 1.0, 256.0, 1.0, 1.750525201695107E9, 0.0, 2025-06-21 19:00:01.695
92.0, -43150.556761092754, -40790.570174523615, -28055.93199204588, -67944.72103652013, -28909.366298838413, -28209.86845610958, -51424.99374449179, -97779.27074185261, -187500.02235174447, -187500.02235174447, -43919.50147384423, -43061.82033560519, -77550.71849235517, -46412.86091957819, -84858.71074899564, -29724.042680745446, 0.0, 0.0, 0.0, 193.0, 0.0, 1.0, 1.0, 0.0, 0.0, 1.0, 1.0, 256.0, 1.0, 1.750525201703128E9, 0.0, 2025-06-21 19:00:01.703
94.0, -43214.12512232365, -40851.70219560888, -28067.443140440362, -67973.30891767847, -28902.705478990734, -28171.1999382019, -51459.52718967524, -97801.26485839664, -187500.02235174447, -187500.02235174447, -43902.35768584701, -43045.570617386176, -77541.48722189514, -46385.211811686975, -84855.33563558289, -29698.896968233224, 0.0, 0.0, 0.0, 193.0, 0.0, 1.0, 1.0, 0.0, 0.0, 1.0, 1.0, 256.0, 1.0, 1.750525201711149E9, 0.0, 2025-06-21 19:00:01.711
96.0, -43230.01721263137, -40860.93346606892, -28071.73467537578, -67973.66654558976, -28908.76280173812, -28198.267900737275, -51468.62434966855, -97807.34453288848, -187500.02235174447, -187500.02235174447, -43952.716166104816, -43100.08652211267, -77575.19365253374, -46441.31469026979, -84852.40755705924, -29753.435224704175, 0.0, 0.0, 0.0, 193.0, 0.0, 1.0, 1.0, 0.0, 0.0, 1.0, 1.0, 256.0, 1.0, 1.750525201719194E9, 0.0, 2025-06-21 19:00:01.719
98.0, -43234.1522853556, -40865.98496031582, -28057.630724624483, -67944.81044349795, -28905.342984836458, -28225.224104550376, -51438.62830860953, -97787.27266636761, -187500.02235174447, -187500.02235174447, -43907.900918471925, -43043.51425689629, -77550.38321618835, -46376.00289297139, -84858.91191469574, -29692.750238508015, 0.0, 0.0, 0.0, 193.0, 0.0, 1.0, 1.0, 0.0, 0.0, 1.0, 1.0, 256.0, 1.0, 1.750525201726212E9, 0.0, 2025-06-21 19:00:01.726
100.0, -43289.763425560406, -40912.58834750514, -28085.03396332669, -67984.06010676148, -28916.00476694164, -28180.0512290062, -51479.643759685016, -97817.15694870436, -187500.02235174447, -187500.02235174447, -43942.50141888874, -43074.784347389264, -77565.31418148449, -46420.505216181904, -84853.36868207082, -29729.720023837093, 0.0, 0.0, 0.0, 193.0, 0.0, 1.0, 1.0, 0.0, 0.0, 1.0, 1.0, 256.0, 1.0, 1.750525201735238E9, 0.0, 2025-06-21 19:00:01.735
102.0, -43263.90245722562, -40890.77304491676, -28062.481053171286, -67944.25164988657, -28910.05920291653, -28222.698357426925, -51435.29789868568, -97785.46217506674, -187500.02235174447, -187500.02235174447, -43947.77643058019, -43075.767824145296, -77575.97596358966, -46415.14079751263, -84865.01394093204, -29728.334215680865, 0.0, 0.0, 0.0, 193.0, 0.0, 1.0, 1.0, 0.0, 0.0, 1.0, 1.0, 256.0, 1.0, 1.750525201743286E9, 0.0, 2025-06-21 19:00:01.743
104.0, -43287.729416814975, -40917.885710941046, -28067.04080904017, -67960.3449058944, -28902.973699924198, -28170.730551568337, -51440.37174467704, -97789.01610243513, -187500.02235174447, -187500.02235174447, -43913.2653371412, -43040.94380628393, -77547.29867545351, -46380.4955936069, -84857.99549317306, -29690.336250106844, 0.0, 0.0, 0.0, 193.0, 0.0, 1.0, 1.0, 0.0, 0.0, 1.0, 1.0, 256.0, 1.0, 1.750525201751299E9, 0.0, 2025-06-21 19:00:01.751
106.0, -43308.851815325244, -40931.56497854769, -28081.882367358492, -67977.48869389162, -28910.305072105537, -28188.231967476844, -51464.42222171095, -97808.21625092224, -187500.02235174447, -187500.02235174447, -43961.880381331495, -43097.42666452249, -77579.82046363599, -46444.04160309334, -84861.46001356364, -29749.83659384687, 0.0, 0.0, 0.0, 193.0, 0.0, 1.0, 1.0, 0.0, 0.0, 1.0, 1.0, 256.0, 1.0, 1.750525201758322E9, 0.0, 2025-06-21 19:00:01.758
108.0, -43300.604021621235, -40929.10628665761, -28072.382875964988, -67958.26619366005, -28902.236092357172, -28233.985988376855, -51446.987861035814, -97791.92182921432, -187500.02235174447, -187500.02235174447, -43918.13801743246, -43052.834934334154, -77561.35792271589, -46380.16031744007, -84866.84678397737, -29694.516026319987, 0.0, 0.0, 0.0, 193.0, 0.0, 1.0, 1.0, 0.0, 0.0, 1.0, 1.0, 256.0, 1.0, 1.750525201768359E9, 0.0, 2025-06-21 19:00:01.768
110.0, -43340.43483024059, -40962.00805449582, -28094.9804896093, -67996.86765633436, -28920.542171066067, -28180.185339472933, -51498.3521697941, -97824.33185867452, -187500.02235174447, -187500.02235174447, -43962.79680285416, -43095.81733892171, -77586.07895208347, -46438.677184424065, -84870.3336561124, -29748.40608220173, 0.0, 0.0, 0.0, 193.0, 0.0, 1.0, 1.0, 0.0, 0.0, 1.0, 1.0, 256.0, 1.0, 1.750525201776402E9, 0.0, 2025-06-21 19:00:01.776
112.0, -43308.80711183633, -40938.15874316201, -28075.802692866648, -67959.62965007182, -28917.792906498067, -28229.672101696982, -51447.63606162502, -97794.53698331559, -187500.02235174447, -187500.02235174447, -43958.03588128518, -43085.53553647227, -77586.50363522812, -46426.71900114048, -84880.77192077303, -29739.532439652976, 0.0, 0.0, 0.0, 193.0, 0.0, 1.0, 1.0, 0.0, 0.0, 1.0, 1.0, 256.0, 1.0, 1.750525201782364E9, 0.0, 2025-06-21 19:00:01.782
114.0, -43340.43483024059, -40967.037196998266, -28086.665640671927, -67983.45660966118, -28908.53928429357, -28198.558473415196, -51472.647663670505, -97813.44655912479, -187500.02235174447, -187500.02235174447, -43931.77258155019, -43061.97679781637, -77568.26461175259, -46400.63451536113, -84878.87202249432, -29712.173904439678, 0.0, 0.0, 0.0, 193.0, 0.0, 1.0, 1.0, 0.0, 0.0, 1.0, 1.0, 256.0, 1.0, 1.750525201790501E9, 0.0, 2025-06-21 19:00:01.790
116.0, -43344.90517913165, -40970.948752277945, -28084.184597037387, -67981.08732474892, -28909.43335407178, -28184.231005219342, -51469.51841944676, -97814.09475971399, -187500.02235174447, -187500.02235174447, -43980.07470131811, -43110.234214095384, -77596.04783011053, -46457.67616721108, -84874.3346183699, -29765.438111476677, 0.0, 0.0, 0.0, 193.0, 0.0, 1.0, 1.0, 0.0, 0.0, 1.0, 1.0, 256.0, 1.0, 1.75052520179954E9, 0.0, 2025-06-21 19:00:01.799
118.0, -43318.93245207459, -40952.285045657765, -28059.284753714175, -67945.07866443142, -28893.04952538604, -28220.127906814567, -51426.49131137029, -97779.29309359707, -187500.02235174447, -187500.02235174447, -43925.670555313896, -43059.31694022619, -77570.67860015375, -46386.7987855433, -84871.16067065725, -29700.34983162282, 0.0, 0.0, 0.0, 193.0, 0.0, 1.0, 1.0, 0.0, 0.0, 1.0, 1.0, 256.0, 1.0, 1.750525201806466E9, 0.0, 2025-06-21 19:00:01.806
120.0, -43390.25686863147, -41014.93698536599, -28110.85022817257, -68002.32148198146, -28926.264217646625, -28178.508958638784, -51479.911980618475, -97825.69531508628, -187500.02235174447, -187500.02235174447, -43963.489706932276, -43089.17887081848, -77583.44144623775, -46431.055239564805, -84860.34242634088, -29735.08444250637, 0.0, 0.0, 0.0, 193.0, 0.0, 1.0, 1.0, 0.0, 0.0, 1.0, 1.0, 256.0, 1.0, 1.750525201814476E9, 0.0, 2025-06-21 19:00:01.814
122.0, -43358.45033627157, -40989.478348431396, -28073.679277143394, -67955.02519071403, -28902.169037123807, -28223.972406860878, -51439.32121268764, -97788.6808262683, -187500.02235174447, -187500.02235174447, -43974.866744860024, -43095.280897054785, -77601.56871099099, -46426.13785578464, -84877.37445561582, -29735.93380879567, 0.0, 0.0, 0.0, 193.0, 0.0, 1.0, 1.0, 0.0, 0.0, 1.0, 1.0, 256.0, 1.0, 1.750525201823507E9, 0.0, 2025-06-21 19:00:01.823
124.0, -43400.80689201438, -41029.376212284114, -28100.32255653412, -67990.83268533144, -28925.370147868416, -28169.702371323394, -51477.20741953939, -97812.59719283548, -187500.02235174447, -187500.02235174447, -43948.49168640276, -43072.30330375473, -77586.43657999476, -46397.25940194838, -84873.06056893595, -29710.095192205335, 0.0, 0.0, 0.0, 193.0, 0.0, 1.0, 1.0, 0.0, 0.0, 1.0, 1.0, 256.0, 1.0, 1.750525201831588E9, 0.0, 2025-06-21 19:00:01.831
126.0, -43410.50754910798, -41035.947625153975, -28100.61312921204, -67984.08245850593, -28920.117487921416, -28196.993851303323, -51464.28811124422, -97810.5855358345, -187500.02235174447, -187500.02235174447, -43999.699532949875, -43121.00775492284, -77615.89617918685, -46453.25052180893, -84874.40167360326, -29760.096044551858, 0.0, 0.0, 0.0, 193.0, 0.0, 1.0, 1.0, 0.0, 0.0, 1.0, 1.0, 256.0, 1.0, 1.750525201838627E9, 0.0, 2025-06-21 19:00:01.838
128.0, -43409.92640375214, -41055.86302946365, -28091.761838407736, -67970.91728102176, -28915.24480763016, -28248.201697850433, -51447.65841336947, -97793.084119926, -187500.02235174447, -187500.02235174447, -43940.199189209845, -43062.37912921657, -77584.60373694942, -46382.66371281907, -84876.54744107097, -29694.940709464638, 0.0, 0.0, 0.0, 193.0, 0.0, 1.0, 1.0, 0.0, 0.0, 1.0, 1.0, 256.0, 1.0, 1.750525201846713E9, 0.0, 2025-06-21 19:00:01.846
130.0, -43456.418032219175, -41101.125311985656, -28104.725850191815, -68000.33217672494, -28919.737508265676, -28179.738304583825, -51488.584457467136, -97827.3940476649, -187500.02235174447, -187500.02235174447, -43997.35259978206, -43124.94166194698, -77621.99820542315, -46457.11737359969, -84893.11008371235, -29762.890012608772, 0.0, 0.0, 0.0, 193.0, 0.0, 1.0, 1.0, 0.0, 0.0, 1.0, 1.0, 256.0, 1.0, 1.750525201856677E9, 0.0, 2025-06-21 19:00:01.856
132.0, -43430.08767725083, -41090.86586128067, -28082.46351271433, -67962.78124604002, -28915.35656635244, -28232.10844184261, -51452.1958174939, -97803.14240493088, -187500.02235174447, -187500.02235174447, -43976.073739060615, -43101.76290294682, -77607.78249594958, -46424.640288906136, -84876.86036549335, -29735.352663439833, 0.0, 0.0, 0.0, 193.0, 0.0, 1.0, 1.0, 0.0, 0.0, 1.0, 1.0, 256.0, 1.0, 1.750525201863711E9, 0.0, 2025-06-21 19:00:01.863
134.0, -43472.06425333789, -41139.0115188374, -28099.33907977809, -67992.97845279914, -28930.33223513749, -28197.32912747015, -51479.643759685016, -97820.10737897246, -187500.02235174447, -187500.02235174447, -43956.8735905735, -43085.60259170563, -77596.18194057727, -46403.96492528498, -84879.72138878363, -29714.409078885208, 0.0, 0.0, 0.0, 193.0, 0.0, 1.0, 1.0, 0.0, 0.0, 1.0, 1.0, 256.0, 1.0, 1.750525201870746E9, 0.0, 2025-06-21 19:00:01.870
136.0, -43480.1108813418, -41149.38272826466, -28109.464420016342, -67995.70536562269, -28922.48677283368, -28192.568205901174, -51463.61755891056, -97816.32993415951, -187500.02235174447, -187500.02235174447, -44004.08047486311, -43128.87556897111, -77621.61822576741, -46462.99588239144, -84884.70582779717, -29766.667457421718, 0.0, 0.0, 0.0, 193.0, 0.0, 1.0, 1.0, 0.0, 0.0, 1.0, 1.0, 256.0, 1.0, 1.750525201878785E9, 0.0, 2025-06-21 19:00:01.878
138.0, -43465.22461953457, -41148.578065464266, -28082.64232666997, -67971.18550195522, -28911.422659328302, -28244.15603210402, -51448.61953838105, -97797.86739323943, -187500.02235174447, -187500.02235174447, -43956.31479696212, -43084.775577160784, -77603.98269939217, -46398.86872754917, -84885.35402838637, -29711.54805559493, 0.0, 0.0, 0.0, 193.0, 0.0, 1.0, 1.0, 0.0, 0.0, 1.0, 1.0, 256.0, 1.0, 1.750525201887755E9, 0.0, 2025-06-21 19:00:01.887
140.0, -43502.23910835256, -41183.044455414354, -28106.871617659526, -68008.71408089568, -28915.065993674518, -28179.648897606006, -51475.95572184989, -97816.10641671496, -187500.02235174447, -187500.02235174447, -43985.97556185431, -43121.4771415564, -77615.6726617423, -46431.39051573164, -84861.97410368611, -29742.102890265334, 0.0, 0.0, 0.0, 193.0, 0.0, 1.0, 1.0, 0.0, 0.0, 1.0, 1.0, 256.0, 1.0, 1.750525201894831E9, 0.0, 2025-06-21 19:00:01.894
142.0, -43482.52486974298, -41170.19220235255, -28081.904719102946, -67967.96685075366, -28913.791944240565, -28215.836371879148, -51432.8392067956, -97785.43982332227, -187500.02235174447, -187500.02235174447, -43978.39832048397, -43109.049571639254, -77616.2761588426, -46416.61601264668, -84873.73112126961, -29730.74820408204, 0.0, 0.0, 0.0, 193.0, 0.0, 1.0, 1.0, 0.0, 0.0, 1.0, 1.0, 256.0, 1.0, 1.75052520190285E9, 0.0, 2025-06-21 19:00:01.902
144.0, -43526.91543423122, -41224.81986580132, -28121.71317597785, -68019.50997346759, -28921.883275733388, -28227.16870631799, -51484.80701265419, -97827.66226859836, -187500.02235174447, -187500.02235174447, -43973.59269542607, -43108.51312977233, -77620.36652807791, -46414.67141087907, -84889.10912145485, -29728.580084869875, 0.0, 0.0, 0.0, 193.0, 0.0, 1.0, 1.0, 0.0, 0.0, 1.0, 1.0, 256.0, 1.0, 1.750525201910882E9, 0.0, 2025-06-21 19:00:01.910
146.0, -43518.645288782755, -41210.73826679448, -28108.79386768268, -67999.05812729099, -28930.71221479323, -28202.24651125032, -51474.30169276019, -97819.52623361662, -187500.02235174447, -187500.02235174447, -44012.6411929895, -43144.92412149002, -77636.70565327474, -46465.54398125935, -84882.9847434741, -29773.305925524943, 0.0, 0.0, 0.0, 193.0, 0.0, 1.0, 1.0, 0.0, 0.0, 1.0, 1.0, 256.0, 1.0, 1.750525201918931E9, 0.0, 2025-06-21 19:00:01.918
148.0, -43505.12248338729, -41208.30192664885, -28089.481960473295, -67974.27004269006, -28914.574255296502, -28225.44762199493, -51446.83139882462, -97795.87808798291, -187500.02235174447, -187500.02235174447, -43965.38960521098, -43093.38099877608, -77612.63282449637, -46403.026152017854, -84891.14313020029, -29714.610244585307, 0.0, 0.0, 0.0, 193.0, 0.0, 1.0, 1.0, 0.0, 0.0, 1.0, 1.0, 256.0, 1.0, 1.750525201926938E9, 0.0, 2025-06-21 19:00:01.926
150.0, -43540.48294311559, -41240.46608692004, -28120.796754455183, -68017.61007518889, -28927.44886010276, -28182.979307529844, -51488.22682955585, -97826.16470171986, -187500.02235174447, -187500.02235174447, -43997.03967535969, -43124.33816484668, -77620.2771211001, -46446.790867661344, -84875.96629571513, -29751.64708514775, 0.0, 0.0, 0.0, 193.0, 0.0, 1.0, 1.0, 0.0, 0.0, 1.0, 1.0, 256.0, 1.0, 1.750525201934965E9, 0.0, 2025-06-21 19:00:01.934
152.0, -43502.17205311919, -41211.2747086614, -28095.13695182049, -67972.86188278937, -28914.14957215185, -28228.241590051843, -51433.487407384804, -97784.97043668872, -187500.02235174447, -187500.02235174447, -43988.12132932202, -43116.2244816094, -77621.48411530067, -46432.64221342113, -84887.74566504308, -29742.08053852088, 0.0, 0.0, 0.0, 193.0, 0.0, 1.0, 1.0, 0.0, 0.0, 1.0, 1.0, 256.0, 1.0, 1.750525201944996E9, 0.0, 2025-06-21 19:00:01.944
154.0, -43535.16322793523, -41247.73040386801, -28114.1359346075, -68008.40115647331, -28923.067918189518, -28186.019144775768, -51463.86342809957, -97807.32218114403, -187500.02235174447, -187500.02235174447, -43979.56061119564, -43108.91546117252, -77622.26642635661, -46417.5547859138, -84895.3899616468, -29728.669491847693, 0.0, 0.0, 0.0, 193.0, 0.0, 1.0, 1.0, 0.0, 0.0, 1.0, 1.0, 256.0, 1.0, 1.750525201952018E9, 0.0, 2025-06-21 19:00:01.952
156.0, -43536.839608769376, -41243.6847381216, -28117.064013131145, -68007.77530762856, -28925.370147868416, -28213.556493944707, -51461.404736209486, -97808.79739627808, -187500.02235174447, -187500.02235174447, -44014.63049824602, -43146.10876394615, -77640.05841494304, -46459.95604514552, -84876.72625502662, -29771.763655157527, 0.0, 0.0, 0.0, 193.0, 0.0, 1.0, 1.0, 0.0, 0.0, 1.0, 1.0, 256.0, 1.0, 1.75052520195905E9, 0.0, 2025-06-21 19:00:01.959
158.0, -43521.41690509521, -41236.26395896244, -28109.41971652743, -67994.72188886665, -28918.105830920438, -28236.981122133868, -51443.7915615787, -97799.76729151813, -187500.02235174447, -187500.02235174447, -43981.70637866335, -43111.06122864023, -77631.22947588318, -46411.02807653285, -84900.21793844915, -29729.228285459078, 0.0, 0.0, 0.0, 193.0, 0.0, 1.0, 1.0, 0.0, 0.0, 1.0, 1.0, 256.0, 1.0, 1.750525201967069E9, 0.0, 2025-06-21 19:00:01.967
160.0, -43541.66758557172, -41253.96654057104, -28113.599492740574, -68017.74418565563, -28920.408060599337, -28172.80926380268, -51476.067480572165, -97820.59911735047, -187500.02235174447, -187500.02235174447, -44003.63343997401, -43134.06117368474, -77633.06231892853, -46447.30495778382, -84873.17232765822, -29760.9230590967, 0.0, 0.0, 0.0, 193.0, 0.0, 1.0, 1.0, 0.0, 0.0, 1.0, 1.0, 256.0, 1.0, 1.750525201975111E9, 0.0, 2025-06-21 19:00:01.975
162.0, -43514.51021605852, -41228.35144142526, -28101.641309456983, -67986.78701958503, -28920.81039199953, -28223.771241160783, -51428.59237534909, -97790.64777978037, -187500.02235174447, -187500.02235174447, -43992.703436935364, -43121.38773457858, -77630.11188866042, -46433.3574692437, -84881.75539752906, -29749.926000824693, 0.0, 0.0, 0.0, 193.0, 0.0, 1.0, 1.0, 0.0, 0.0, 1.0, 1.0, 256.0, 1.0, 1.750525201983123E9, 0.0, 2025-06-21 19:00:01.983
164.0, -43537.308995402935, -41251.23962774749, -28121.199085855376, -68023.06390083599, -28909.925092449797, -28206.560397930196, -51463.684614143924, -97811.65841956835, -187500.02235174447, -187500.02235174447, -43985.483823476294, -43116.33624033168, -77629.57544679349, -46423.81327436129, -84889.7349702996, -29738.481907663576, 0.0, 0.0, 0.0, 193.0, 0.0, 1.0, 1.0, 0.0, 0.0, 1.0, 1.0, 256.0, 1.0, 1.750525201991156E9, 0.0, 2025-06-21 19:00:01.991
166.0, -43536.92901574719, -41246.791630600885, -28119.790925954694, -68014.79375538752, -28926.107755435438, -28178.955993527892, -51468.04320431271, -97807.4339398663, -187500.02235174447, -187500.02235174447, -44020.97839367132, -43152.12138320463, -77647.99328422466, -46471.8695249402, -84882.26948765153, -29781.576070973406, 0.0, 0.0, 0.0, 193.0, 0.0, 1.0, 1.0, 0.0, 0.0, 1.0, 1.0, 256.0, 1.0, 1.750525202000217E9, 0.0, 2025-06-21 19:00:02.000
168.0, -43549.46834438662, -41257.54281968389, -28143.774347755236, -68025.56729621498, -28951.387578414393, -28239.752738446325, -51499.201536083405, -97839.08401001502, -187500.02235174447, -187500.02235174447, -44000.392437027986, -43125.29928985826, -77649.4237958698, -46433.156303543605, -84915.50653165657, -29748.339026968366, 0.0, 0.0, 0.0, 193.0, 0.0, 1.0, 1.0, 0.0, 0.0, 1.0, 1.0, 256.0, 1.0, 1.750525202006219E9, 0.0, 2025-06-21 19:00:02.006
170.0, -43581.81131861345, -41288.052950865385, -28156.961876983867, -68052.25527909462, -28948.615962101932, -28177.503130138295, -51532.99737369983, -97861.83808587052, -187500.02235174447, -187500.02235174447, -44045.118277683054, -43165.42067115554, -77672.60255486997, -46488.70038851505, -84916.91469155726, -29796.37292580282, 0.0, 0.0, 0.0, 193.0, 0.0, 1.0, 1.0, 0.0, 0.0, 1.0, 1.0, 256.0, 1.0, 1.75052520201524E9, 0.0, 2025-06-21 19:00:02.015
172.0, -43534.96206223513, -41245.31641546684, -28135.213629628855, -68011.21747627467, -28938.602380585955, -28225.73819467285, -51479.19672479591, -97820.19678595029, -187500.02235174447, -187500.02235174447, -44033.65183277748, -43157.977540251915, -77671.10498799145, -46469.88021968368, -84921.02741253703, -29782.1795680737, 0.0, 0.0, 0.0, 193.0, 0.0, 1.0, 1.0, 0.0, 0.0, 1.0, 1.0, 256.0, 1.0, 1.750525202023304E9, 0.0, 2025-06-21 19:00:02.023
174.0, -43568.355568451356, -41271.490308224005, -28146.300094878687, -68035.91615389778, -28933.81910727252, -28209.376717731564, -51487.17629756645, -97831.46206515576, -187500.02235174447, -187500.02235174447, -44011.65771623346, -43133.41297309554, -77654.09531046097, -46443.639271693144, -84913.56192988897, -29754.73162588258, 0.0, 0.0, 0.0, 193.0, 0.0, 1.0, 1.0, 0.0, 0.0, 1.0, 1.0, 256.0, 1.0, 1.750525202031322E9, 0.0, 2025-06-21 19:00:02.031
176.0, -43531.05050695545, -41231.838313560285, -28115.1864665969, -68000.68980463622, -28917.748203009156, -28170.95406901289, -51444.73033484582, -97796.10160542747, -187500.02235174447, -187500.02235174447, -44039.686803780416, -43159.7880315528, -77661.87371753142, -46477.09983314274, -84893.26654592354, -29785.9793646311, 0.0, 0.0, 0.0, 193.0, 0.0, 1.0, 1.0, 0.0, 0.0, 1.0, 1.0, 256.0, 1.0, 1.750525202038331E9, 0.0, 2025-06-21 19:00:02.038
178.0, -43540.48294311559, -41242.88007532121, -28121.400251555475, -68003.17084827076, -28930.086365948486, -28226.654616195516, -51439.38826792101, -97794.58168680451, -187500.02235174447, -187500.02235174447, -43983.069835075126, -43101.40527503553, -77629.10606015993, -46399.740445582924, -84884.41525511924, -29714.140857951745, 0.0, 0.0, 0.0, 193.0, 0.0, 1.0, 1.0, 0.0, 0.0, 1.0, 1.0, 256.0, 1.0, 1.750525202047362E9, 0.0, 2025-06-21 19:00:02.047
180.0, -43581.85602210236, -41279.76045367247, -28141.22624888733, -68041.14646210033, -28937.5294968521, -28175.491473137317, -51478.68263467344, -97818.22983243821, -187500.02235174447, -187500.02235174447, -44037.27281537924, -43156.524676862326, -77659.61619134143, -46468.20383884953, -84891.72427555613, -29776.278707537498, 0.0, 0.0, 0.0, 193.0, 0.0, 1.0, 1.0, 0.0, 0.0, 1.0, 1.0, 256.0, 1.0, 1.75052520205539E9, 0.0, 2025-06-21 19:00:02.055
182.0, -43556.57619912341, -41255.41940396064, -28135.45949881786, -68018.32533101145, -28941.731624809698, -28223.81594464969, -51447.5913581361, -97795.833384494, -187500.02235174447, -187500.02235174447, -44033.025983932734, -43154.758889050354, -77666.41112165584, -46462.01240563541, -84908.30926994196, -29774.26705053652, 0.0, 0.0, 0.0, 193.0, 0.0, 1.0, 1.0, 0.0, 0.0, 1.0, 1.0, 256.0, 1.0, 1.750525202062358E9, 0.0, 2025-06-21 19:00:02.062
184.0, -43570.724853363616, -41266.662331421656, -28132.57612378313, -68022.57216245796, -28924.252560645647, -28187.695525609917, -51463.639910655016, -97800.92958222982, -187500.02235174447, -187500.02235174447, -44014.585794757106, -43135.29051962978, -77653.20124068276, -46440.0629925803, -84906.76699957455, -29752.36234097032, 0.0, 0.0, 0.0, 193.0, 0.0, 1.0, 1.0, 0.0, 0.0, 1.0, 1.0, 256.0, 1.0, 1.750525202070447E9, 0.0, 2025-06-21 19:00:02.070
186.0, -43577.05039704447, -41265.12006105424, -28149.406987357976, -68027.64600844932, -28973.515805425144, -28210.762525887792, -51481.09662307461, -97827.75167557618, -187500.02235174447, -187500.02235174447, -44053.47783010934, -43166.67236884504, -77668.73570307919, -46482.48660355647, -84900.86613903835, -29792.282556567498, 0.0, 0.0, 0.0, 193.0, 0.0, 1.0, 1.0, 0.0, 0.0, 1.0, 1.0, 256.0, 1.0, 1.75052520207953E9, 0.0, 2025-06-21 19:00:02.079
188.0, -43559.817202069426, -41261.275561007926, -28125.535324279706, -67996.62178714536, -28950.560563869545, -28229.02390110778, -51455.883855329026, -97800.70606478526, -187500.02235174447, -187500.02235174447, -44009.064913876646, -43118.7278769884, -77649.6249615699, -46423.18742551654, -84915.32771770093, -29736.559657640417, 0.0, 0.0, 0.0, 193.0, 0.0, 1.0, 1.0, 0.0, 0.0, 1.0, 1.0, 256.0, 1.0, 1.75052520208651E9, 0.0, 2025-06-21 19:00:02.086
190.0, -43580.82784185742, -41268.69634016709, -28136.554734296173, -68022.9521421137, -28939.563505597536, -28161.52163285275, -51476.26864627226, -97813.42420738033, -187500.02235174447, -187500.02235174447, -44032.757762999274, -43146.086412201694, -77653.7823860386, -46458.45847826701, -84889.0867697104, -29764.722855654105, 0.0, 0.0, 0.0, 193.0, 0.0, 1.0, 1.0, 0.0, 0.0, 1.0, 1.0, 256.0, 1.0, 1.750525202094553E9, 0.0, 2025-06-21 19:00:02.094
192.0, -43553.044623499474, -41255.77703187192, -28130.117431893046, -67996.46532493416, -28946.40313940086, -28227.280465040265, -51442.11518074456, -97791.92182921432, -187500.02235174447, -187500.02235174447, -44022.408905316464, -43139.71616503193, -77652.66479881582, -46443.505161226414, -84900.79908380497, -29751.580029914385, 0.0, 0.0, 0.0, 193.0, 0.0, 1.0, 1.0, 0.0, 0.0, 1.0, 1.0, 256.0, 1.0, 1.750525202103526E9, 0.0, 2025-06-21 19:00:02.103
194.0, -43585.834632615406, -41282.71088394057, -28148.736435024315, -68033.43511026325, -28949.44297664678, -28193.66344137948, -51475.82161138316, -97821.98492550671, -187500.02235174447, -187500.02235174447, -44011.367143555544, -43127.378002092606, -77647.81447026903, -46439.95123385802, -84909.31509844246, -29747.2214397456, 0.0, 0.0, 0.0, 193.0, 0.0, 1.0, 1.0, 0.0, 0.0, 1.0, 1.0, 256.0, 1.0, 1.750525202111565E9, 0.0, 2025-06-21 19:00:02.111
196.0, -43576.3351412219, -41274.39603500319, -28144.444900088896, -68023.98032235865, -28945.240848689184, -28185.706220353393, -51473.00529158179, -97816.10641671496, -187500.02235174447, -187500.02235174447, -44055.08715571012, -43167.3876246676, -77670.72500833572, -46485.21351638002, -84899.34622041539, -29792.014335634034, 0.0, 0.0, 0.0, 193.0, 0.0, 1.0, 1.0, 0.0, 0.0, 1.0, 1.0, 256.0, 1.0, 1.750525202119602E9, 0.0, 2025-06-21 19:00:02.119
198.0, -43556.86677180133, -41258.6380551622, -28123.210742856354, -67999.9074935803, -28940.524630609114, -28211.008395076802, -51445.311480201664, -97799.16379441784, -187500.02235174447, -187500.02235174447, -44006.38270454201, -43123.06411541273, -77649.6249615699, -46421.64515514913, -84907.70577284167, -29736.000864029036, 0.0, 0.0, 0.0, 193.0, 0.0, 1.0, 1.0, 0.0, 0.0, 1.0, 1.0, 256.0, 1.0, 1.750525202126643E9, 0.0, 2025-06-21 19:00:02.126
200.0, -43586.460481460155, -41274.6419041922, -28135.794774984694, -68027.37778751586, -28932.902685749854, -28158.504147351283, -51477.76621315077, -97814.22887018071, -187500.02235174447, -187500.02235174447, -44028.71209725286, -43149.0815459587, -77650.78725228159, -46457.11737359969, -84880.77192077303, -29768.343838255863, 0.0, 0.0, 0.0, 193.0, 0.0, 1.0, 1.0, 0.0, 0.0, 1.0, 1.0, 256.0, 1.0, 1.750525202134657E9, 0.0, 2025-06-21 19:00:02.134
202.0, -43532.972756978605, -41235.6828136066, -28096.433352998898, -67971.87840603333, -28917.18940939777, -28192.121171012066, -51426.40190439247, -97769.99476790367, -187500.02235174447, -187500.02235174447, -44002.53820449569, -43120.24779561136, -77634.38107185139, -46421.488692937935, -84872.90410672476, -29736.336140195865, 0.0, 0.0, 0.0, 193.0, 0.0, 1.0, 1.0, 0.0, 0.0, 1.0, 1.0, 256.0, 1.0, 1.750525202142684E9, 0.0, 2025-06-21 19:00:02.142
204.0, -43602.50903397906, -41293.17150034565, -28151.10571993658, -68037.34666554292, -28960.14946224087, -28196.815037347682, -51492.04897785771, -97836.2900419581, -187500.02235174447, -187500.02235174447, -44004.728675452316, -43124.852254969155, -77642.6735690443, -46423.41094296109, -84894.31707791294, -29735.777346584484, 0.0, 0.0, 0.0, 193.0, 0.0, 1.0, 1.0, 0.0, 0.0, 1.0, 1.0, 256.0, 1.0, 1.750525202151727E9, 0.0, 2025-06-21 19:00:02.151
206.0, -43583.53240293651, -41267.8916773667, -28140.37688259803, -68020.22522929015, -28947.96776151273, -28191.115342511577, -51464.466925199864, -97814.1841666918, -187500.02235174447, -187500.02235174447, -44054.55071384319, -43172.77439508133, -77672.91547929234, -46482.28543785637, -84897.91570877025, -29789.68975421068, 0.0, 0.0, 0.0, 193.0, 0.0, 1.0, 1.0, 0.0, 0.0, 1.0, 1.0, 256.0, 1.0, 1.750525202158761E9, 0.0, 2025-06-21 19:00:02.158
208.0, -43574.39053945429, -41272.27261927994, -28130.31859759314, -68004.26608374907, -28954.7850435716, -28227.928665629468, -51449.37949769253, -97799.05203569557, -187500.02235174447, -187500.02235174447, -44005.980373141814, -43121.94652818996, -77649.08851970299, -46425.31084123979, -84911.05853450997, -29735.822050073395, 0.0, 0.0, 0.0, 193.0, 0.0, 1.0, 1.0, 0.0, 0.0, 1.0, 1.0, 256.0, 1.0, 1.75052520216775E9, 0.0, 2025-06-21 19:00:02.167
210.0, -43606.08531309191, -41292.90327941219, -28146.76948151225, -68037.2572585651, -28955.03091276061, -28164.762635798772, -51478.36971025106, -97821.00144875067, -187500.02235174447, -187500.02235174447, -44038.837437491115, -43153.75306054987, -77659.23621168568, -46468.136783616166, -84890.00319123307, -29771.964820857625, 0.0, 0.0, 0.0, 193.0, 0.0, 1.0, 1.0, 0.0, 0.0, 1.0, 1.0, 256.0, 1.0, 1.750525202175784E9, 0.0, 2025-06-21 19:00:02.175
212.0, -43553.75987932204, -41249.36208121325, -28114.47121077433, -67986.71996435165, -28923.15732516734, -28202.06769729468, -51419.74108454479, -97779.60601801945, -187500.02235174447, -187500.02235174447, -44030.43318157592, -43146.801668024265, -77663.77361581012, -46446.20972230551, -84896.26167968055, -29755.871564849804, 0.0, 0.0, 0.0, 193.0, 0.0, 1.0, 1.0, 0.0, 0.0, 1.0, 1.0, 256.0, 1.0, 1.750525202182802E9, 0.0, 2025-06-21 19:00:02.182
214.0, -43591.556679195965, -41282.01797986245, -28135.57125754014, -68019.64408393433, -28934.10967995044, -28182.264051707276, -51459.10250653059, -97808.77504453363, -187500.02235174447, -187500.02235174447, -44006.15918709746, -43116.13507463158, -77641.24305739916, -46410.446931177015, -84877.17328991572, -29721.06989873289, 0.0, 0.0, 0.0, 193.0, 0.0, 1.0, 1.0, 0.0, 0.0, 1.0, 1.0, 256.0, 1.0, 1.750525202190823E9, 0.0, 2025-06-21 19:00:02.190
216.0, -43586.68399890471, -41275.73713967051, -28134.319559850643, -68014.83845887643, -28946.246677189672, -28177.838406305123, -51455.28035822873, -97807.65745731085, -187500.02235174447, -187500.02235174447, -44051.689690552914, -43165.197153710986, -77672.40138916987, -46466.4156992931, -84881.9342114847, -29775.384637759285, 0.0, 0.0, 0.0, 193.0, 0.0, 1.0, 1.0, 0.0, 0.0, 1.0, 1.0, 256.0, 1.0, 1.75052520219888E9, 0.0, 2025-06-21 19:00:02.198
218.0, -43575.061091787946, -41263.95777034257, -28120.394423054986, -68000.22041800266, -28940.703444564755, -28198.647880393015, -51453.916901816956, -97803.99177122019, -187500.02235174447, -187500.02235174447, -44006.62857373102, -43123.511150301834, -77655.4811186172, -46408.36821894267, -84894.65235407976, -29723.193314456144, 0.0, 0.0, 0.0, 193.0, 0.0, 1.0, 1.0, 0.0, 0.0, 1.0, 1.0, 256.0, 1.0, 1.750525202207892E9, 0.0, 2025-06-21 19:00:02.207
220.0, -43616.97061264165, -41302.33571557233, -28152.200955414886, -68046.95791565871, -28960.261220963148, -28186.10855175359, -51503.3589605521, -97846.16951300735, -187500.02235174447, -187500.02235174447, -44046.727603283834, -43168.125232234626, -77673.34016243699, -46470.26019933942, -84891.3889993893, -29779.05032384996, 0.0, 0.0, 0.0, 193.0, 0.0, 1.0, 1.0, 0.0, 0.0, 1.0, 1.0, 256.0, 1.0, 1.750525202213941E9, 0.0, 2025-06-21 19:00:02.213
222.0, -43551.94938802116, -41240.443735175584, -28118.04748988718, -67991.83851383191, -28951.20876445875, -28212.193037532932, -51438.98593652081, -97797.55446881706, -187500.02235174447, -187500.02235174447, -44030.5449402982, -43145.907598246056, -77665.40529315536, -46452.244693308436, -84900.95554601616, -29763.739378898073, 0.0, 0.0, 0.0, 193.0, 0.0, 1.0, 1.0, 0.0, 0.0, 1.0, 1.0, 256.0, 1.0, 1.75052520222294E9, 0.0, 2025-06-21 19:00:02.222
224.0, -43605.63827820281, -41295.78665444692, -28151.57510657014, -68041.50409001161, -28959.613020373945, -28158.72766479584, -51487.3551115221, -97833.11609424546, -187500.02235174447, -187500.02235174447, -44008.930803409916, -43126.86391197013, -77646.4286621128, -46435.2126640335, -84901.02260124954, -29743.08636702137, 0.0, 0.0, 0.0, 193.0, 0.0, 1.0, 1.0, 0.0, 0.0, 1.0, 1.0, 256.0, 1.0, 1.750525202230984E9, 0.0, 2025-06-21 19:00:02.230
226.0, -43563.79581258247, -41252.24545624798, -28125.088289390602, -68007.48473495063, -28931.33806363798, -28181.839368562625, -51461.404736209486, -97803.835309009, -187500.02235174447, -187500.02235174447, -44057.18821968892, -43176.104805005176, -77678.10108400596, -46485.928772202584, -84894.07120872394, -29791.2320245781, 0.0, 0.0, 0.0, 193.0, 0.0, 1.0, 1.0, 0.0, 0.0, 1.0, 1.0, 256.0, 1.0, 1.750525202239011E9, 0.0, 2025-06-21 19:00:02.239
228.0, -43579.50908893455, -41271.333846012814, -28146.881240234525, -68022.16983105778, -28954.11449123794, -28232.35431103162, -51478.41441373997, -97820.46500688375, -187500.02235174447, -187500.02235174447, -44002.31468705114, -43117.364420576625, -77648.90970574734, -46421.66750689358, -84905.44824665168, -29730.74820408204, 0.0, 0.0, 0.0, 193.0, 0.0, 1.0, 1.0, 0.0, 0.0, 1.0, 1.0, 256.0, 1.0, 1.750525202247061E9, 0.0, 2025-06-21 19:00:02.247
230.0, -43600.095045577895, -41279.246363549995, -28148.37880711303, -68034.75386318611, -28962.87637506442, -28158.191222928912, -51497.7039692049, -97835.17245473534, -187500.02235174447, -187500.02235174447, -44053.27666440924, -43162.805517054265, -77673.04958975907, -46483.31361810132, -84904.39771466228, -29786.918137898225, 0.0, 0.0, 0.0, 193.0, 0.0, 1.0, 1.0, 0.0, 0.0, 1.0, 1.0, 256.0, 1.0, 1.75052520225508E9, 0.0, 2025-06-21 19:00:02.255
232.0, -43552.843457799376, -41234.11819149473, -28137.202934885376, -68005.0036913161, -28963.45752042026, -28201.084220538643, -51466.85856185658, -97815.01118123665, -187500.02235174447, -187500.02235174447, -44033.13774265501, -43140.74434527688, -77664.53357512159, -46456.42446952158, -84910.09740949838, -29765.371056243308, 0.0, 0.0, 0.0, 193.0, 0.0, 1.0, 1.0, 0.0, 0.0, 1.0, 1.0, 256.0, 1.0, 1.750525202263143E9, 0.0, 2025-06-21 19:00:02.263
234.0, -43580.06788254594, -41260.51560169645, -28144.646065788995, -68027.02015960457, -28951.789909814586, -28173.815092303168, -51485.231695798844, -97828.55633837657, -187500.02235174447, -187500.02235174447, -44018.11737038104, -43126.662746270034, -77652.70950230474, -46444.15336181562, -84911.43851416571, -29753.56933517091, 0.0, 0.0, 0.0, 193.0, 0.0, 1.0, 1.0, 0.0, 0.0, 1.0, 1.0, 256.0, 1.0, 1.750525202270135E9, 0.0, 2025-06-21 19:00:02.270
236.0, -43550.67533858721, -41234.81109557284, -28123.389556812, -68007.28356925053, -28937.48479336319, -28181.504092395797, -51457.895512330004, -97814.63120158091, -187500.02235174447, -187500.02235174447, -44043.643062549, -43154.31185416125, -77662.05253148706, -46473.38944356316, -84880.07901669492, -29784.593556474872, 0.0, 0.0, 0.0, 193.0, 0.0, 1.0, 1.0, 0.0, 0.0, 1.0, 1.0, 256.0, 1.0, 1.750525202279158E9, 0.0, 2025-06-21 19:00:02.279
238.0, -43526.71426853112, -41224.43988614558, -28112.2360363288, -67990.8997405648, -28937.44008987428, -28194.62456639106, -51438.20362546488, -97801.37661711892, -187500.02235174447, -187500.02235174447, -43988.07662583311, -43106.09914137115, -77635.25278988514, -46409.84343407672, -84889.64556332178, -29726.277855190976, 0.0, 0.0, 0.0, 193.0, 0.0, 1.0, 1.0, 0.0, 0.0, 1.0, 1.0, 256.0, 1.0, 1.750525202287188E9, 0.0, 2025-06-21 19:00:02.287
240.0, -43552.86580954383, -41243.12594451022, -28119.56740851014, -68017.83359263344, -28930.376938626403, -28140.019254686744, -51485.56697196567, -97829.65157385488, -187500.02235174447, -187500.02235174447, -44021.04544890469, -43140.990214465884, -77643.1206039334, -46454.43516426506, -84871.29478112397, -29763.895841109257, 0.0, 0.0, 0.0, 193.0, 0.0, 1.0, 1.0, 0.0, 0.0, 1.0, 1.0, 256.0, 1.0, 1.750525202295229E9, 0.0, 2025-06-21 19:00:02.295
242.0, -43524.032059196485, -41222.65174658916, -28110.358489794555, -67986.25057771809, -28936.63542707389, -28212.662424166494, -51457.42612569644, -97808.2386026667, -187500.02235174447, -187500.02235174447, -43995.31859103663, -43118.57141477721, -77633.48700207318, -46429.98235583095, -84878.91672598323, -29744.472175177598, 0.0, 0.0, 0.0, 193.0, 0.0, 1.0, 1.0, 0.0, 0.0, 1.0, 1.0, 256.0, 1.0, 1.750525202302244E9, 0.0, 2025-06-21 19:00:02.302
244.0, -43545.5791408514, -41235.01226127294, -28124.75301322377, -68012.42447047526, -28938.669435819324, -28157.163042683966, -51477.94502710641, -97820.4426551393, -187500.02235174447, -187500.02235174447, -43998.42548351592, -43117.81145546573, -77637.1750399083, -46427.56836742978, -84893.22184243464, -29738.593666385852, 0.0, 0.0, 0.0, 193.0, 0.0, 1.0, 1.0, 0.0, 0.0, 1.0, 1.0, 256.0, 1.0, 1.750525202311265E9, 0.0, 2025-06-21 19:00:02.311
246.0, -43555.61507411183, -41239.23674097499, -28134.453670317373, -68015.77723214355, -28948.25833419065, -28197.887921081536, -51489.27736154525, -97828.22106220973, -187500.02235174447, -187500.02235174447, -44031.97545194333, -43149.685043059, -77654.25177267216, -46470.8189929508, -84885.17521443072, -29779.65382095025, 0.0, 0.0, 0.0, 193.0, 0.0, 1.0, 1.0, 0.0, 0.0, 1.0, 1.0, 256.0, 1.0, 1.750525202319231E9, 0.0, 2025-06-21 19:00:02.319
248.0, -43539.14183844827, -41225.602176857254, -28115.90172241947, -67993.47019117716, -28939.809374786542, -28203.207636261897, -51456.57675940714, -97805.86931775443, -187500.02235174447, -187500.02235174447, -43994.64803870297, -43108.66959198351, -77640.63956029888, -46419.253518492405, -84906.11879898535, -29733.98920702806, 0.0, 0.0, 0.0, 193.0, 0.0, 1.0, 1.0, 0.0, 0.0, 1.0, 1.0, 256.0, 1.0, 1.750525202326305E9, 0.0, 2025-06-21 19:00:02.326
250.0, -43565.00280678306, -41241.82954333181, -28126.67526324693, -68017.9006478668, -28947.34191266798, -28133.917228450446, -51476.02277708326, -97822.45431214027, -187500.02235174447, -187500.02235174447, -44015.92689942443, -43132.94358646197, -77639.81254575403, -46453.69755669803, -84876.21216490414, -29761.79477713046, 0.0, 0.0, 0.0, 193.0, 0.0, 1.0, 1.0, 0.0, 0.0, 1.0, 1.0, 256.0, 1.0, 1.750525202334316E9, 0.0, 2025-06-21 19:00:02.334
252.0, -43520.76870450601, -41211.76644703942, -28094.779323909203, -67971.29726067749, -28922.754993767143, -28183.694563352416, -51440.192930721394, -97788.0326256791, -187500.02235174447, -187500.02235174447, -44004.0357713742, -43123.46644681293, -77641.44422309926, -46430.652908164615, -84880.52605158402, -29743.60045714384, 0.0, 0.0, 0.0, 193.0, 0.0, 1.0, 1.0, 0.0, 0.0, 1.0, 1.0, 256.0, 1.0, 1.750525202343348E9, 0.0, 2025-06-21 19:00:02.343
254.0, -43565.47219341662, -41256.15701152766, -28121.51201027775, -68012.71504315318, -28940.614037586933, -28169.99294400131, -51458.99074780831, -97822.588422607, -187500.02235174447, -187500.02235174447, -43984.254477531256, -43109.20603385044, -77625.08274615798, -46418.42650394756, -84884.43760686369, -29728.08834649186, 0.0, 0.0, 0.0, 193.0, 0.0, 1.0, 1.0, 0.0, 0.0, 1.0, 1.0, 256.0, 1.0, 1.750525202350409E9, 0.0, 2025-06-21 19:00:02.350
0.0, -43558.31963519092, -41244.60115964427, -28115.74526020828, -68006.52360993906, -28935.473136362212, -28183.895729052514, -51470.56895143616, -97825.60590810847, -187500.02235174447, -187500.02235174447, -44023.61589951705, -43146.01935696833, -77646.09338594596, -46467.93561791607, -84873.90993522525, -29778.64799244976, 0.0, 0.0, 0.0, 193.0, 0.0, 1.0, 1.0, 0.0, 0.0, 1.0, 1.0, 256.0, 1.0, 1.750525202358407E9, 0.0, 2025-06-21 19:00:02.358
2.0, -43541.46641987162, -41233.33588043879, -28099.920225133923, -67982.96487128317, -28921.458592588737, -28194.62456639106, -51447.65841336947, -97803.25416365317, -187500.02235174447, -187500.02235174447, -43976.051387316154, -43097.56077498922, -77623.13814439037, -46406.267154963876, -84886.22574642012, -29723.014500500503, 0.0, 0.0, 0.0, 193.0, 0.0, 1.0, 1.0, 0.0, 0.0, 1.0, 1.0, 256.0, 1.0, 1.750525202366502E9, 0.0, 2025-06-21 19:00:02.366
4.0, -43579.79966161247, -41265.63415117671, -28121.154382366465, -68014.23496177614, -28937.86477301893, -28152.75974902627, -51482.214210297374, -97825.40474240837, -187500.02235174447, -187500.02235174447, -44010.36131505505, -43128.22736838191, -77633.64346428437, -46448.80252466232, -84866.66797002172, -29757.771463128505, 0.0, 0.0, 0.0, 193.0, 0.0, 1.0, 1.0, 0.0, 0.0, 1.0, 1.0, 256.0, 1.0, 1.750525202375501E9, 0.0, 2025-06-21 19:00:02.375
6.0, -43549.51304787553, -41241.44956367607, -28107.408059526453, -67987.23405447413, -28938.5800288415, -28200.570130416174, -51447.18902673591, -97798.38148336191, -187500.02235174447, -187500.02235174447, -44004.63926847449, -43125.34399334717, -77642.51710683313, -46430.38468723115, -84883.92351674123, -29743.08636702137, 0.0, 0.0, 0.0, 193.0, 0.0, 1.0, 1.0, 0.0, 0.0, 1.0, 1.0, 256.0, 1.0, 1.750525202382497E9, 0.0, 2025-06-21 19:00:02.382
8.0, -43581.990132569095, -41268.78574714491, -28125.535324279706, -68015.46430772118, -28941.01636898713, -28164.38265614303, -51477.94502710641, -97815.14529170339, -187500.02235174447, -187500.02235174447, -44002.38174228451, -43124.695792757964, -77645.04285395656, -46423.27683249436, -84887.92447899873, -29735.375015184287, 0.0, 0.0, 0.0, 193.0, 0.0, 1.0, 1.0, 0.0, 0.0, 1.0, 1.0, 256.0, 1.0, 1.750525202390493E9, 0.0, 2025-06-21 19:00:02.390
10.0, -43582.52657443602, -41265.88002036572, -28128.95514118137, -68009.74226114062, -28942.87156377692, -28159.33116189613, -51475.598093938606, -97818.00631499366, -187500.02235174447, -187500.02235174447, -44036.71402176786, -43153.574246594224, -77658.67741807431, -46468.62852199418, -84881.35306612887, -29776.50222498205, 0.0, 0.0, 0.0, 193.0, 0.0, 1.0, 1.0, 0.0, 0.0, 1.0, 1.0, 256.0, 1.0, 1.750525202399482E9, 0.0, 2025-06-21 19:00:02.399
12.0, -43560.10777474735, -41245.62933988921, -28110.17967583891, -67989.29041496401, -28933.841459016974, -28175.737342326327, -51456.53205591823, -97805.17641367632, -187500.02235174447, -187500.02235174447, -43994.9833148698, -43110.05540013974, -77636.95152246374, -46413.12914051165, -84895.34525815789, -29725.137916223757, 0.0, 0.0, 0.0, 193.0, 0.0, 1.0, 1.0, 0.0, 0.0, 1.0, 1.0, 256.0, 1.0, 1.750525202406512E9, 0.0, 2025-06-21 19:00:02.406
