%OpenBCI Raw EXG Data
%Number of channels = 16
%Sample Rate = 125 Hz
%Board = OpenBCI_GUI$BoardCytonSerialDaisy
Sample Index, EXG Channel 0, EXG Channel 1, EXG Channel 2, EXG Channel 3, EXG Channel 4, EXG Channel 5, EXG Channel 6, EXG Channel 7, EXG Channel 8, EXG Channel 9, EXG Channel 10, EXG Channel 11, EXG Channel 12, EXG Channel 13, EXG Channel 14, EXG Channel 15, Accel Channel 0, Accel Channel 1, Accel Channel 2, Not Used, Digital Channel 0 (D11), Digital Channel 1 (D12), Digital Channel 2 (D13), Digital Channel 3 (D17), Not Used, Digital Channel 4 (D18), Analog Channel 0, Analog Channel 1, Analog Channel 2, Timestamp, Marker Channel, Timestamp (Formatted)
186.0, -43796.611582828955, -37337.98561549016, -29763.85113762035, -73233.41199557924, -27450.043255095872, -27439.29206601287, -52453.77748653621, -100773.7339465301, -187500.02235174447, -187500.02235174447, -48297.82823298314, -46771.00292098557, -77902.95963322636, -48848.463457639635, -88542.65821488599, -31495.016097428335, 0.0, 0.0, 0.0, 193.0, 0.0, 1.0, 1.0, 0.0, 0.0, 1.0, 1.0, 256.0, 1.0, 1.750529175274749E9, 0.0, 2025-06-21 20:06:15.274
0.0, -22248.144119756715, -19050.52590972494, -15177.661499698343, -36948.26059916742, -14028.804186440015, -14462.38332538406, -26592.049192434453, -50774.51327735344, -93750.01117587223, -93750.01117587223, -24128.551677292788, -23348.922830691678, -38939.175181290535, -24394.425677588664, -44281.8008997203, -15715.265657337388, 0.0, 0.0, 0.0, 193.0, 0.0, 1.0, 1.0, 0.0, 0.0, 1.0, 1.0, 256.0, 1.0, 1.7505291753562E9, 0.0, 2025-06-21 20:06:15.356
2.0, -44553.62046404129, -38155.52302068747, -30396.852540594646, -73951.64060016163, -28098.824989655615, -28990.7937038891, -53232.44520812574, -101589.23734298199, -187500.02235174447, -187500.02235174447, -49029.4231807498, -47477.340397517735, -78466.8717940893, -49495.21118345395, -89266.20653464872, -32208.215559508273, 0.0, 0.0, 0.0, 193.0, 0.0, 1.0, 1.0, 0.0, 0.0, 1.0, 1.0, 256.0, 1.0, 1.75052917536319E9, 0.0, 2025-06-21 20:06:15.363
4.0, -44549.463039572605, -38139.16154374618, -30381.385133431573, -73941.38114945665, -28117.220475342332, -28929.572275826013, -53242.01175475261, -101587.40449993665, -187500.02235174447, -187500.02235174447, -49070.19276263628, -47522.17799689508, -78495.95141362565, -49545.323794522745, -89265.55833405952, -32260.5633450226, 0.0, 0.0, 0.0, 193.0, 0.0, 1.0, 1.0, 0.0, 0.0, 1.0, 1.0, 256.0, 1.0, 1.750529175369209E9, 0.0, 2025-06-21 20:06:15.369
6.0, -44521.41160028119, -38122.88947378272, -30369.7175228259, -73918.58237011223, -28052.355712933033, -28946.649008589866, -53200.05753041, -101564.18103744759, -187500.02235174447, -187500.02235174447, -49035.77107617511, -47490.17029883508, -78477.53357619447, -49499.79329106728, -89276.60009582044, -32212.84237061052, 0.0, 0.0, 0.0, 193.0, 0.0, 1.0, 1.0, 0.0, 0.0, 1.0, 1.0, 256.0, 1.0, 1.750529175378239E9, 0.0, 2025-06-21 20:06:15.378
8.0, -44557.353205365325, -38143.58718914833, -30395.77965686079, -73953.96518158498, -28114.69472821888, -28947.654837090355, -53243.039934997556, -101589.19263949308, -187500.02235174447, -187500.02235174447, -49042.23073032269, -47492.20430758051, -78473.64437265926, -49516.37828545312, -89254.29305485405, -32228.063908584587, 0.0, 0.0, 0.0, 193.0, 0.0, 1.0, 1.0, 0.0, 0.0, 1.0, 1.0, 256.0, 1.0, 1.75052917538627E9, 0.0, 2025-06-21 20:06:15.386
10.0, -44523.46796077108, -38104.96337472956, -30375.886604295567, -73908.23351242942, -28097.439181499387, -28979.126093283427, -53191.0050739056, -101549.49594134044, -187500.02235174447, -187500.02235174447, -49068.15875389084, -47509.16928162209, -78499.19241657168, -49538.6406229306, -89290.43582563828, -32249.208658839307, 0.0, 0.0, 0.0, 193.0, 0.0, 1.0, 1.0, 0.0, 0.0, 1.0, 1.0, 256.0, 1.0, 1.750529175393291E9, 0.0, 2025-06-21 20:06:15.393
12.0, -44520.09284735833, -38119.000270247496, -30363.19081344495, -73914.29083517681, -28064.872689828004, -28930.443993859768, -53210.49579507063, -101574.06050849683, -187500.02235174447, -187500.02235174447, -49005.03742754906, -47445.53386515783, -78440.80966005441, -49480.81666002473, -89257.08702291096, -32189.976536032744, 0.0, 0.0, 0.0, 193.0, 0.0, 1.0, 1.0, 0.0, 0.0, 1.0, 1.0, 256.0, 1.0, 1.750529175401274E9, 0.0, 2025-06-21 20:06:15.401
14.0, -44541.57287377988, -38126.55515987339, -30391.085790525176, -73934.02742553085, -28087.760876150238, -28924.833706001486, -53215.8602137399, -101586.08574701379, -187500.02235174447, -187500.02235174447, -49060.31329158703, -47497.23345008295, -78480.86398611832, -49536.60661418517, -89261.04328167955, -32250.393301295437, 0.0, 0.0, 0.0, 193.0, 0.0, 1.0, 1.0, 0.0, 0.0, 1.0, 1.0, 256.0, 1.0, 1.750529175410354E9, 0.0, 2025-06-21 20:06:15.410
16.0, -44524.76436194949, -38129.57264537486, -30380.24519446435, -73922.40451841409, -28056.714303101817, -29005.478799996235, -53213.24505963863, -101568.91960727211, -187500.02235174447, -187500.02235174447, -49035.23463430818, -47478.32387427377, -78472.1691575252, -49502.92253529102, -89279.10349119944, -32215.725745645257, 0.0, 0.0, 0.0, 193.0, 0.0, 1.0, 1.0, 0.0, 0.0, 1.0, 1.0, 256.0, 1.0, 1.750529175417357E9, 0.0, 2025-06-21 20:06:15.417
18.0, -44550.82649598438, -38139.87679956875, -30389.990555046865, -73947.79610011532, -28127.390519069497, -28953.198069715272, -53225.426760366776, -101584.63288362419, -187500.02235174447, -187500.02235174447, -49055.50766652914, -47500.474453028975, -78481.1769105407, -49530.638698415605, -89268.10643292742, -32243.28544655865, 0.0, 0.0, 0.0, 193.0, 0.0, 1.0, 1.0, 0.0, 0.0, 1.0, 1.0, 256.0, 1.0, 1.75052917542542E9, 0.0, 2025-06-21 20:06:15.425
20.0, -44513.72260018857, -38116.318060912854, -30371.8185868047, -73911.60862584217, -28064.55976540563, -28995.01818359115, -53185.707710469695, -101538.87886272417, -187500.02235174447, -187500.02235174447, -49045.56114024653, -47494.7077029595, -78477.15359653874, -49519.8875093326, -89268.97815096118, -32231.886056886444, 0.0, 0.0, 0.0, 193.0, 0.0, 1.0, 1.0, 0.0, 0.0, 1.0, 1.0, 256.0, 1.0, 1.750529175433394E9, 0.0, 2025-06-21 20:06:15.433
22.0, -44541.14819063523, -38125.48227613953, -30375.260755450818, -73926.6513498606, -28100.65783270095, -28961.132938996907, -53210.56285030399, -101558.66015656712, -187500.02235174447, -187500.02235174447, -49017.55440444403, -47458.944911831015, -78451.24792471503, -49484.705863559946, -89260.10450841243, -32193.776332590143, 0.0, 0.0, 0.0, 193.0, 0.0, 1.0, 1.0, 0.0, 0.0, 1.0, 1.0, 256.0, 1.0, 1.750529175441444E9, 0.0, 2025-06-21 20:06:15.441
24.0, -44532.56512076439, -38123.91765402766, -30370.745703070847, -73922.78449806983, -28084.65398367095, -28944.413834144336, -53202.73973974463, -101556.2685199104, -187500.02235174447, -187500.02235174447, -49059.7768497201, -47505.12361587568, -78483.03210533048, -49530.012849570856, -89255.09771765444, -32243.553667492113, 0.0, 0.0, 0.0, 193.0, 0.0, 1.0, 1.0, 0.0, 0.0, 1.0, 1.0, 256.0, 1.0, 1.750529175449487E9, 0.0, 2025-06-21 20:06:15.449
26.0, -44530.642870741234, -38117.25683417998, -30374.701961839433, -73913.7990967988, -28111.05139387267, -29015.559436745578, -53202.22564962217, -101552.13344718618, -187500.02235174447, -187500.02235174447, -49020.12485505639, -47467.86325786868, -78461.93205856468, -49483.18594493699, -89264.91013347032, -32194.80451283509, 0.0, 0.0, 0.0, 193.0, 0.0, 1.0, 1.0, 0.0, 0.0, 1.0, 1.0, 256.0, 1.0, 1.750529175457488E9, 0.0, 2025-06-21 20:06:15.457
28.0, -44546.89258896025, -38145.151811260206, -30388.91767131301, -73937.49194592141, -28082.46351271433, -28949.01829350213, -53232.84753952594, -101570.79715380636, -187500.02235174447, -187500.02235174447, -49042.83422742298, -47488.29275230083, -78471.09627379135, -49506.878794059616, -89249.50978154062, -32217.13390554594, 0.0, 0.0, 0.0, 193.0, 0.0, 1.0, 1.0, 0.0, 0.0, 1.0, 1.0, 256.0, 1.0, 1.75052917546656E9, 0.0, 2025-06-21 20:06:15.466
30.0, -44565.891571747256, -38159.41222422269, -30421.55121821776, -73950.74653038342, -28122.026100400224, -29037.5535532896, -53274.31002549053, -101612.30434325986, -187500.02235174447, -187500.02235174447, -49080.139288918894, -47523.83202598477, -78510.86002717735, -49547.08958233471, -89303.9809827782, -32256.47297578728, 0.0, 0.0, 0.0, 193.0, 0.0, 1.0, 1.0, 0.0, 0.0, 1.0, 1.0, 256.0, 1.0, 1.750529175473545E9, 0.0, 2025-06-21 20:06:15.473
32.0, -44521.344545047825, -38126.97984301804, -30373.338505427662, -73920.77284106884, -28080.78713188018, -28989.96668934425, -53251.4665426572, -101588.43268018159, -187500.02235174447, -187500.02235174447, -49050.567931004516, -47497.59107799424, -78485.73666640958, -49519.32871572122, -89295.64378209636, -32227.08043182855, 0.0, 0.0, 0.0, 193.0, 0.0, 1.0, 1.0, 0.0, 0.0, 1.0, 1.0, 256.0, 1.0, 1.750529175481614E9, 0.0, 2025-06-21 20:06:15.481
34.0, -44541.57287377988, -38129.617348863765, -30388.06830502371, -73932.52985865234, -28110.47024851683, -29018.018128635664, -53245.78919956556, -101607.29755250187, -187500.02235174447, -187500.02235174447, -49045.047050124056, -47486.705778444506, -78465.44128244415, -49523.84376810119, -89247.90045593983, -32236.557571477602, 0.0, 0.0, 0.0, 193.0, 0.0, 1.0, 1.0, 0.0, 0.0, 1.0, 1.0, 256.0, 1.0, 1.750529175489659E9, 0.0, 2025-06-21 20:06:15.489
36.0, -44522.66329797069, -38113.01000273347, -30369.471653636894, -73910.60279734168, -28127.256408602767, -29039.565210290577, -53207.43360608025, -101564.60572059224, -187500.02235174447, -187500.02235174447, -49043.75064894565, -47481.69898768652, -78475.3207534934, -49512.44437842898, -89293.8779942844, -32221.067812570076, 0.0, 0.0, 0.0, 193.0, 0.0, 1.0, 1.0, 0.0, 0.0, 1.0, 1.0, 256.0, 1.0, 1.750529175497668E9, 0.0, 2025-06-21 20:06:15.497
38.0, -44514.84018741133, -38112.40650563318, -30360.48625236586, -73910.46868687496, -28048.26534369771, -28932.276836905105, -53213.42387359427, -101561.78940079086, -187500.02235174447, -187500.02235174447, -49027.769151660104, -47466.87978111265, -78451.76201483751, -49501.626134112616, -89236.6128249899, -32212.216521765775, 0.0, 0.0, 0.0, 193.0, 0.0, 1.0, 1.0, 0.0, 0.0, 1.0, 1.0, 256.0, 1.0, 1.750529175505676E9, 0.0, 2025-06-21 20:06:15.505
40.0, -44557.59907455434, -38138.73686060153, -30413.661052425035, -73940.5541349118, -28142.992036699303, -29040.95101844681, -53260.13901950586, -101602.3801687217, -187500.02235174447, -187500.02235174447, -49056.781715963094, -47492.696045958524, -78483.16621579722, -49522.21209075595, -89277.74003478767, -32231.528428975158, 0.0, 0.0, 0.0, 193.0, 0.0, 1.0, 1.0, 0.0, 0.0, 1.0, 1.0, 256.0, 1.0, 1.750529175513697E9, 0.0, 2025-06-21 20:06:15.513
42.0, -44534.42031555418, -38126.73397382903, -30382.34625844315, -73920.59402711321, -28088.0290970837, -29012.676061710845, -53195.698940241215, -101559.10719145623, -187500.02235174447, -187500.02235174447, -49052.445477538764, -47485.87876389966, -78482.36155299682, -49505.15770973655, -89280.22107842221, -32213.870550855467, 0.0, 0.0, 0.0, 193.0, 0.0, 1.0, 1.0, 0.0, 0.0, 1.0, 1.0, 256.0, 1.0, 1.750529175522732E9, 0.0, 2025-06-21 20:06:15.522
44.0, -44555.900341975736, -38140.68146236914, -30397.836017350677, -73939.5036029224, -28139.035777930712, -29035.474841055257, -53218.78829226355, -101587.89623831466, -187500.02235174447, -187500.02235174447, -49077.32296911752, -47510.64449675614, -78495.07969559189, -49534.23732927291, -89259.5680665455, -32246.325283804574, 0.0, 0.0, 0.0, 193.0, 0.0, 1.0, 1.0, 0.0, 0.0, 1.0, 1.0, 256.0, 1.0, 1.750529175528754E9, 0.0, 2025-06-21 20:06:15.528
46.0, -44491.23674526653, -38091.32881061183, -30352.596086573136, -73886.75348600787, -28057.96600079131, -29019.426288536346, -53149.47553270764, -101529.24526086394, -187500.02235174447, -187500.02235174447, -49034.966413374714, -47475.68636842804, -78469.44224470165, -49493.82537529771, -89280.37754063339, -32202.739382116724, 0.0, 0.0, 0.0, 193.0, 0.0, 1.0, 1.0, 0.0, 0.0, 1.0, 1.0, 256.0, 1.0, 1.750529175537758E9, 0.0, 2025-06-21 20:06:15.537
48.0, -44563.58934206836, -38153.7572328755, -30398.081886539687, -73956.71444615298, -28136.71119650736, -29003.623605206445, -53237.921385517286, -101599.89912508716, -187500.02235174447, -187500.02235174447, -49030.451360994746, -47474.054691082805, -78457.23819222907, -49498.16161372204, -89233.84120867745, -32209.13198103094, 0.0, 0.0, 0.0, 193.0, 0.0, 1.0, 1.0, 0.0, 0.0, 1.0, 1.0, 256.0, 1.0, 1.75052917554573E9, 0.0, 2025-06-21 20:06:15.545
50.0, -44526.79837069492, -38124.096467983305, -30381.183967731475, -73913.64263458761, -28088.722001161816, -29061.51462334569, -53199.94577168772, -101548.08778143977, -187500.02235174447, -187500.02235174447, -49073.25495162666, -47511.04682815634, -78501.04761136146, -49533.20914902796, -89281.29396215607, -32242.972522136275, 0.0, 0.0, 0.0, 193.0, 0.0, 1.0, 1.0, 0.0, 0.0, 1.0, 1.0, 256.0, 1.0, 1.750529175553803E9, 0.0, 2025-06-21 20:06:15.553
52.0, -44535.828475454866, -38136.16640998917, -30381.183967731475, -73927.76893708335, -28104.681146702904, -29009.16683783136, -53212.686266027245, -101559.33070890079, -187500.02235174447, -187500.02235174447, -49028.52911097158, -47465.98571133443, -78461.57443065339, -49480.70490130245, -89257.04231942205, -32187.093160998007, 0.0, 0.0, 0.0, 193.0, 0.0, 1.0, 1.0, 0.0, 0.0, 1.0, 1.0, 256.0, 1.0, 1.750529175560805E9, 0.0, 2025-06-21 20:06:15.560
54.0, -44532.609824253304, -38126.10812498428, -30382.72623809889, -73928.1489167391, -28099.115562333533, -29055.770225020675, -53222.05164695402, -101564.8739415257, -187500.02235174447, -187500.02235174447, -49076.98769295069, -47518.98169743797, -78501.31583229493, -49536.98659384091, -89261.51266831311, -32248.962789650297, 0.0, 0.0, 0.0, 193.0, 0.0, 1.0, 1.0, 0.0, 0.0, 1.0, 1.0, 256.0, 1.0, 1.750529175569828E9, 0.0, 2025-06-21 20:06:15.569
56.0, -44525.74783870552, -38120.2966714259, -30383.709714854926, -73916.66012008907, -28115.70055671937, -29080.267736943693, -53190.71450122768, -101555.93324374358, -187500.02235174447, -187500.02235174447, -49029.870215638904, -47463.147039788615, -78467.7658638675, -49482.113061203134, -89270.0733864395, -32190.624736621947, 0.0, 0.0, 0.0, 193.0, 0.0, 1.0, 1.0, 0.0, 0.0, 1.0, 1.0, 256.0, 1.0, 1.750529175577874E9, 0.0, 2025-06-21 20:06:15.577
58.0, -44561.48827808956, -38153.22079100857, -30396.83018885019, -73947.12554778166, -28107.13983859299, -29007.244587808204, -53228.712466801706, -101583.8282208238, -187500.02235174447, -187500.02235174447, -49059.70979448674, -47498.95453440602, -78488.44122748867, -49510.81270108375, -89251.40967981932, -32224.867609127476, 0.0, 0.0, 0.0, 193.0, 0.0, 1.0, 1.0, 0.0, 0.0, 1.0, 1.0, 256.0, 1.0, 1.750529175584901E9, 0.0, 2025-06-21 20:06:15.584
60.0, -44514.437856011136, -38105.76803752995, -30375.193700217453, -73906.26655891736, -28083.31287900363, -29060.41938786738, -53194.67075999627, -101547.03724945037, -187500.02235174447, -187500.02235174447, -49070.17041089182, -47504.318953075286, -78498.36540202683, -49516.95943080896, -89273.82847950798, -32226.365176005984, 0.0, 0.0, 0.0, 193.0, 0.0, 1.0, 1.0, 0.0, 0.0, 1.0, 1.0, 256.0, 1.0, 1.750529175593924E9, 0.0, 2025-06-21 20:06:15.593
62.0, -44541.05878365741, -38134.93706404413, -30383.754418343833, -73935.1003092647, -28127.144649880487, -29064.17448093587, -53220.643487053334, -101562.01291823541, -187500.02235174447, -187500.02235174447, -49035.70402094174, -47474.054691082805, -78471.65506740274, -49489.109157217645, -89264.10547066992, -32195.22919597974, 0.0, 0.0, 0.0, 193.0, 0.0, 1.0, 1.0, 0.0, 0.0, 1.0, 1.0, 256.0, 1.0, 1.750529175601987E9, 0.0, 2025-06-21 20:06:15.601
64.0, -44551.38528959576, -38142.71547111458, -30409.749497145356, -73951.64060016163, -28104.524684491716, -29037.240628867225, -53225.85144351143, -101588.16445924813, -187500.02235174447, -187500.02235174447, -49068.89636145787, -47509.99629616694, -78496.89018689278, -49537.210111285465, -89259.14338340085, -32248.359292550005, 0.0, 0.0, 0.0, 193.0, 0.0, 1.0, 1.0, 0.0, 0.0, 1.0, 1.0, 256.0, 1.0, 1.750529175608973E9, 0.0, 2025-06-21 20:06:15.608
66.0, -44541.10348714632, -38130.511418641974, -30389.610575391125, -73929.53472489533, -28125.200048112878, -29100.27254823119, -53186.400614547805, -101562.3705461467, -187500.02235174447, -187500.02235174447, -49059.7768497201, -47502.01672339639, -78500.24294856108, -49515.19364299699, -89300.1811862208, -32223.459449226793, 0.0, 0.0, 0.0, 193.0, 0.0, 1.0, 1.0, 0.0, 0.0, 1.0, 1.0, 256.0, 1.0, 1.750529175616988E9, 0.0, 2025-06-21 20:06:15.616
68.0, -44558.336682121364, -38153.1537357752, -30400.317060985217, -73951.28297225034, -28098.400306510965, -29055.792576765132, -53217.17896666277, -101593.4841744285, -187500.02235174447, -187500.02235174447, -49061.94496893227, -47505.32478157578, -78491.57047171242, -49523.776712867824, -89264.08311892547, -32235.060004599098, 0.0, 0.0, 0.0, 193.0, 0.0, 1.0, 1.0, 0.0, 0.0, 1.0, 1.0, 256.0, 1.0, 1.750529175626023E9, 0.0, 2025-06-21 20:06:15.626
70.0, -44520.785751436444, -38108.02556371994, -30372.690304838456, -73907.92058800705, -28096.969794865825, -29068.46601587129, -53188.926361671256, -101546.97019421699, -187500.02235174447, -187500.02235174447, -49072.27147487062, -47509.32574383327, -78502.99221312908, -49528.71644839245, -89284.04322672407, -32239.709167445802, 0.0, 0.0, 0.0, 193.0, 0.0, 1.0, 1.0, 0.0, 0.0, 1.0, 1.0, 256.0, 1.0, 1.750529175634036E9, 0.0, 2025-06-21 20:06:15.634
72.0, -44526.32898406136, -38102.705848539576, -30373.338505427662, -73922.62803585864, -28132.33025459412, -29063.682742557856, -53214.519109072586, -101566.79619154886, -187500.02235174447, -187500.02235174447, -49017.82262537749, -47458.09554554171, -78457.84168932935, -49479.47555535741, -89252.4602118087, -32189.529501143636, 0.0, 0.0, 0.0, 193.0, 0.0, 1.0, 1.0, 0.0, 0.0, 1.0, 1.0, 256.0, 1.0, 1.750529175643187E9, 0.0, 2025-06-21 20:06:15.643
74.0, -44551.11706866229, -38156.193573021126, -30397.16546501702, -73942.58814365722, -28097.170960565923, -29112.074269303594, -53191.921495428265, -101573.12173522971, -187500.02235174447, -187500.02235174447, -49060.89443694287, -47503.55899376381, -78490.92227112321, -49525.7883698688, -89248.28043559557, -32237.33988253354, 0.0, 0.0, 0.0, 193.0, 0.0, 1.0, 1.0, 0.0, 0.0, 1.0, 1.0, 256.0, 1.0, 1.750529175650091E9, 0.0, 2025-06-21 20:06:15.650
76.0, -44503.82077739487, -38105.075133451835, -30359.368665143094, -73905.5960065837, -28093.617033197526, -29076.534995619655, -53200.86219321039, -101551.10526694123, -187500.02235174447, -187500.02235174447, -49031.211320306225, -47487.80101392281, -78478.58410818387, -49493.49009913088, -89277.36005513193, -32201.822960594054, 0.0, 0.0, 0.0, 193.0, 0.0, 1.0, 1.0, 0.0, 0.0, 1.0, 1.0, 256.0, 1.0, 1.750529175658113E9, 0.0, 2025-06-21 20:06:15.658
78.0, -44513.67789669966, -38119.000270247496, -30353.043121462244, -73922.35981492518, -28068.359561963032, -29064.286239658148, -53220.55408007552, -101566.10328747075, -187500.02235174447, -187500.02235174447, -49021.44360797926, -47483.01774060938, -78459.33925620787, -49497.37930266611, -89226.57689172946, -32209.511960686683, 0.0, 0.0, 0.0, 193.0, 0.0, 1.0, 1.0, 0.0, 0.0, 1.0, 1.0, 256.0, 1.0, 1.750529175665183E9, 0.0, 2025-06-21 20:06:15.665
80.0, -44483.48068994054, -38090.7923687449, -30347.633999304056, -73891.91673897704, -28098.981451866803, -29134.761289925733, -53181.19265808972, -101539.95174645803, -187500.02235174447, -187500.02235174447, -49019.946041100746, -47480.24612429692, -78461.32856146438, -49499.92740153401, -89245.53117102757, -32213.51292294418, 0.0, 0.0, 0.0, 193.0, 0.0, 1.0, 1.0, 0.0, 0.0, 1.0, 1.0, 256.0, 1.0, 1.750529175673171E9, 0.0, 2025-06-21 20:06:15.673
82.0, -44489.403902221195, -38100.895357238696, -30342.87307773508, -73901.21506467045, -28073.99220156577, -29089.789580081655, -53203.54440254503, -101552.55813033083, -187500.02235174447, -187500.02235174447, -48978.81883130298, -47439.498894154895, -78424.02349996848, -49460.096592914655, -89232.92478715477, -32170.865794523455, 0.0, 0.0, 0.0, 193.0, 0.0, 1.0, 1.0, 0.0, 0.0, 1.0, 1.0, 256.0, 1.0, 1.750529175681192E9, 0.0, 2025-06-21 20:06:15.681
84.0, -44484.39711146321, -38098.503720581975, -30340.39203410054, -73893.8389890002, -28045.247858196242, -29144.14902259696, -53209.15469040331, -101556.04500246585, -187500.02235174447, -187500.02235174447, -49015.78861663206, -47479.73203417445, -78452.56667763791, -49503.0342940133, -89226.21926381819, -32217.290367757127, 0.0, 0.0, 0.0, 193.0, 0.0, 1.0, 1.0, 0.0, 0.0, 1.0, 1.0, 256.0, 1.0, 1.750529175690216E9, 0.0, 2025-06-21 20:06:15.690
86.0, -44481.33492247283, -38086.1879093871, -30349.265676649295, -73898.6446140581, -28099.115562333533, -29148.462909276834, -53202.203297877706, -101556.84966526624, -187500.02235174447, -187500.02235174447, -48999.87417457988, -47468.645568924614, -78453.63956137176, -49476.83804951168, -89258.98692118966, -32187.42843716484, 0.0, 0.0, 0.0, 193.0, 0.0, 1.0, 1.0, 0.0, 0.0, 1.0, 1.0, 256.0, 1.0, 1.750529175697251E9, 0.0, 2025-06-21 20:06:15.697
88.0, -44482.38545446223, -38093.541633312896, -30343.655388791012, -73909.8428380302, -28058.949477547347, -29088.202606225328, -53203.030312422554, -101557.16258968861, -187500.02235174447, -187500.02235174447, -48995.24736347763, -47464.890475856126, -78435.15466870721, -49488.349197906166, -89225.03462136205, -32199.31956521506, 0.0, 0.0, 0.0, 193.0, 0.0, 1.0, 1.0, 0.0, 0.0, 1.0, 1.0, 256.0, 1.0, 1.750529175705273E9, 0.0, 2025-06-21 20:06:15.705
90.0, -44458.42438440614, -38071.27929583541, -30343.700092279923, -73898.55520708028, -28066.54907066215, -29169.607659531554, -53198.8058327205, -101557.2743484109, -187500.02235174447, -187500.02235174447, -49010.088921795956, -47476.848659139716, -78449.34802643633, -49505.44828241447, -89253.04135716455, -32216.843332868022, 0.0, 0.0, 0.0, 193.0, 0.0, 1.0, 1.0, 0.0, 0.0, 1.0, 1.0, 256.0, 1.0, 1.750529175713296E9, 0.0, 2025-06-21 20:06:15.713
92.0, -44444.40984063266, -38063.0315021314, -30320.163705368486, -73888.31810811974, -28058.07775951359, -29125.217095043314, -53192.86026869539, -101542.41043834812, -187500.02235174447, -187500.02235174447, -48964.73723229614, -47438.873045310145, -78414.16638066368, -49468.38909010757, -89231.09194410944, -32180.7452655727, 0.0, 0.0, 0.0, 193.0, 0.0, 1.0, 1.0, 0.0, 0.0, 1.0, 1.0, 256.0, 1.0, 1.750529175721314E9, 0.0, 2025-06-21 20:06:15.721
94.0, -44460.72661408503, -38079.32592383932, -30341.487269578847, -73901.10330594819, -28064.80563459464, -29108.96737682431, -53204.52787930106, -101557.65432806664, -187500.02235174447, -187500.02235174447, -49002.891660081346, -47475.73107191695, -78437.70276757512, -49506.67762835952, -89232.12012435438, -32216.932739845844, 0.0, 0.0, 0.0, 193.0, 0.0, 1.0, 1.0, 0.0, 0.0, 1.0, 1.0, 256.0, 1.0, 1.750529175729364E9, 0.0, 2025-06-21 20:06:15.729
96.0, -44439.40304987467, -38056.01305437244, -30323.807039714702, -73879.71268650446, -28068.31485847412, -29170.14410139848, -53198.11292864239, -101551.50759834143, -187500.02235174447, -187500.02235174447, -48960.669214805275, -47436.90609179808, -78413.58523530785, -49453.63693876707, -89228.54384524154, -32163.579125831024, 0.0, 0.0, 0.0, 193.0, 0.0, 1.0, 1.0, 0.0, 0.0, 1.0, 1.0, 256.0, 1.0, 1.750529175737459E9, 0.0, 2025-06-21 20:06:15.737
98.0, -44473.891791569215, -38088.0431041769, -30354.09365345164, -73923.03036725883, -28074.305125988143, -29137.041167860174, -53214.94379221724, -101565.99152874846, -187500.02235174447, -187500.02235174447, -48988.899468052325, -47458.877856597646, -78426.52689534747, -49488.57271535072, -89224.25231030611, -32200.593614649013, 0.0, 0.0, 0.0, 193.0, 0.0, 1.0, 1.0, 0.0, 0.0, 1.0, 1.0, 256.0, 1.0, 1.750529175746412E9, 0.0, 2025-06-21 20:06:15.746
100.0, -44427.2884043799, -38044.323092022314, -30326.24337986033, -73882.01491618335, -28059.865899070013, -29147.121804609516, -53193.35200707341, -101556.96142398851, -187500.02235174447, -187500.02235174447, -48996.02967453357, -47478.9050196296, -78446.64346535725, -49506.722331848425, -89251.3649763304, -32222.431268981847, 0.0, 0.0, 0.0, 193.0, 0.0, 1.0, 1.0, 0.0, 0.0, 1.0, 1.0, 256.0, 1.0, 1.750529175753454E9, 0.0, 2025-06-21 20:06:15.753
102.0, -44439.5371603414, -38052.8838101487, -30328.545609539226, -73893.23549189992, -28076.27207950021, -29138.58343822759, -53205.5113560571, -101560.00126123444, -187500.02235174447, -187500.02235174447, -48957.11528743688, -47434.71562084146, -78409.49486607252, -49461.68356677098, -89227.5603684855, -32174.88910852541, 0.0, 0.0, 0.0, 193.0, 0.0, 1.0, 1.0, 0.0, 0.0, 1.0, 1.0, 256.0, 1.0, 1.750529175761542E9, 0.0, 2025-06-21 20:06:15.761
104.0, -44458.17851521713, -38076.77782497142, -30358.273429664783, -73924.97496902644, -28065.878518328493, -29136.504725993243, -53222.878661498864, -101582.73298534549, -187500.02235174447, -187500.02235174447, -49013.866366608905, -47488.382159278655, -78454.84655557234, -49529.878739104126, -89240.52438026958, -32246.884077415954, 0.0, 0.0, 0.0, 193.0, 0.0, 1.0, 1.0, 0.0, 0.0, 1.0, 1.0, 256.0, 1.0, 1.75052917576949E9, 0.0, 2025-06-21 20:06:15.769
106.0, -44448.50020986798, -38061.466880019536, -30358.04991222023, -73916.21308519997, -28091.203044796355, -29229.30916897168, -53209.06528342549, -101580.36370043323, -187500.02235174447, -187500.02235174447, -48986.77605232907, -47460.64364440962, -78440.74260482105, -49505.247116714374, -89272.53207832958, -32219.0561555691, 0.0, 0.0, 0.0, 193.0, 0.0, 1.0, 1.0, 0.0, 0.0, 1.0, 1.0, 256.0, 1.0, 1.750529175777567E9, 0.0, 2025-06-21 20:06:15.777
108.0, -44455.58571286032, -38072.486290036, -30347.924571981977, -73919.54349512381, -28070.438274197375, -29104.653490144432, -53211.702789271214, -101571.31124392882, -187500.02235174447, -187500.02235174447, -49005.551517671534, -47477.16158356209, -78443.73773857806, -49517.87585233162, -89248.34749082894, -32230.053213841107, 0.0, 0.0, 0.0, 193.0, 0.0, 1.0, 1.0, 0.0, 0.0, 1.0, 1.0, 256.0, 1.0, 1.750529175785629E9, 0.0, 2025-06-21 20:06:15.785
110.0, -44438.12900044072, -38052.8838101487, -30342.38133935706, -73894.33072737823, -28070.46062594183, -29232.617227151066, -53214.34029511694, -101586.51043015844, -187500.02235174447, -187500.02235174447, -49000.92470656928, -47476.714548672986, -78449.63859911426, -49498.899221289066, -89243.60892100442, -32211.23304500974, 0.0, 0.0, 0.0, 193.0, 0.0, 1.0, 1.0, 0.0, 0.0, 1.0, 1.0, 256.0, 1.0, 1.750529175793657E9, 0.0, 2025-06-21 20:06:15.793
112.0, -44463.85585830878, -38076.263734848944, -30350.025635960777, -73916.12367822215, -28097.617995455028, -29187.01966846224, -53215.904917228814, -101569.9254357726, -187500.02235174447, -187500.02235174447, -48987.78188082956, -47460.10720254269, -78439.93794202065, -49477.910933245534, -89246.53699952806, -32189.551852888093, 0.0, 0.0, 0.0, 193.0, 0.0, 1.0, 1.0, 0.0, 0.0, 1.0, 1.0, 256.0, 1.0, 1.750529175801657E9, 0.0, 2025-06-21 20:06:15.801
114.0, -44457.731480328024, -38060.684568963596, -30355.837089519155, -73906.15480019507, -28057.16133799092, -29143.76904294122, -53216.82133875148, -101562.63876708016, -187500.02235174447, -187500.02235174447, -49015.833320120975, -47484.02356910987, -78455.78532883947, -49502.00611376836, -89225.54871148452, -32215.211655522784, 0.0, 0.0, 0.0, 193.0, 0.0, 1.0, 1.0, 0.0, 0.0, 1.0, 1.0, 256.0, 1.0, 1.750529175808728E9, 0.0, 2025-06-21 20:06:15.808
116.0, -44418.97355544252, -38036.0305948294, -30328.925589194965, -73878.77391323732, -28055.708474601328, -29222.78245959073, -53192.837916950935, -101543.10334242623, -187500.02235174447, -187500.02235174447, -48992.94513379874, -47458.386118219634, -78443.3130554334, -49471.33952037567, -89254.98595893216, -32178.107759726976, 0.0, 0.0, 0.0, 193.0, 0.0, 1.0, 1.0, 0.0, 0.0, 1.0, 1.0, 256.0, 1.0, 1.750529175817704E9, 0.0, 2025-06-21 20:06:15.817
118.0, -44473.75768110248, -38083.192775630094, -30363.682551822967, -73930.92053305155, -28100.65783270095, -29177.5872323021, -53219.90587948631, -101572.33942417377, -187500.02235174447, -187500.02235174447, -48994.35329369942, -47468.60086543571, -78438.99916875354, -49491.836070041194, -89226.59924347392, -32201.398277449403, 0.0, 0.0, 0.0, 193.0, 0.0, 1.0, 1.0, 0.0, 0.0, 1.0, 1.0, 256.0, 1.0, 1.750529175825775E9, 0.0, 2025-06-21 20:06:15.825
120.0, -44430.70822128156, -38047.742908923974, -30353.11017669561, -73902.77968678233, -28074.41688471042, -29189.97009873034, -53193.463765795685, -101557.69903155554, -187500.02235174447, -187500.02235174447, -49017.017962577105, -47488.82919416776, -78464.23428824358, -49505.49298590339, -89252.81783972, -32215.256359011695, 0.0, 0.0, 0.0, 193.0, 0.0, 1.0, 1.0, 0.0, 0.0, 1.0, 1.0, 256.0, 1.0, 1.750529175832805E9, 0.0, 2025-06-21 20:06:15.832
122.0, -44457.12798322773, -38068.4853277785, -30365.135415212564, -73928.10421325019, -28091.56067270764, -29208.00795650577, -53208.73000725866, -101569.18782820557, -187500.02235174447, -187500.02235174447, -48987.62541861837, -47465.18104853405, -78440.47438388759, -49481.21899142492, -89247.00638616162, -32190.021239521655, 0.0, 0.0, 0.0, 193.0, 0.0, 1.0, 1.0, 0.0, 0.0, 1.0, 1.0, 256.0, 1.0, 1.750529175840775E9, 0.0, 2025-06-21 20:06:15.840
124.0, -44464.66052110917, -38078.05187440537, -30381.04985726474, -73936.88844882113, -28076.473245200308, -29220.860209567574, -53218.073036440976, -101582.86709581222, -187500.02235174447, -187500.02235174447, -49040.42023902181, -47512.432636312566, -78480.23813727357, -49536.584262440716, -89254.5165722986, -32247.778147194167, 0.0, 0.0, 0.0, 193.0, 0.0, 1.0, 1.0, 0.0, 0.0, 1.0, 1.0, 256.0, 1.0, 1.750529175849905E9, 0.0, 2025-06-21 20:06:15.849
126.0, -44439.58186383032, -38060.01401662994, -30357.401711631028, -73909.66402407456, -28094.309937275644, -29205.951596015882, -53193.463765795685, -101561.6776420686, -187500.02235174447, -187500.02235174447, -49005.328000226975, -47480.82726965276, -78461.68618937567, -49493.89243053108, -89267.25706663812, -32202.337050716527, 0.0, 0.0, 0.0, 193.0, 0.0, 1.0, 1.0, 0.0, 0.0, 1.0, 1.0, 256.0, 1.0, 1.75052917585787E9, 0.0, 2025-06-21 20:06:15.857
128.0, -44463.2970646974, -38072.486290036, -30353.311342395707, -73924.52793413734, -28076.69676264486, -29201.347136658092, -53210.56285030399, -101550.9711564745, -187500.02235174447, -187500.02235174447, -49004.41157870431, -47480.1567173191, -78449.39272992525, -49501.91670679054, -89231.82955167646, -32210.696603142813, 0.0, 0.0, 0.0, 193.0, 0.0, 1.0, 1.0, 0.0, 0.0, 1.0, 1.0, 256.0, 1.0, 1.75052917586491E9, 0.0, 2025-06-21 20:06:15.864
130.0, -44462.13477398572, -38072.978028414014, -30385.073171266697, -73935.45793717599, -28117.19812359788, -29247.45878546939, -53219.883527741855, -101576.76506957592, -187500.02235174447, -187500.02235174447, -49021.331849256974, -47490.84085116874, -78468.65993364573, -49515.2383464859, -89258.29401711155, -32226.47693472826, 0.0, 0.0, 0.0, 193.0, 0.0, 1.0, 1.0, 0.0, 0.0, 1.0, 1.0, 256.0, 1.0, 1.750529175872962E9, 0.0, 2025-06-21 20:06:15.872
132.0, -44475.635227636725, -38082.45516806307, -30379.68640085297, -73939.79417560031, -28097.2827192882, -29243.949561589907, -53231.26056566961, -101587.96329354803, -187500.02235174447, -187500.02235174447, -49020.79540739005, -47492.49488025843, -78474.0690558039, -49525.386038468605, -89285.36197964693, -32234.05417609861, 0.0, 0.0, 0.0, 193.0, 0.0, 1.0, 1.0, 0.0, 0.0, 1.0, 1.0, 256.0, 1.0, 1.750529175881931E9, 0.0, 2025-06-21 20:06:15.881
134.0, -44473.86943982475, -38086.7914064874, -30389.25294747984, -73938.52012616636, -28099.31672803363, -29212.36654667456, -53221.33639113145, -101590.48904067148, -187500.02235174447, -187500.02235174447, -49051.88668392738, -47512.700857246025, -78488.50828272203, -49553.213960315465, -89268.46406083871, -32261.457414800814, 0.0, 0.0, 0.0, 193.0, 0.0, 1.0, 1.0, 0.0, 0.0, 1.0, 1.0, 256.0, 1.0, 1.750529175888999E9, 0.0, 2025-06-21 20:06:15.888
136.0, -44430.8870352372, -38050.91685663663, -30339.207391644406, -73898.30933789126, -28070.974716064302, -29271.196338080925, -53174.598893475406, -101556.84966526624, -187500.02235174447, -187500.02235174447, -48996.85668907841, -47468.82438288026, -78452.27610495998, -49497.31224743274, -89266.40770034882, -32205.980385062743, 0.0, 0.0, 0.0, 193.0, 0.0, 1.0, 1.0, 0.0, 0.0, 1.0, 1.0, 256.0, 1.0, 1.750529175897005E9, 0.0, 2025-06-21 20:06:15.897
138.0, -44451.875323280736, -38079.772958728434, -30356.328827897174, -73930.16057374008, -28080.921242346914, -29217.954482788384, -53198.850536209415, -101559.53187460089, -187500.02235174447, -187500.02235174447, -48990.2629244641, -47471.43953698153, -78436.1604972077, -49501.961410279444, -89225.8616359069, -32212.88707409943, 0.0, 0.0, 0.0, 193.0, 0.0, 1.0, 1.0, 0.0, 0.0, 1.0, 1.0, 256.0, 1.0, 1.750529175906003E9, 0.0, 2025-06-21 20:06:15.906
140.0, -44478.31743697136, -38080.0858831508, -30387.956546301433, -73937.6484081326, -28110.067917116634, -29249.336332003633, -53223.88448999936, -101578.48615389898, -187500.02235174447, -187500.02235174447, -49028.126779571394, -47508.1634531216, -78478.00296282805, -49532.20332052748, -89276.30952314252, -32239.932684890355, 0.0, 0.0, 0.0, 193.0, 0.0, 1.0, 1.0, 0.0, 0.0, 1.0, 1.0, 256.0, 1.0, 1.750529175914075E9, 0.0, 2025-06-21 20:06:15.914
142.0, -44468.21444847756, -38089.87594722223, -30370.34337167065, -73934.22859123095, -28102.155399579457, -29255.371303006566, -53234.74743780464, -101589.84084008228, -187500.02235174447, -187500.02235174447, -49011.87706135238, -47483.08479584275, -78463.29551497645, -49508.97985803841, -89272.50972658512, -32215.12224854496, 0.0, 0.0, 0.0, 193.0, 0.0, 1.0, 1.0, 0.0, 0.0, 1.0, 1.0, 256.0, 1.0, 1.750529175921138E9, 0.0, 2025-06-21 20:06:15.921
144.0, -44480.41850095016, -38088.17721464363, -30382.05568576523, -73931.61343712968, -28124.79771671268, -29264.714332188887, -53240.17891170728, -101588.61149413724, -187500.02235174447, -187500.02235174447, -49038.63209946539, -47502.64257224114, -78476.01365757152, -49541.45694273197, -89259.79158399005, -32250.639170484446, 0.0, 0.0, 0.0, 193.0, 0.0, 1.0, 1.0, 0.0, 0.0, 1.0, 1.0, 256.0, 1.0, 1.750529175929118E9, 0.0, 2025-06-21 20:06:15.929
146.0, -44422.728648511016, -38036.0305948294, -30336.391071843038, -73884.60771854017, -28064.31389621662, -29231.4996399283, -53185.081861624945, -101547.99837446194, -187500.02235174447, -187500.02235174447, -48996.45435767822, -47465.15869678959, -78450.75618633702, -49496.68639858799, -89277.13653768737, -32201.957071060788, 0.0, 0.0, 0.0, 193.0, 0.0, 1.0, 1.0, 0.0, 0.0, 1.0, 1.0, 256.0, 1.0, 1.750529175938119E9, 0.0, 2025-06-21 20:06:15.938
148.0, -44513.43202751065, -38127.20336046259, -30411.805857635245, -73972.87475739417, -28111.364318295044, -29260.355742020103, -53261.10014451744, -101604.36947397822, -187500.02235174447, -187500.02235174447, -49015.65450616533, -47485.07410109927, -78458.89222131875, -49517.25000348688, -89251.1638106303, -32224.17470504936, 0.0, 0.0, 0.0, 193.0, 0.0, 1.0, 1.0, 0.0, 0.0, 1.0, 1.0, 256.0, 1.0, 1.750529175945134E9, 0.0, 2025-06-21 20:06:15.945
150.0, -44451.89767502519, -38067.97123765603, -30361.11210121061, -73910.11105896367, -28110.917283405935, -29280.405256796512, -53208.59589679193, -101577.07799399829, -187500.02235174447, -187500.02235174447, -49041.269605311114, -47508.14110137714, -78487.18952979917, -49541.76986715435, -89284.64672382435, -32248.985141394754, 0.0, 0.0, 0.0, 193.0, 0.0, 1.0, 1.0, 0.0, 0.0, 1.0, 1.0, 256.0, 1.0, 1.750529175953183E9, 0.0, 2025-06-21 20:06:15.953
152.0, -44453.79757330389, -38072.53099352491, -30352.216106917396, -73915.22960844393, -28077.970812078813, -29269.631715969055, -53201.3092280995, -101563.73400255847, -187500.02235174447, -187500.02235174447, -48988.83241281896, -47449.89245532661, -78434.88644777375, -49491.56784910773, -89249.68859549625, -32196.86087332498, 0.0, 0.0, 0.0, 193.0, 0.0, 1.0, 1.0, 0.0, 0.0, 1.0, 1.0, 256.0, 1.0, 1.750529175961263E9, 0.0, 2025-06-21 20:06:15.961
154.0, -44477.8480503378, -38086.05379892037, -30387.934194556976, -73939.48125117795, -28087.112675561035, -29274.12441660457, -53233.27222267059, -101597.19456400807, -187500.02235174447, -187500.02235174447, -49028.32794527149, -47494.193612837036, -78463.87666033229, -49540.696983420494, -89251.9684734307, -32249.85685942851, 0.0, 0.0, 0.0, 193.0, 0.0, 1.0, 1.0, 0.0, 0.0, 1.0, 1.0, 256.0, 1.0, 1.750529175970236E9, 0.0, 2025-06-21 20:06:15.970
156.0, -44444.00750923246, -38059.075243362815, -30351.34438888364, -73910.26752117486, -28106.08930660359, -29247.92817210295, -53201.73391124415, -101576.38508992018, -187500.02235174447, -187500.02235174447, -49007.47376769469, -47471.61835093718, -78456.38882593976, -49508.823395827225, -89281.85275576744, -32213.04353631062, 0.0, 0.0, 0.0, 193.0, 0.0, 1.0, 1.0, 0.0, 0.0, 1.0, 1.0, 256.0, 1.0, 1.750529175977275E9, 0.0, 2025-06-21 20:06:15.977
158.0, -44454.82575354884, -38074.5873540148, -30352.372569128584, -73922.40451841409, -28076.07091380011, -29263.26146879929, -53218.140091674344, -101575.13339223068, -187500.02235174447, -187500.02235174447, -49002.08699728096, -47477.09452832872, -78446.33054093487, -49515.35010520818, -89238.0656883795, -32224.398222493917, 0.0, 0.0, 0.0, 193.0, 0.0, 1.0, 1.0, 0.0, 0.0, 1.0, 1.0, 256.0, 1.0, 1.750529175985278E9, 0.0, 2025-06-21 20:06:15.985
160.0, -44471.83543107932, -38078.11892963874, -30382.54742414325, -73930.02646327335, -28127.167001624945, -29304.120457663594, -53237.787275050556, -101599.92147683162, -187500.02235174447, -187500.02235174447, -49023.298802769044, -47488.00217962291, -78469.017561557, -49525.00605881287, -89267.92761897178, -32232.24368479773, 0.0, 0.0, 0.0, 193.0, 0.0, 1.0, 1.0, 0.0, 0.0, 1.0, 1.0, 256.0, 1.0, 1.750529175993335E9, 0.0, 2025-06-21 20:06:15.993
162.0, -44454.0434424929, -38070.20641210156, -30357.602877331126, -73922.02453875834, -28074.126312032502, -29259.573430964167, -53230.56766159149, -101584.8787528132, -187500.02235174447, -187500.02235174447, -48997.706055367715, -47467.259760768386, -78448.78923282496, -49503.570735880225, -89265.29011312606, -32208.036745552632, 0.0, 0.0, 0.0, 193.0, 0.0, 1.0, 1.0, 0.0, 0.0, 1.0, 1.0, 256.0, 1.0, 1.750529176000554E9, 0.0, 2025-06-21 20:06:16.000
164.0, -44478.6974166271, -38082.87985120772, -30385.810778833722, -73939.45889943349, -28105.619919970028, -29309.95426296643, -53240.84946404093, -101588.11975575922, -187500.02235174447, -187500.02235174447, -49031.546596473054, -47498.32868556127, -78468.9728580681, -49545.3461462672, -89259.94804620124, -32252.360254807503, 0.0, 0.0, 0.0, 193.0, 0.0, 1.0, 1.0, 0.0, 0.0, 1.0, 1.0, 256.0, 1.0, 1.750529176009421E9, 0.0, 2025-06-21 20:06:16.009
166.0, -44455.07162273784, -38065.1325661102, -30368.57758385868, -73916.28014043333, -28114.918245663437, -29280.65112598552, -53210.875774726366, -101572.07120324031, -187500.02235174447, -187500.02235174447, -49013.19581427525, -47476.08869982824, -78461.015637042, -49512.69024761799, -89285.60784883593, -32216.441001467825, 0.0, 0.0, 0.0, 193.0, 0.0, 1.0, 1.0, 0.0, 0.0, 1.0, 1.0, 256.0, 1.0, 1.750529176017401E9, 0.0, 2025-06-21 20:06:16.017
168.0, -44437.74902078498, -38060.125775352215, -30346.248191147828, -73914.76022181037, -28068.0242857962, -29210.91368328496, -53213.06624568299, -101566.1703427041, -187500.02235174447, -187500.02235174447, -48996.27554372258, -47465.04693806731, -78435.42288964069, -49505.15770973655, -89230.13081909786, -32211.769486876667, 0.0, 0.0, 0.0, 193.0, 0.0, 1.0, 1.0, 0.0, 0.0, 1.0, 1.0, 256.0, 1.0, 1.750529176025436E9, 0.0, 2025-06-21 20:06:16.025
170.0, -44469.86847756726, -38085.5397087979, -30395.086752782674, -73944.06335879127, -28113.532437507205, -29366.2806589938, -53244.24692919814, -101600.4355669541, -187500.02235174447, -187500.02235174447, -49032.574776718, -47500.45210128452, -78479.277012262, -49542.596881699195, -89285.29492441355, -32248.895734416932, 0.0, 0.0, 0.0, 193.0, 0.0, 1.0, 1.0, 0.0, 0.0, 1.0, 1.0, 256.0, 1.0, 1.750529176032511E9, 0.0, 2025-06-21 20:06:16.032
172.0, -44458.80436406188, -38076.263734848944, -30366.00713324632, -73933.08865226373, -28094.08641983109, -29281.344030063636, -53236.669687827794, -101591.6289796387, -187500.02235174447, -187500.02235174447, -49001.75172111413, -47472.82534513776, -78454.15365149423, -49514.903070319066, -89273.20263066323, -32220.151391047406, 0.0, 0.0, 0.0, 193.0, 0.0, 1.0, 1.0, 0.0, 0.0, 1.0, 1.0, 256.0, 1.0, 1.750529176041531E9, 0.0, 2025-06-21 20:06:16.041
174.0, -44461.55362862988, -38074.90027843718, -30375.90895604002, -73935.65910287609, -28095.13695182049, -29285.188530109946, -53218.22949865217, -101578.37439517671, -187500.02235174447, -187500.02235174447, -49027.433875493276, -47491.26553431339, -78464.90484057723, -49544.2956142778, -89256.8188019775, -32252.404958296414, 0.0, 0.0, 0.0, 193.0, 0.0, 1.0, 1.0, 0.0, 0.0, 1.0, 1.0, 256.0, 1.0, 1.750529176049548E9, 0.0, 2025-06-21 20:06:16.049
176.0, -44466.42630892114, -38075.436720304104, -30383.55325264374, -73936.17319299855, -28107.832742671104, -29334.340016167167, -53221.17992892026, -101577.59208412077, -187500.02235174447, -187500.02235174447, -49014.17929103128, -47483.64358945413, -78468.70463713464, -49519.55223316577, -89290.1229012159, -32224.286463771638, 0.0, 0.0, 0.0, 193.0, 0.0, 1.0, 1.0, 0.0, 0.0, 1.0, 1.0, 256.0, 1.0, 1.750529176056654E9, 0.0, 2025-06-21 20:06:16.056
178.0, -44466.78393683242, -38079.59414477279, -30389.208243990928, -73953.89812635162, -28095.65104194296, -29261.361570520592, -53235.6638593273, -101588.96912204853, -187500.02235174447, -187500.02235174447, -49042.14132334487, -47500.92148791808, -78479.54523319546, -49549.436515502515, -89274.61079056392, -32255.154222864418, 0.0, 0.0, 0.0, 193.0, 0.0, 1.0, 1.0, 0.0, 0.0, 1.0, 1.0, 256.0, 1.0, 1.750529176064666E9, 0.0, 2025-06-21 20:06:16.064
180.0, -44459.51961988445, -38078.54361278339, -30384.268508466306, -73938.36366395517, -28100.12139083402, -29338.877420291596, -53224.42093186628, -101586.1304505027, -187500.02235174447, -187500.02235174447, -49028.551462716045, -47499.17805185057, -78476.1701197827, -49542.32866076573, -89282.59036333447, -32250.080376873062, 0.0, 0.0, 0.0, 193.0, 0.0, 1.0, 1.0, 0.0, 0.0, 1.0, 1.0, 256.0, 1.0, 1.750529176073642E9, 0.0, 2025-06-21 20:06:16.073
182.0, -44483.34657947381, -38096.693229281096, -30392.33748821467, -73957.47440546447, -28124.015405656744, -29323.14179219506, -53245.275109443086, -101600.61438090973, -187500.02235174447, -187500.02235174447, -49013.08405555297, -47483.196554565024, -78461.88735507577, -49522.94969832298, -89281.80805227853, -32228.7568126627, 0.0, 0.0, 0.0, 193.0, 0.0, 1.0, 1.0, 0.0, 0.0, 1.0, 1.0, 256.0, 1.0, 1.750529176080634E9, 0.0, 2025-06-21 20:06:16.080
184.0, -44453.50700062597, -38075.235554604005, -30381.094560753652, -73939.81652734477, -28096.947443121368, -29300.432419828467, -53222.72219928768, -101576.27333119791, -187500.02235174447, -187500.02235174447, -49045.89641641336, -47513.43846481305, -78481.84746287436, -49556.65612896158, -89271.50389808463, -32263.536127035157, 0.0, 0.0, 0.0, 193.0, 0.0, 1.0, 1.0, 0.0, 0.0, 1.0, 1.0, 256.0, 1.0, 1.750529176088695E9, 0.0, 2025-06-21 20:06:16.088
186.0, -44456.88211403872, -38075.41436855964, -30379.932270041976, -73932.44045167453, -28122.89781843398, -29357.00468504485, -53233.786312793054, -101585.37049119122, -187500.02235174447, -187500.02235174447, -49010.55830842952, -47475.39579575012, -78461.75324460903, -49514.65720113006, -89285.38433139138, -32218.318548002073, 0.0, 0.0, 0.0, 193.0, 0.0, 1.0, 1.0, 0.0, 0.0, 1.0, 1.0, 256.0, 1.0, 1.750529176097689E9, 0.0, 2025-06-21 20:06:16.097
188.0, -44498.65752442569, -38112.65237482219, -30415.337433259185, -73986.15169360062, -28129.04454815919, -29309.775449010784, -53300.774490925614, -101639.46171277306, -187500.02235174447, -187500.02235174447, -49037.492160498165, -47504.54247051984, -78479.6793436622, -49554.77858242734, -89276.75655803163, -32262.262077601205, 0.0, 0.0, 0.0, 193.0, 0.0, 1.0, 1.0, 0.0, 0.0, 1.0, 1.0, 256.0, 1.0, 1.7505291761057E9, 0.0, 2025-06-21 20:06:16.105
190.0, -44458.60319836178, -38070.139356868196, -30396.651374894547, -73947.88550709313, -28104.79290542518, -29328.32739690869, -53257.79208633806, -101597.95452331955, -187500.02235174447, -187500.02235174447, -49061.967320676726, -47529.554072565326, -78509.60832948785, -49581.53362054034, -89326.01980281113, -32286.96075522432, 0.0, 0.0, 0.0, 193.0, 0.0, 1.0, 1.0, 0.0, 0.0, 1.0, 1.0, 256.0, 1.0, 1.750529176112811E9, 0.0, 2025-06-21 20:06:16.112
192.0, -44456.03274774942, -38069.289990578895, -30384.760246844322, -73947.14789952611, -28093.192350052876, -29303.60636754112, -53273.795935368056, -101629.96222137955, -187500.02235174447, -187500.02235174447, -49002.35521821442, -47473.92058061607, -78455.78532883947, -49522.50266343387, -89280.86927901141, -32227.214542295285, 0.0, 0.0, 0.0, 193.0, 0.0, 1.0, 1.0, 0.0, 0.0, 1.0, 1.0, 256.0, 1.0, 1.750529176120805E9, 0.0, 2025-06-21 20:06:16.120
194.0, -44493.98600983453, -38111.937118999616, -30427.385023520594, -73985.57054824478, -28133.00080692778, -29358.792824601274, -53275.4276127133, -101627.79410216739, -187500.02235174447, -187500.02235174447, -49070.17041089182, -47534.40440111213, -78507.06023061994, -49595.07877768025, -89307.46785491322, -32301.645851331457, 0.0, 0.0, 0.0, 193.0, 0.0, 1.0, 1.0, 0.0, 0.0, 1.0, 1.0, 256.0, 1.0, 1.75052917612984E9, 0.0, 2025-06-21 20:06:16.129
196.0, -44457.8432390503, -38078.5883162723, -30380.26754620881, -73938.16249825509, -28124.41773705694, -29356.311780966735, -53236.35676340542, -101590.5784476493, -187500.02235174447, -187500.02235174447, -49018.202605033235, -47490.86320291319, -78474.2255180151, -49533.56677693925, -89296.6272588524, -32238.703338945314, 0.0, 0.0, 0.0, 193.0, 0.0, 1.0, 1.0, 0.0, 0.0, 1.0, 1.0, 256.0, 1.0, 1.750529176136833E9, 0.0, 2025-06-21 20:06:16.136
198.0, -44474.80821309188, -38088.24426987699, -30390.05761028023, -73958.4578822205, -28105.32934729211, -29309.976614710882, -53246.14682747684, -101593.61828489522, -187500.02235174447, -187500.02235174447, -49035.56991047501, -47502.12848211867, -78474.44903545965, -49551.671689948045, -89271.43684285127, -32256.271810087183, 0.0, 0.0, 0.0, 193.0, 0.0, 1.0, 1.0, 0.0, 0.0, 1.0, 1.0, 256.0, 1.0, 1.750529176144865E9, 0.0, 2025-06-21 20:06:16.144
200.0, -44460.97248327405, -38075.48142379301, -30387.86713932361, -73938.14014651062, -28105.999899625767, -29364.62662990411, -53218.90005098582, -101582.3753574342, -187500.02235174447, -187500.02235174447, -49026.29393652605, -47492.04784536932, -78468.6152301568, -49530.772808882335, -89271.83917425147, -32235.551742977113, 0.0, 0.0, 0.0, 193.0, 0.0, 1.0, 1.0, 0.0, 0.0, 1.0, 1.0, 256.0, 1.0, 1.750529176152907E9, 0.0, 2025-06-21 20:06:16.152
202.0, -44472.1483555017, -38090.14416815569, -30384.559081144227, -73954.63573391864, -28121.84728644458, -29351.439100675478, -53258.261472971615, -101613.57839269382, -187500.02235174447, -187500.02235174447, -49024.975183603194, -47497.479319271966, -78477.10889304982, -49535.51137870686, -89289.60881109344, -32241.877286657967, 0.0, 0.0, 0.0, 193.0, 0.0, 1.0, 1.0, 0.0, 0.0, 1.0, 1.0, 256.0, 1.0, 1.750529176161933E9, 0.0, 2025-06-21 20:06:16.161
204.0, -44494.500099957004, -38093.899261224185, -30404.586244176182, -73956.02154207487, -28153.229135659833, -29325.17580094049, -53245.140998976356, -101595.24996224046, -187500.02235174447, -187500.02235174447, -49056.446439796266, -47515.83010146977, -78492.26337579053, -49560.43357377453, -89272.48737484067, -32267.492385803747, 0.0, 0.0, 0.0, 193.0, 0.0, 1.0, 1.0, 0.0, 0.0, 1.0, 1.0, 256.0, 1.0, 1.750529176168944E9, 0.0, 2025-06-21 20:06:16.168
206.0, -44437.681965551616, -38055.81188867234, -30367.52705186928, -73915.96721601096, -28074.953326577346, -29341.67138834851, -53194.24607685162, -101551.19467391905, -187500.02235174447, -187500.02235174447, -49024.55050045854, -47488.87389765667, -78477.73474189457, -49518.07701803172, -89287.64185758137, -32221.403088736904, 0.0, 0.0, 0.0, 193.0, 0.0, 1.0, 1.0, 0.0, 0.0, 1.0, 1.0, 256.0, 1.0, 1.750529176176945E9, 0.0, 2025-06-21 20:06:16.176
208.0, -44492.30962900038, -38105.18689217411, -30414.510418714337, -73975.37815277316, -28130.832687715614, -29328.796783542253, -53266.75513586464, -101616.97585785102, -187500.02235174447, -187500.02235174447, -49019.07432306699, -47483.01774060938, -78458.6687038742, -49518.59110815419, -89242.69249948174, -32222.431268981847, 0.0, 0.0, 0.0, 193.0, 0.0, 1.0, 1.0, 0.0, 0.0, 1.0, 1.0, 256.0, 1.0, 1.750529176185998E9, 0.0, 2025-06-21 20:06:16.185
210.0, -44462.246532708, -38078.163633127646, -30397.321927228204, -73941.53761166782, -28093.41586749743, -29368.94051658398, -53226.23142316716, -101584.36466269073, -187500.02235174447, -187500.02235174447, -49065.52124804512, -47531.87865398868, -78511.6870417222, -49566.13326861063, -89304.3833141784, -32270.085188160563, 0.0, 0.0, 0.0, 193.0, 0.0, 1.0, 1.0, 0.0, 0.0, 1.0, 1.0, 256.0, 1.0, 1.750529176193025E9, 0.0, 2025-06-21 20:06:16.193
212.0, -44475.635227636725, -38089.20539488857, -30394.19268300446, -73958.97197234297, -28130.81033597116, -29354.970676299417, -53245.45392339873, -101598.04393029737, -187500.02235174447, -187500.02235174447, -49014.067532309, -47479.843792896725, -78463.80960509893, -49512.13145400661, -89267.54763931605, -32214.295234000117, 0.0, 0.0, 0.0, 193.0, 0.0, 1.0, 1.0, 0.0, 0.0, 1.0, 1.0, 256.0, 1.0, 1.750529176201064E9, 0.0, 2025-06-21 20:06:16.201
214.0, -44478.27273348245, -38093.340467612805, -30407.335508744185, -73961.56477469979, -28110.157324094456, -29374.841377120185, -53237.653164583826, -101592.38893895019, -187500.02235174447, -187500.02235174447, -49071.08683241449, -47537.46659010251, -78510.18947484369, -49572.90584718059, -89279.3717121329, -32277.99770569774, 0.0, 0.0, 0.0, 193.0, 0.0, 1.0, 1.0, 0.0, 0.0, 1.0, 1.0, 256.0, 1.0, 1.750529176209089E9, 0.0, 2025-06-21 20:06:16.209
216.0, -44458.2455704505, -38069.15588011216, -30390.52699691379, -73940.86705933417, -28136.644141273995, -29385.39140050309, -53229.62888832437, -101583.47059291252, -187500.02235174447, -187500.02235174447, -49017.10736955493, -47481.92250513107, -78472.5267854365, -49515.55127090827, -89283.19386043477, -32217.513885201683, 0.0, 0.0, 0.0, 193.0, 0.0, 1.0, 1.0, 0.0, 0.0, 1.0, 1.0, 256.0, 1.0, 1.750529176218112E9, 0.0, 2025-06-21 20:06:16.218
218.0, -44480.48555618353, -38086.143205898195, -30399.043011551264, -73964.47050147898, -28124.82006845714, -29310.51305657781, -53263.06709802951, -101609.71154090304, -187500.02235174447, -187500.02235174447, -49049.20447459275, -47511.33740083425, -78491.25754729004, -49555.56089348327, -89275.92954348678, -32259.848089200033, 0.0, 0.0, 0.0, 193.0, 0.0, 1.0, 1.0, 0.0, 0.0, 1.0, 1.0, 256.0, 1.0, 1.750529176225133E9, 0.0, 2025-06-21 20:06:16.225
220.0, -44458.11145998377, -38061.62334223072, -30396.91959582801, -73942.61049540169, -28123.99305391229, -29374.796673631274, -53234.859196526915, -101586.93511330309, -187500.02235174447, -187500.02235174447, -49039.727334943695, -47502.82138619678, -78487.30128852146, -49539.512340964364, -89283.68559881278, -32243.419557025383, 0.0, 0.0, 0.0, 193.0, 0.0, 1.0, 1.0, 0.0, 0.0, 1.0, 1.0, 256.0, 1.0, 1.750529176233159E9, 0.0, 2025-06-21 20:06:16.233
222.0, -44486.22995450854, -38101.32004038335, -30408.989537833877, -73968.78438815885, -28112.45955377335, -29373.76849338633, -53249.387830422864, -101601.82137511032, -187500.02235174447, -187500.02235174447, -49042.588358233974, -47510.55508977832, -78495.79495141447, -49539.46763747545, -89303.22102346671, -32241.452603513317, 0.0, 0.0, 0.0, 193.0, 0.0, 1.0, 1.0, 0.0, 0.0, 1.0, 1.0, 256.0, 1.0, 1.750529176241192E9, 0.0, 2025-06-21 20:06:16.241
224.0, -44496.93644010263, -38103.80108401788, -30417.997290849366, -73972.91946088309, -28147.685903034915, -29387.805388904264, -53254.416972925304, -101607.6328286687, -187500.02235174447, -187500.02235174447, -49055.462963040234, -47521.75331375043, -78498.29834679345, -49558.176047584544, -89273.80612776353, -32263.938458435354, 0.0, 0.0, 0.0, 193.0, 0.0, 1.0, 1.0, 0.0, 0.0, 1.0, 1.0, 256.0, 1.0, 1.750529176249232E9, 0.0, 2025-06-21 20:06:16.249
226.0, -44471.70132061259, -38086.903165209675, -30400.719392385414, -73952.60172517321, -28109.03973687169, -29410.62651999313, -53238.837807039956, -101598.9827035645, -187500.02235174447, -187500.02235174447, -49048.31040481453, -47519.87576721618, -78507.90959690925, -49547.268396290354, -89317.10145677347, -32250.32624606207, 0.0, 0.0, 0.0, 193.0, 0.0, 1.0, 1.0, 0.0, 0.0, 1.0, 1.0, 256.0, 1.0, 1.750529176257249E9, 0.0, 2025-06-21 20:06:16.257
228.0, -44506.77120766297, -38110.99834573249, -30419.74072691688, -73986.66578372309, -28158.10181595109, -29318.917312493006, -53262.12832476239, -101614.51716596093, -187500.02235174447, -187500.02235174447, -49056.446439796266, -47520.658078272114, -78497.47133224862, -49555.449134760995, -89275.05782545303, -32260.608048511513, 0.0, 0.0, 0.0, 193.0, 0.0, 1.0, 1.0, 0.0, 0.0, 1.0, 1.0, 256.0, 1.0, 1.750529176265267E9, 0.0, 2025-06-21 20:06:16.265
230.0, -44465.286369953916, -38078.40950231666, -30395.511435927325, -73947.72904488195, -28137.269990118744, -29426.87623821214, -53241.52001637459, -101601.57550592131, -187500.02235174447, -187500.02235174447, -49057.11699212992, -47532.50450283343, -78509.92125391022, -49568.390794800616, -89307.75842759114, -32274.19790914034, 0.0, 0.0, 0.0, 193.0, 0.0, 1.0, 1.0, 0.0, 0.0, 1.0, 1.0, 256.0, 1.0, 1.750529176273302E9, 0.0, 2025-06-21 20:06:16.273
232.0, -44488.37572197625, -38098.660182793166, -30399.668860396014, -73957.38499848664, -28114.448859029875, -29399.83062742122, -53247.286766444064, -101603.72127338902, -187500.02235174447, -187500.02235174447, -49031.94892787325, -47500.65326698462, -78485.1778727982, -49533.1420937946, -89288.15594770384, -32238.74804243422, 0.0, 0.0, 0.0, 193.0, 0.0, 1.0, 1.0, 0.0, 0.0, 1.0, 1.0, 256.0, 1.0, 1.750529176280334E9, 0.0, 2025-06-21 20:06:16.280
234.0, -44506.36887626277, -38114.61932833425, -30429.530790988305, -73970.17019631508, -28145.406025100474, -29404.34567980119, -53286.581133196494, -101627.61528821175, -187500.02235174447, -187500.02235174447, -49075.82540223902, -47527.20713939752, -78512.75992545605, -49576.05744314879, -89291.50870937214, -32279.562327809614, 0.0, 0.0, 0.0, 193.0, 0.0, 1.0, 1.0, 0.0, 0.0, 1.0, 1.0, 256.0, 1.0, 1.750529176289315E9, 0.0, 2025-06-21 20:06:16.289
236.0, -44473.80238459139, -38075.45907204856, -30395.8243603497, -73935.72615810945, -28139.527516308728, -29419.16488637506, -53237.16142620581, -101596.9263430746, -187500.02235174447, -187500.02235174447, -49045.00234663515, -47501.27911582936, -78497.69484969317, -49541.255777031874, -89315.67094512832, -32241.09497560203, 0.0, 0.0, 0.0, 193.0, 0.0, 1.0, 1.0, 0.0, 0.0, 1.0, 1.0, 256.0, 1.0, 1.750529176297384E9, 0.0, 2025-06-21 20:06:16.297
238.0, -44520.450475269616, -38121.52601737095, -30420.92536937301, -73984.38590578866, -28161.320467152655, -29331.121364965602, -53267.358632964926, -101620.5297852194, -187500.02235174447, -187500.02235174447, -49047.39398329186, -47504.40836005311, -78487.03306758798, -49551.29171029231, -89273.09087194096, -32256.22710659827, 0.0, 0.0, 0.0, 193.0, 0.0, 1.0, 1.0, 0.0, 0.0, 1.0, 1.0, 256.0, 1.0, 1.750529176304429E9, 0.0, 2025-06-21 20:06:16.304
240.0, -44468.929704300135, -38077.56013602736, -30393.81270334872, -73938.207201744, -28119.23213234331, -29419.25429335288, -53222.02929520956, -101582.82239232332, -187500.02235174447, -187500.02235174447, -49065.29773060056, -47531.02928769938, -78512.69287022267, -49568.27903607834, -89306.77495083511, -32273.974391695785, 0.0, 0.0, 0.0, 193.0, 0.0, 1.0, 1.0, 0.0, 0.0, 1.0, 1.0, 256.0, 1.0, 1.75052917631245E9, 0.0, 2025-06-21 20:06:16.312
242.0, -44505.698323929115, -38123.87295053875, -30421.417107751025, -73976.98747837395, -28158.258278162277, -29418.561389274764, -53246.63856585486, -101615.36653225023, -187500.02235174447, -187500.02235174447, -49027.322116771, -47488.56097323429, -78475.54427093796, -49529.83403561521, -89287.574802348, -32232.84718189802, 0.0, 0.0, 0.0, 193.0, 0.0, 1.0, 1.0, 0.0, 0.0, 1.0, 1.0, 256.0, 1.0, 1.750529176321426E9, 0.0, 2025-06-21 20:06:16.321
244.0, -44487.28048649794, -38098.48136883752, -30398.864197595623, -73957.16148104209, -28139.95219945338, -29393.527435484822, -53254.05934501402, -101602.5366309329, -187500.02235174447, -187500.02235174447, -49078.4852598292, -47544.865017517215, -78517.69966098067, -49584.68521650854, -89293.29684892856, -32291.721676793302, 0.0, 0.0, 0.0, 193.0, 0.0, 1.0, 1.0, 0.0, 0.0, 1.0, 1.0, 256.0, 1.0, 1.750529176329478E9, 0.0, 2025-06-21 20:06:16.329
246.0, -44498.2551930255, -38113.63585157822, -30418.667843183022, -73967.5103387249, -28150.256353647277, -29477.972326036972, -53262.84358058496, -101614.74068340549, -187500.02235174447, -187500.02235174447, -49036.21811106421, -47499.848604184226, -78489.15648331124, -49535.869006618144, -89301.6340496104, -32239.977388379266, 0.0, 0.0, 0.0, 193.0, 0.0, 1.0, 1.0, 0.0, 0.0, 1.0, 1.0, 256.0, 1.0, 1.750529176336529E9, 0.0, 2025-06-21 20:06:16.336
248.0, -44515.08605660034, -38128.83503780783, -30426.759174675844, -73982.0613243653, -28125.55767602416, -29388.43123774901, -53273.103031289946, -101620.86506138624, -187500.02235174447, -187500.02235174447, -49080.85454474146, -47541.31109014882, -78520.13600112629, -49577.756175727394, -89299.01889550911, -32282.356295866528, 0.0, 0.0, 0.0, 193.0, 0.0, 1.0, 1.0, 0.0, 0.0, 1.0, 1.0, 256.0, 1.0, 1.750529176344558E9, 0.0, 2025-06-21 20:06:16.344
250.0, -44469.24262872251, -38076.50960403796, -30391.376363203093, -73928.81946907275, -28134.47602206183, -29413.53224677232, -53228.556004590515, -101579.38022367719, -187500.02235174447, -187500.02235174447, -49041.336660544475, -47502.86608968569, -78488.91061412223, -49538.61827118615, -89287.23952618118, -32240.7596994352, 0.0, 0.0, 0.0, 193.0, 0.0, 1.0, 1.0, 0.0, 0.0, 1.0, 1.0, 256.0, 1.0, 1.750529176353564E9, 0.0, 2025-06-21 20:06:16.353
252.0, -44505.87713788475, -38116.899206268696, -30413.795162891765, -73969.6561061926, -28147.104757679077, -29435.325197616246, -53271.2254847557, -101617.17702355112, -187500.02235174447, -187500.02235174447, -49044.01886987912, -47503.91662167509, -78491.01167810103, -49541.16637005405, -89303.82452056701, -32241.318493046583, 0.0, 0.0, 0.0, 193.0, 0.0, 1.0, 1.0, 0.0, 0.0, 1.0, 1.0, 256.0, 1.0, 1.750529176360566E9, 0.0, 2025-06-21 20:06:16.360
254.0, -44506.592393707324, -38115.580453345836, -30413.571645447213, -73969.11966432568, -28170.417627145962, -29389.705287182962, -53266.64337714236, -101616.59587819528, -187500.02235174447, -187500.02235174447, -49071.15388764786, -47533.75620052293, -78508.91542540974, -49580.550143784305, -89292.69335182826, -32285.8208162571, 0.0, 0.0, 0.0, 193.0, 0.0, 1.0, 1.0, 0.0, 0.0, 1.0, 1.0, 256.0, 1.0, 1.750529176368591E9, 0.0, 2025-06-21 20:06:16.368
0.0, -44458.916122784154, -38079.01299941695, -30387.285993967773, -73935.97202729846, -28127.23405685831, -29462.996657251915, -53223.99624872163, -101589.66202612664, -187500.02235174447, -187500.02235174447, -49020.84011087896, -47490.93025814656, -78476.55009943845, -49527.911785592056, -89296.64961059685, -32232.17662956436, 0.0, 0.0, 0.0, 193.0, 0.0, 1.0, 1.0, 0.0, 0.0, 1.0, 1.0, 256.0, 1.0, 1.750529176377632E9, 0.0, 2025-06-21 20:06:16.377
2.0, -44515.17546357816, -38130.3996599197, -30430.35780553315, -73988.74449595743, -28137.627618030026, -29388.67710693802, -53279.89796160436, -101635.61721272675, -187500.02235174447, -187500.02235174447, -49057.92165493032, -47517.77470323738, -78494.83382640289, -49568.27903607834, -89288.11124421493, -32275.53901380766, 0.0, 0.0, 0.0, 193.0, 0.0, 1.0, 1.0, 0.0, 0.0, 1.0, 1.0, 256.0, 1.0, 1.75052917638569E9, 0.0, 2025-06-21 20:06:16.385
4.0, -44475.67993112563, -38089.45126407758, -30402.35106973065, -73946.23147800345, -28133.514897050252, -29426.093927156202, -53240.357725662914, -101593.46182268404, -187500.02235174447, -187500.02235174447, -49063.777811977605, -47523.65321202913, -78506.00969863054, -49568.591960500715, -89308.29486945807, -32275.404903340925, 0.0, 0.0, 0.0, 193.0, 0.0, 1.0, 1.0, 0.0, 0.0, 1.0, 1.0, 256.0, 1.0, 1.750529176392681E9, 0.0, 2025-06-21 20:06:16.392
6.0, -44505.497158229016, -38120.27431968145, -30407.849598866655, -73968.62792594766, -28162.39335088651, -29454.704160058995, -53253.858179313924, -101603.02836931091, -187500.02235174447, -187500.02235174447, -49040.08496285498, -47502.82138619678, -78487.92713736619, -49545.07792533373, -89300.87409029891, -32249.767452450687, 0.0, 0.0, 0.0, 193.0, 0.0, 1.0, 1.0, 0.0, 0.0, 1.0, 1.0, 256.0, 1.0, 1.750529176400744E9, 0.0, 2025-06-21 20:06:16.400
8.0, -44492.37668423375, -38114.32875565634, -30404.563892431725, -73957.98849558693, -28128.396347569986, -29461.946125262515, -53257.076830515485, -101604.39182572268, -187500.02235174447, -187500.02235174447, -49039.257948310136, -47508.05169439932, -78483.16621579722, -49555.158562083074, -89267.74880501615, -32262.48559504576, 0.0, 0.0, 0.0, 193.0, 0.0, 1.0, 1.0, 0.0, 0.0, 1.0, 1.0, 256.0, 1.0, 1.750529176409751E9, 0.0, 2025-06-21 20:06:16.409
10.0, -44506.99472510752, -38114.41816263416, -30416.857351882143, -73961.18479504404, -28151.23983040331, -29468.49518638792, -53260.787220095066, -101606.67170365712, -187500.02235174447, -187500.02235174447, -49058.4804485417, -47519.58519453826, -78513.98927140108, -49555.583245227725, -89329.41726796834, -32259.065778144097, 0.0, 0.0, 0.0, 193.0, 0.0, 1.0, 1.0, 0.0, 0.0, 1.0, 1.0, 256.0, 1.0, 1.750529176416817E9, 0.0, 2025-06-21 20:06:16.416
12.0, -44519.601108980314, -38126.55515987339, -30428.077927598708, -73979.37911503066, -28153.273839148744, -29405.19504609049, -53263.245911985156, -101608.6833606581, -187500.02235174447, -187500.02235174447, -49056.08881188498, -47513.72903749097, -78494.16327406923, -49556.05263186129, -89281.36101738943, -32261.09978688953, 0.0, 0.0, 0.0, 193.0, 0.0, 1.0, 1.0, 0.0, 0.0, 1.0, 1.0, 256.0, 1.0, 1.750529176424786E9, 0.0, 2025-06-21 20:06:16.424
14.0, -44504.088998328334, -38116.42981963514, -30426.69211944248, -73967.66680093609, -28142.09796692109, -29429.469040568954, -53240.067152985, -101596.38990120769, -187500.02235174447, -187500.02235174447, -49083.648512798376, -47547.14489545165, -78528.74142274159, -49583.50057405241, -89329.79724762407, -32285.507891834724, 0.0, 0.0, 0.0, 193.0, 0.0, 1.0, 1.0, 0.0, 0.0, 1.0, 1.0, 256.0, 1.0, 1.750529176432847E9, 0.0, 2025-06-21 20:06:16.432
16.0, -44514.57196647787, -38127.516284884965, -30415.96328210393, -73978.0156586189, -28172.406932402486, -29475.82655856926, -53252.85235081343, -101606.93992459058, -187500.02235174447, -187500.02235174447, -49036.75455293114, -47506.35296182072, -78487.43539898818, -49539.55704445327, -89298.10247398645, -32242.838411669545, 0.0, 0.0, 0.0, 193.0, 0.0, 1.0, 1.0, 0.0, 0.0, 1.0, 1.0, 256.0, 1.0, 1.750529176441875E9, 0.0, 2025-06-21 20:06:16.441
18.0, -44503.887832628236, -38121.995404004505, -30405.770886632312, -73965.83395789075, -28143.930809966423, -29467.668171843074, -53264.29644397455, -101623.54727072088, -187500.02235174447, -187500.02235174447, -49072.584399292995, -47538.94180523656, -78512.80462894496, -49582.96413218548, -89292.98392450619, -32288.614784314013, 0.0, 0.0, 0.0, 193.0, 0.0, 1.0, 1.0, 0.0, 0.0, 1.0, 1.0, 256.0, 1.0, 1.750529176448918E9, 0.0, 2025-06-21 20:06:16.448
20.0, -44483.458338196084, -38100.38126711622, -30388.358877701627, -73942.11875702367, -28132.352606338576, -29446.232848910437, -53250.32660368999, -101601.39669196567, -187500.02235174447, -187500.02235174447, -49032.08303833998, -47504.318953075286, -78491.41400950123, -49541.054611331776, -89306.12675024591, -32245.34180704854, 0.0, 0.0, 0.0, 193.0, 0.0, 1.0, 1.0, 0.0, 0.0, 1.0, 1.0, 256.0, 1.0, 1.750529176456946E9, 0.0, 2025-06-21 20:06:16.456
22.0, -44530.374649807774, -38140.01091003548, -30421.39475600657, -73979.62498421967, -28157.364208384064, -29448.669189056065, -53281.01554882712, -101628.33054403431, -187500.02235174447, -187500.02235174447, -49037.782733176085, -47504.14013911964, -78479.9252128512, -49547.11193407916, -89265.2677613816, -32254.57307750858, 0.0, 0.0, 0.0, 193.0, 0.0, 1.0, 1.0, 0.0, 0.0, 1.0, 1.0, 256.0, 1.0, 1.750529176465024E9, 0.0, 2025-06-21 20:06:16.465
24.0, -44516.62832696776, -38123.31415692737, -30429.35197703266, -73965.31986776828, -28147.79766175719, -29453.474814113953, -53251.913577546315, -101599.36268322024, -187500.02235174447, -187500.02235174447, -49093.48328035871, -47550.587064097774, -78536.3857193453, -49586.45100432051, -89329.77489587961, -32292.25811866023, 0.0, 0.0, 0.0, 193.0, 0.0, 1.0, 1.0, 0.0, 0.0, 1.0, 1.0, 256.0, 1.0, 1.750529176472941E9, 0.0, 2025-06-21 20:06:16.472
26.0, -44526.21722533908, -38135.54056114442, -30420.657148439546, -73975.42285626207, -28165.455539876886, -29485.54956740732, -53275.29350224656, -101618.33931426279, -187500.02235174447, -187500.02235174447, -49050.634986237885, -47509.97394442248, -78498.38775377128, -49542.887454377116, -89303.44454091127, -32244.93947564834, 0.0, 0.0, 0.0, 193.0, 0.0, 1.0, 1.0, 0.0, 0.0, 1.0, 1.0, 256.0, 1.0, 1.750529176481063E9, 0.0, 2025-06-21 20:06:16.481
28.0, -44538.980071423066, -38143.69894787061, -30442.9865411504, -73987.67161222358, -28181.14646448451, -29496.36781172369, -53275.49466794666, -101623.54727072088, -187500.02235174447, -187500.02235174447, -49086.643646555385, -47540.037040714866, -78525.29925409547, -49589.982579944444, -89304.2268519672, -32293.800389027645, 0.0, 0.0, 0.0, 193.0, 0.0, 1.0, 1.0, 0.0, 0.0, 1.0, 1.0, 256.0, 1.0, 1.750529176489066E9, 0.0, 2025-06-21 20:06:16.489
30.0, -44508.87227164177, -38112.58531958882, -30416.38796524858, -73956.08859730823, -28145.786004756214, -29474.82073006877, -53251.04185951255, -101598.5356686754, -187500.02235174447, -187500.02235174447, -49061.36382357643, -47518.33349684876, -78512.67051847822, -49551.872855648144, -89325.17043652183, -32252.047330385132, 0.0, 0.0, 0.0, 193.0, 0.0, 1.0, 1.0, 0.0, 0.0, 1.0, 1.0, 256.0, 1.0, 1.750529176497107E9, 0.0, 2025-06-21 20:06:16.497
32.0, -44541.6622807577, -38145.80001184941, -30433.822325923724, -73985.95052790052, -28185.460351164384, -29453.273648413855, -53280.59086568247, -101621.5356137199, -187500.02235174447, -187500.02235174447, -49076.227733639214, -47532.39274411115, -78511.21765508862, -49571.16241111307, -89293.65447683985, -32272.7673974952, 0.0, 0.0, 0.0, 193.0, 0.0, 1.0, 1.0, 0.0, 0.0, 1.0, 1.0, 256.0, 1.0, 1.750529176504092E9, 0.0, 2025-06-21 20:06:16.504
34.0, -44524.13851310474, -38142.201380992105, -30435.901038158067, -73974.9087661396, -28148.647028046493, -29495.876073345673, -53263.804705596536, -101614.11483456074, -187500.02235174447, -187500.02235174447, -49088.588248322994, -47548.06131697432, -78533.61410303284, -49581.82419321826, -89327.584424923, -32282.356295866528, 0.0, 0.0, 0.0, 193.0, 0.0, 1.0, 1.0, 0.0, 0.0, 1.0, 1.0, 256.0, 1.0, 1.750529176513254E9, 0.0, 2025-06-21 20:06:16.513
36.0, -44534.39796380973, -38144.54831415991, -30427.69794794297, -73980.74257144243, -28165.947278254902, -29494.445561700533, -53284.3236070065, -101622.76495966494, -187500.02235174447, -187500.02235174447, -49060.51445728713, -47522.625031784184, -78512.62581498931, -49557.30432955079, -89312.38523869339, -32260.071606644586, 0.0, 0.0, 0.0, 193.0, 0.0, 1.0, 1.0, 0.0, 0.0, 1.0, 1.0, 256.0, 1.0, 1.750529176521285E9, 0.0, 2025-06-21 20:06:16.521
38.0, -44516.89654790122, -38128.008023262984, -30408.721316900414, -73958.36847524268, -28149.42933910243, -29452.15606119109, -53254.19345548075, -101598.5356686754, -187500.02235174447, -187500.02235174447, -49076.25008538367, -47538.38301162518, -78517.40908830275, -49577.44325130502, -89292.06750298351, -32283.406827855928, 0.0, 0.0, 0.0, 193.0, 0.0, 1.0, 1.0, 0.0, 0.0, 1.0, 1.0, 256.0, 1.0, 1.750529176529231E9, 0.0, 2025-06-21 20:06:16.529
40.0, -44535.85082719932, -38144.74947986001, -30426.40154676456, -73967.48798698044, -28179.894766795012, -29528.151992339135, -53259.06613577201, -101626.05066609988, -187500.02235174447, -187500.02235174447, -49049.51739901512, -47508.00699091041, -78500.8240939169, -49535.243157773395, -89310.70885785924, -32239.396243023428, 0.0, 0.0, 0.0, 193.0, 0.0, 1.0, 1.0, 0.0, 0.0, 1.0, 1.0, 256.0, 1.0, 1.750529176537308E9, 0.0, 2025-06-21 20:06:16.537
42.0, -44554.64864428624, -38162.675578913164, -30426.960340375943, -73989.86208318021, -28173.166891713965, -29476.4077039251, -53281.39552848286, -101639.72993370652, -187500.02235174447, -187500.02235174447, -49085.794280266084, -47553.6269013437, -78527.75794598555, -49587.32272235426, -89309.12188400292, -32293.643926816458, 0.0, 0.0, 0.0, 193.0, 0.0, 1.0, 1.0, 0.0, 0.0, 1.0, 1.0, 256.0, 1.0, 1.750529176545305E9, 0.0, 2025-06-21 20:06:16.545
44.0, -44527.60303349532, -38142.80487809239, -30423.473468240914, -73964.51520496789, -28174.128016725543, -29530.90125690714, -53241.29649893004, -101605.75528213446, -187500.02235174447, -187500.02235174447, -49067.04116666808, -47531.789247010856, -78517.27497783602, -49568.07787037824, -89310.50769215914, -32271.24747887224, 0.0, 0.0, 0.0, 193.0, 0.0, 1.0, 1.0, 0.0, 0.0, 1.0, 1.0, 256.0, 1.0, 1.750529176553319E9, 0.0, 2025-06-21 20:06:16.553
46.0, -44535.62730975477, -38147.61050315029, -30422.31117752924, -73977.97095512997, -28157.05128396169, -29463.77896830785, -53256.24981597064, -101608.79511938037, -187500.02235174447, -187500.02235174447, -49062.32494858801, -47532.772723766895, -78515.15156211276, -49560.210056329975, -89316.76618060663, -32261.77033922319, 0.0, 0.0, 0.0, 193.0, 0.0, 1.0, 1.0, 0.0, 0.0, 1.0, 1.0, 256.0, 1.0, 1.750529176560357E9, 0.0, 2025-06-21 20:06:16.560
48.0, -44543.85275171432, -38158.205230022104, -30442.763023705844, -73983.24596682143, -28174.060961492178, -29554.37058858521, -53278.78037438159, -101631.05745685786, -187500.02235174447, -187500.02235174447, -49074.10431791596, -47532.97388946699, -78513.36342255634, -49582.67355950756, -89295.84494779646, -32285.91022323492, 0.0, 0.0, 0.0, 193.0, 0.0, 1.0, 1.0, 0.0, 0.0, 1.0, 1.0, 256.0, 1.0, 1.75052917656942E9, 0.0, 2025-06-21 20:06:16.569
50.0, -44520.27166131397, -38123.13534297173, -30420.277168783807, -73960.76011189939, -28183.560452885682, -29470.88682304464, -53258.261472971615, -101604.81650886733, -187500.02235174447, -187500.02235174447, -49073.344358604474, -47529.487017331965, -78524.36048082834, -49572.32470182475, -89344.48234373122, -32271.135720149963, 0.0, 0.0, 0.0, 193.0, 0.0, 1.0, 1.0, 0.0, 0.0, 1.0, 1.0, 256.0, 1.0, 1.750529176577473E9, 0.0, 2025-06-21 20:06:16.577
52.0, -44579.01204574252, -38175.192555808135, -30457.045788412786, -74007.63172002217, -28203.274691495266, -29496.88190184616, -53300.282752547595, -101646.74838146548, -187500.02235174447, -187500.02235174447, -49076.00421619466, -47535.79020926836, -78514.4810097791, -49579.18668737253, -89303.35513393345, -32280.92578422139, 0.0, 0.0, 0.0, 193.0, 0.0, 1.0, 1.0, 0.0, 0.0, 1.0, 1.0, 256.0, 1.0, 1.750529176585412E9, 0.0, 2025-06-21 20:06:16.585
54.0, -44531.224016097076, -38134.78060183294, -30423.607578707648, -73962.34708575573, -28172.272821935752, -29580.812702275838, -53266.39750795335, -101617.42289274013, -187500.02235174447, -187500.02235174447, -49090.555201835065, -47542.36162213822, -78533.32353035493, -49588.06032992129, -89339.29673901758, -32287.944231980353, 0.0, 0.0, 0.0, 193.0, 0.0, 1.0, 1.0, 0.0, 0.0, 1.0, 1.0, 256.0, 1.0, 1.750529176592518E9, 0.0, 2025-06-21 20:06:16.592
56.0, -44558.67195828819, -38167.88353537125, -30423.07113684072, -73982.44130402105, -28187.069676765168, -29510.337652008257, -53281.23906627167, -101629.64929695718, -187500.02235174447, -187500.02235174447, -49060.983843920694, -47524.83785448526, -78511.70939346665, -49554.957396382975, -89314.17337824982, -32256.271810087183, 0.0, 0.0, 0.0, 193.0, 0.0, 1.0, 1.0, 0.0, 0.0, 1.0, 1.0, 256.0, 1.0, 1.750529176601562E9, 0.0, 2025-06-21 20:06:16.601
58.0, -44546.24438837104, -38151.58911366333, -30427.519133987327, -73969.32083002578, -28170.708199823883, -29505.107343805714, -53272.29836848955, -101621.15563406415, -187500.02235174447, -187500.02235174447, -49086.57659132202, -47548.46364837452, -78526.05921340694, -49589.490841566425, -89303.5339478891, -32293.174540182896, 0.0, 0.0, 0.0, 193.0, 0.0, 1.0, 1.0, 0.0, 0.0, 1.0, 1.0, 256.0, 1.0, 1.750529176609561E9, 0.0, 2025-06-21 20:06:16.609
60.0, -44525.412562538695, -38137.105183256295, -30405.949700587953, -73947.52787918186, -28165.567298599162, -29560.070283421315, -53263.849409085444, -101608.05751181336, -187500.02235174447, -187500.02235174447, -49050.72439321571, -47501.88261292966, -78499.0806578494, -49538.57356769724, -89308.07135201352, -32239.060966856596, 0.0, 0.0, 0.0, 193.0, 0.0, 1.0, 1.0, 0.0, 0.0, 1.0, 1.0, 256.0, 1.0, 1.750529176616546E9, 0.0, 2025-06-21 20:06:16.616
62.0, -44573.44646137315, -38186.79311118044, -30445.199363851472, -74008.14581014465, -28171.535214368727, -29517.087878833758, -53292.01260709913, -101642.68036397462, -187500.02235174447, -187500.02235174447, -49070.908018458846, -47529.6658312876, -78511.59763474436, -49568.25668433389, -89281.4727761117, -32271.985086439265, 0.0, 0.0, 0.0, 193.0, 0.0, 1.0, 1.0, 0.0, 0.0, 1.0, 1.0, 256.0, 1.0, 1.750529176624645E9, 0.0, 2025-06-21 20:06:16.624
64.0, -44515.1084083448, -38135.33939544432, -30434.87285791312, -73964.8057776458, -28150.926905980934, -29566.84286199127, -53245.25275769863, -101603.09542454427, -187500.02235174447, -187500.02235174447, -49100.345265906486, -47555.92913102259, -78547.67335029523, -49593.760024757394, -89332.6359191699, -32295.454418117337, 0.0, 0.0, 0.0, 193.0, 0.0, 1.0, 1.0, 0.0, 0.0, 1.0, 1.0, 256.0, 1.0, 1.750529176633602E9, 0.0, 2025-06-21 20:06:16.633
66.0, -44555.83328674237, -38167.48120397105, -30444.17118360653, -73999.47333329599, -28176.318487682165, -29539.55138201134, -53288.86101113093, -101630.1410353352, -187500.02235174447, -187500.02235174447, -49061.81085846554, -47520.12163640519, -78516.89499818027, -49563.071079620255, -89319.26957598563, -32262.731464234766, 0.0, 0.0, 0.0, 193.0, 0.0, 1.0, 1.0, 0.0, 0.0, 1.0, 1.0, 256.0, 1.0, 1.750529176640778E9, 0.0, 2025-06-21 20:06:16.640
68.0, -44549.84301922834, -38163.88257311375, -30453.245991855383, -73998.35574607323, -28195.272766980266, -29556.60576303074, -53280.59086568247, -101630.11868359074, -187500.02235174447, -187500.02235174447, -49102.04399848509, -47565.58508462728, -78547.5392398285, -49616.53645235735, -89329.97606157971, -32317.44853466136, 0.0, 0.0, 0.0, 193.0, 0.0, 1.0, 1.0, 0.0, 0.0, 1.0, 1.0, 256.0, 1.0, 1.750529176648714E9, 0.0, 2025-06-21 20:06:16.648
70.0, -44533.168617864685, -38142.31313971438, -30435.655168969057, -73974.0593998503, -28176.96668827137, -29569.39096085918, -53258.03795552706, -101611.47732871502, -187500.02235174447, -187500.02235174447, -49055.90999792934, -47521.77566549488, -78516.3362045689, -49568.167277356064, -89342.76125940816, -32265.659542758414, 0.0, 0.0, 0.0, 193.0, 0.0, 1.0, 1.0, 0.0, 0.0, 1.0, 1.0, 256.0, 1.0, 1.750529176656739E9, 0.0, 2025-06-21 20:06:16.656
72.0, -44587.95274352464, -38190.45879727111, -30467.148776906586, -74016.30419687083, -28212.863589866593, -29559.578545043296, -53316.912450422344, -101661.58993978381, -187500.02235174447, -187500.02235174447, -49098.020684483134, -47558.72309907951, -78537.72682401263, -49610.34501914323, -89333.84291337049, -32310.944177024863, 0.0, 0.0, 0.0, 193.0, 0.0, 1.0, 1.0, 0.0, 0.0, 1.0, 1.0, 256.0, 1.0, 1.750529176665767E9, 0.0, 2025-06-21 20:06:16.665
74.0, -44551.09471691784, -38162.78733763544, -30448.26155284185, -73977.63567896315, -28211.321319499177, -29626.119688286748, -53279.13800229288, -101628.0399713564, -187500.02235174447, -187500.02235174447, -49104.614449097455, -47551.36937515371, -78545.77345201652, -49606.88049875266, -89354.02653861363, -32306.33971766707, 0.0, 0.0, 0.0, 193.0, 0.0, 1.0, 1.0, 0.0, 0.0, 1.0, 1.0, 256.0, 1.0, 1.750529176672798E9, 0.0, 2025-06-21 20:06:16.672
76.0, -44562.35999612332, -38171.03513133945, -30445.98167490741, -73996.05351639433, -28190.91417681148, -29531.348291796243, -53297.19821181276, -101644.73672446451, -187500.02235174447, -187500.02235174447, -49069.00812018015, -47524.81550274081, -78518.66078599225, -49567.78729770033, -89328.41143946785, -32265.48072880277, 0.0, 0.0, 0.0, 193.0, 0.0, 1.0, 1.0, 0.0, 0.0, 1.0, 1.0, 256.0, 1.0, 1.750529176680804E9, 0.0, 2025-06-21 20:06:16.680
78.0, -44571.18893518316, -38183.39564602324, -30464.243050127396, -74004.14484788715, -28199.38548796004, -29594.156693715657, -53287.139926807875, -101645.38492505372, -187500.02235174447, -187500.02235174447, -49103.72037931924, -47560.06420374682, -78542.82302174844, -49610.14385344313, -89320.34245971948, -32312.7770200702, 0.0, 0.0, 0.0, 193.0, 0.0, 1.0, 1.0, 0.0, 0.0, 1.0, 1.0, 256.0, 1.0, 1.750529176688832E9, 0.0, 2025-06-21 20:06:16.688
80.0, -44554.000443697034, -38162.49676495752, -30445.42288129603, -73979.80379817532, -28186.555586642695, -29597.017717005936, -53265.883417830875, -101622.89907013168, -187500.02235174447, -187500.02235174447, -49087.67182680033, -47538.31595639181, -78539.87259148034, -49577.21973386047, -89356.52993399263, -32272.968563195296, 0.0, 0.0, 0.0, 193.0, 0.0, 1.0, 1.0, 0.0, 0.0, 1.0, 1.0, 256.0, 1.0, 1.750529176696882E9, 0.0, 2025-06-21 20:06:16.696
82.0, -44587.23748770207, -38200.56178576491, -30448.328608075215, -74005.75417348793, -28200.145447271523, -29595.609557105254, -53301.757967681646, -101644.71437272006, -187500.02235174447, -187500.02235174447, -49096.41135888235, -47556.331462422786, -78540.02905369151, -49597.537469570336, -89313.83810208298, -32300.751781553245, 0.0, 0.0, 0.0, 193.0, 0.0, 1.0, 1.0, 0.0, 0.0, 1.0, 1.0, 256.0, 1.0, 1.750529176704895E9, 0.0, 2025-06-21 20:06:16.704
84.0, -44581.64955158825, -38192.15752984971, -30455.525869789824, -73993.39365880414, -28179.648897606006, -29625.650301653186, -53276.54519993606, -101634.05259061487, -187500.02235174447, -187500.02235174447, -49093.05859721406, -47551.90581702063, -78544.11942292684, -49590.74253925592, -89332.50180870316, -32292.526339593693, 0.0, 0.0, 0.0, 193.0, 0.0, 1.0, 1.0, 0.0, 0.0, 1.0, 1.0, 256.0, 1.0, 1.750529176712944E9, 0.0, 2025-06-21 20:06:16.712
86.0, -44600.715589608626, -38198.214852597106, -30448.730939475412, -73997.72989722848, -28196.39035420303, -29548.536783282376, -53272.9242173343, -101634.09729410379, -187500.02235174447, -187500.02235174447, -49088.14121343389, -47548.19542744105, -78540.1855159027, -49581.734786240435, -89342.13541056341, -32283.317420878106, 0.0, 0.0, 0.0, 193.0, 0.0, 1.0, 1.0, 0.0, 0.0, 1.0, 1.0, 256.0, 1.0, 1.75052917672199E9, 0.0, 2025-06-21 20:06:16.721
88.0, -44587.50570863554, -38197.94663166364, -30443.031244639307, -73995.27120533839, -28190.042458777723, -29578.823397019318, -53303.34494153797, -101641.31690756285, -187500.02235174447, -187500.02235174447, -49112.68342884582, -47573.00586378645, -78548.83564100691, -49604.42180686257, -89307.22198572422, -32312.39704041446, 0.0, 0.0, 0.0, 193.0, 0.0, 1.0, 1.0, 0.0, 0.0, 1.0, 1.0, 256.0, 1.0, 1.75052917672802E9, 0.0, 2025-06-21 20:06:16.728
90.0, -44594.770025583515, -38202.90871893272, -30461.672599515034, -73998.82513270678, -28209.399069476018, -29635.842697124805, -53308.038807873585, -101682.26530340497, -187500.02235174447, -187500.02235174447, -49076.94298946178, -47532.772723766895, -78532.80944023245, -49573.486992536426, -89345.80109665408, -32272.320362606093, 0.0, 0.0, 0.0, 193.0, 0.0, 1.0, 1.0, 0.0, 0.0, 1.0, 1.0, 256.0, 1.0, 1.750529176736997E9, 0.0, 2025-06-21 20:06:16.736
92.0, -44652.03519487801, -38254.116565479824, -30484.784303281824, -74032.08452845628, -28238.031654123268, -29599.09642924028, -53335.28558436461, -101673.32460562285, -187500.02235174447, -187500.02235174447, -49134.6998971343, -47584.5840674143, -78571.83558605141, -49630.77451357538, -89346.22577979873, -32332.401851701958, 0.0, 0.0, 0.0, 193.0, 0.0, 1.0, 1.0, 0.0, 0.0, 1.0, 1.0, 256.0, 1.0, 1.750529176745082E9, 0.0, 2025-06-21 20:06:16.745
94.0, -44603.576612898905, -38196.02438164048, -30444.014721395342, -73971.9583358715, -28179.29126969472, -29641.363578005265, -53288.16810705282, -101621.22268929753, -187500.02235174447, -187500.02235174447, -49112.14698697889, -47559.77363106891, -78558.84922252288, -49600.890231238634, -89341.24134078519, -32299.745953052756, 0.0, 0.0, 0.0, 193.0, 0.0, 1.0, 1.0, 0.0, 0.0, 1.0, 1.0, 256.0, 1.0, 1.750529176753088E9, 0.0, 2025-06-21 20:06:16.753
96.0, -44661.08765138241, -38252.84251604587, -30463.661904771558, -74005.15067638764, -28190.891825067025, -29579.1810249306, -53288.9280663643, -101636.82420692733, -187500.02235174447, -187500.02235174447, -49081.16746916383, -47530.55990106582, -78530.55191404247, -49564.23337033193, -89324.79045686609, -32261.14449037844, 0.0, 0.0, 0.0, 193.0, 0.0, 1.0, 1.0, 0.0, 0.0, 1.0, 1.0, 256.0, 1.0, 1.750529176761089E9, 0.0, 2025-06-21 20:06:16.761
98.0, -44704.04770422551, -38286.05720830646, -30489.388762639617, -74021.51215332892, -28208.48264795335, -29566.172309657613, -53293.9795606112, -101644.6920209756, -187500.02235174447, -187500.02235174447, -49159.95736836879, -47609.64037294869, -78595.61784215187, -49636.51891190039, -89343.25299778617, -32340.247314005774, 0.0, 0.0, 0.0, 193.0, 0.0, 1.0, 1.0, 0.0, 0.0, 1.0, 1.0, 256.0, 1.0, 1.750529176769125E9, 0.0, 2025-06-21 20:06:16.769
100.0, -44690.27902964104, -38279.41874020323, -30454.765910478345, -73984.11768485518, -28149.630504802528, -29677.774569722962, -53274.15356327934, -101620.6862474306, -187500.02235174447, -187500.02235174447, -49104.48033863072, -47546.51904660691, -78554.37887363182, -49567.16144885558, -89347.92451237733, -32264.34078983555, 0.0, 0.0, 0.0, 193.0, 0.0, 1.0, 1.0, 0.0, 0.0, 1.0, 1.0, 256.0, 1.0, 1.750529176777157E9, 0.0, 2025-06-21 20:06:16.777
102.0, -44763.07866133197, -38344.551723546, -30477.497634589392, -74033.44798486805, -28232.577828476173, -29609.37823168972, -53329.65294476187, -101671.2458933885, -187500.02235174447, -187500.02235174447, -49142.90298734939, -47588.54032618288, -78578.56346113246, -49608.780397031354, -89319.7836661081, -32315.63804336048, 0.0, 0.0, 0.0, 193.0, 0.0, 1.0, 1.0, 0.0, 0.0, 1.0, 1.0, 256.0, 1.0, 1.750529176784191E9, 0.0, 2025-06-21 20:06:16.784
104.0, -44698.61623032287, -38282.078597793414, -30424.07696534121, -73956.33446649724, -28171.110531224076, -29619.48122018352, -53243.62108035339, -101593.7300436175, -187500.02235174447, -187500.02235174447, -49114.76214108016, -47566.85913406124, -78563.3419231584, -49582.651207763105, -89317.90611957385, -32286.021981957198, 0.0, 0.0, 0.0, 193.0, 0.0, 1.0, 1.0, 0.0, 0.0, 1.0, 1.0, 256.0, 1.0, 1.750529176793214E9, 0.0, 2025-06-21 20:06:16.793
106.0, -44779.99893188464, -38356.37579636285, -30465.7406170059, -74008.65990026711, -28179.023048761257, -29622.81163010736, -53277.37221448091, -101624.46369224355, -187500.02235174447, -187500.02235174447, -49091.65043731337, -47538.785343025374, -78542.71126302615, -49552.00696611488, -89311.17824449281, -32248.38164429446, 0.0, 0.0, 0.0, 193.0, 0.0, 1.0, 1.0, 0.0, 0.0, 1.0, 1.0, 256.0, 1.0, 1.750529176801235E9, 0.0, 2025-06-21 20:06:16.801
108.0, -44806.932783953285, -38376.93940126174, -30484.359620137173, -74025.40135686414, -28178.955993527892, -29646.795051907906, -53294.96303736723, -101652.98451816852, -187500.02235174447, -187500.02235174447, -49177.99522614422, -47622.246756821485, -78612.91809236027, -49641.68216486957, -89340.36962275143, -32345.8352501196, 0.0, 0.0, 0.0, 193.0, 0.0, 1.0, 1.0, 0.0, 0.0, 1.0, 1.0, 256.0, 1.0, 1.750529176808262E9, 0.0, 2025-06-21 20:06:16.808
110.0, -44802.35067633995, -38367.998703479614, -30464.51127106086, -74004.7706967319, -28207.38741247504, -29656.87568865725, -53273.21479001222, -101632.06328535835, -187500.02235174447, -187500.02235174447, -49112.86224280146, -47561.427660158595, -78570.62859185084, -49576.7503472269, -89353.71361419125, -32271.582755039068, 0.0, 0.0, 0.0, 193.0, 0.0, 1.0, 1.0, 0.0, 0.0, 1.0, 1.0, 256.0, 1.0, 1.750529176816325E9, 0.0, 2025-06-21 20:06:16.816
112.0, -44882.19110753431, -38429.89068387636, -30513.61805362917, -74057.94549679107, -28222.184267304456, -29632.86991511225, -53309.245802074176, -101653.02922165743, -187500.02235174447, -187500.02235174447, -49180.96800815678, -47621.4420940211, -78616.5614267065, -49638.843493323744, -89348.32684377753, -32342.72835764031, 0.0, 0.0, 0.0, 193.0, 0.0, 1.0, 1.0, 0.0, 0.0, 1.0, 1.0, 256.0, 1.0, 1.750529176825302E9, 0.0, 2025-06-21 20:06:16.825
114.0, -44837.44291513478, -38394.9102038038, -30482.437370114014, -74006.76000198841, -28202.49238043933, -29706.31774739239, -53254.43932466976, -101612.50550895996, -187500.02235174447, -187500.02235174447, -49167.26638880568, -47600.05147457737, -78609.14064754733, -49612.982524988955, -89355.30058804758, -32312.911130536933, 0.0, 0.0, 0.0, 193.0, 0.0, 1.0, 1.0, 0.0, 0.0, 1.0, 1.0, 256.0, 1.0, 1.750529176833358E9, 0.0, 2025-06-21 20:06:16.833
116.0, -44881.56525868956, -38442.251198560145, -30492.629765585636, -74033.64915056815, -28180.453560406397, -29650.416034509664, -53268.99031031017, -101634.52197724844, -187500.02235174447, -187500.02235174447, -49151.46370547578, -47588.94265758308, -78600.28935674303, -49601.739597527936, -89366.65527423087, -32298.091923963064, 0.0, 0.0, 0.0, 193.0, 0.0, 1.0, 1.0, 0.0, 0.0, 1.0, 1.0, 256.0, 1.0, 1.750529176840361E9, 0.0, 2025-06-21 20:06:16.840
118.0, -44903.17939557784, -38461.0266639026, -30508.790076826823, -74042.6792553281, -28221.49136322634, -29678.06514240088, -53267.51509517612, -101621.0885788308, -187500.02235174447, -187500.02235174447, -49208.32654337008, -47648.86768446776, -78644.23288634216, -49649.68408938457, -89350.89729438988, -32354.30656126816, 0.0, 0.0, 0.0, 193.0, 0.0, 1.0, 1.0, 0.0, 0.0, 1.0, 1.0, 256.0, 1.0, 1.750529176848431E9, 0.0, 2025-06-21 20:06:16.848
120.0, -44877.340778987505, -38445.80512592854, -30467.394646095592, -74005.08362115426, -28194.266938479777, -29719.147648709735, -53244.49279838715, -101605.88939260118, -187500.02235174447, -187500.02235174447, -49140.31018499258, -47581.499526679465, -78599.68585964273, -49582.31593159628, -89363.61543698495, -32277.416560341902, 0.0, 0.0, 0.0, 193.0, 0.0, 1.0, 1.0, 0.0, 0.0, 1.0, 1.0, 256.0, 1.0, 1.750529176857404E9, 0.0, 2025-06-21 20:06:16.857
122.0, -44956.108326448004, -38509.4405423928, -30525.62094040167, -74068.54022366289, -28203.16293277299, -29618.453039938577, -53302.31676129303, -101662.03697467291, -187500.02235174447, -187500.02235174447, -49180.811545945595, -47621.39739053218, -78620.87531338636, -49620.738580314945, -89328.36673597894, -32326.322177210117, 0.0, 0.0, 0.0, 193.0, 0.0, 1.0, 1.0, 0.0, 0.0, 1.0, 1.0, 256.0, 1.0, 1.750529176864521E9, 0.0, 2025-06-21 20:06:16.864
124.0, -44901.79358742161, -38468.80507097305, -30483.331439892227, -74015.09720267025, -28192.590557645628, -29731.575218626884, -53250.77363857909, -101607.00697982396, -187500.02235174447, -187500.02235174447, -49205.778444502175, -47640.44107680811, -78651.63131375686, -49639.44699042404, -89380.11102439297, -32339.085023294097, 0.0, 0.0, 0.0, 193.0, 0.0, 1.0, 1.0, 0.0, 0.0, 1.0, 1.0, 256.0, 1.0, 1.750529176872521E9, 0.0, 2025-06-21 20:06:16.872
126.0, -44941.13265766295, -38508.01003074766, -30496.384858654128, -74050.79293856537, -28203.58761591764, -29689.039848928434, -53284.54712445106, -101632.10798884726, -187500.02235174447, -187500.02235174447, -49148.8485513745, -47595.84934661977, -78604.78205737854, -49590.63078053365, -89350.45025950078, -32288.68183954738, 0.0, 0.0, 0.0, 193.0, 0.0, 1.0, 1.0, 0.0, 0.0, 1.0, 1.0, 256.0, 1.0, 1.750529176881553E9, 0.0, 2025-06-21 20:06:16.881
128.0, -44958.54466659363, -38519.47647565323, -30523.385765956136, -74061.90175555967, -28192.702316367904, -29691.58794779634, -53296.68412169029, -101649.45294254458, -187500.02235174447, -187500.02235174447, -49215.50145334023, -47659.88709448423, -78654.22411611368, -49659.11652554471, -89354.60768396947, -32365.34832302908, 0.0, 0.0, 0.0, 193.0, 0.0, 1.0, 1.0, 0.0, 0.0, 1.0, 1.0, 256.0, 1.0, 1.750529176889561E9, 0.0, 2025-06-21 20:06:16.889
130.0, -44921.865453942475, -38492.63203056241, -30487.712381805468, -74020.88630448417, -28198.491418181828, -29707.54709333743, -53264.16233350782, -101616.8864508732, -187500.02235174447, -187500.02235174447, -49163.8018684151, -47601.973724600524, -78621.36705176438, -49599.41501610458, -89383.21791687227, -32292.705153549334, 0.0, 0.0, 0.0, 193.0, 0.0, 1.0, 1.0, 0.0, 0.0, 1.0, 1.0, 256.0, 1.0, 1.750529176896704E9, 0.0, 2025-06-21 20:06:16.896
132.0, -45018.29087952267, -38578.39567403742, -30561.920173397088, -74106.40407877018, -28242.21143033641, -29672.34309582032, -53327.70834299426, -101679.58309407033, -187500.02235174447, -187500.02235174447, -49226.65497382343, -47667.08435619884, -78666.67403777529, -49667.811354137826, -89381.54153603812, -32372.389122532502, 0.0, 0.0, 0.0, 193.0, 0.0, 1.0, 1.0, 0.0, 0.0, 1.0, 1.0, 256.0, 1.0, 1.750529176904667E9, 0.0, 2025-06-21 20:06:16.904
134.0, -44925.88876794443, -38504.63491733491, -30485.991297482407, -74021.31098762882, -28179.403028416997, -29725.137916223757, -53261.413068939815, -101614.83009038332, -187500.02235174447, -187500.02235174447, -49212.752188772225, -47651.86281822477, -78663.29892436253, -49646.82306609429, -89388.26941111915, -32347.13165129801, 0.0, 0.0, 0.0, 193.0, 0.0, 1.0, 1.0, 0.0, 0.0, 1.0, 1.0, 256.0, 1.0, 1.750529176913662E9, 0.0, 2025-06-21 20:06:16.913
136.0, -44980.98581802676, -38548.06435681157, -30509.237111715927, -74062.5276044044, -28213.735307900348, -29709.826971271872, -53303.8813834049, -101642.00981164096, -187500.02235174447, -187500.02235174447, -49162.37135676997, -47607.96399211455, -78618.41662149628, -49603.01364696189, -89357.31224504855, -32301.131761208984, 0.0, 0.0, 0.0, 193.0, 0.0, 1.0, 1.0, 0.0, 0.0, 1.0, 1.0, 256.0, 1.0, 1.750529176920692E9, 0.0, 2025-06-21 20:06:16.920
138.0, -44983.4668616613, -38554.3004935146, -30516.5014286639, -74063.28756371589, -28204.079354295656, -29724.467363890097, -53309.31285730754, -101653.69977399109, -187500.02235174447, -187500.02235174447, -49225.11270345601, -47666.61496956527, -78664.26004937412, -49666.35849074823, -89361.44731777279, -32373.93139289992, 0.0, 0.0, 0.0, 193.0, 0.0, 1.0, 1.0, 0.0, 0.0, 1.0, 1.0, 256.0, 1.0, 1.750529176928718E9, 0.0, 2025-06-21 20:06:16.928
140.0, -44947.90523623291, -38527.47840016823, -30479.17401542354, -74020.99806320644, -28175.58088011514, -29710.855151516815, -53267.93977832077, -101616.30530551737, -187500.02235174447, -187500.02235174447, -49166.551132983106, -47613.39546601719, -78630.21834256868, -49606.45581560801, -89384.87194596195, -32305.065668233117, 0.0, 0.0, 0.0, 193.0, 0.0, 1.0, 1.0, 0.0, 0.0, 1.0, 1.0, 256.0, 1.0, 1.75052917693684E9, 0.0, 2025-06-21 20:06:16.936
142.0, -45027.008059860236, -38591.53849977714, -30532.818202116276, -74085.50519770446, -28212.461258466396, -29689.26336637299, -53323.05918014755, -101670.57534105485, -187500.02235174447, -187500.02235174447, -49188.92522918287, -47638.9435099296, -78635.73922344914, -49631.33330718676, -89338.84970412847, -32338.21330526034, 0.0, 0.0, 0.0, 193.0, 0.0, 1.0, 1.0, 0.0, 0.0, 1.0, 1.0, 256.0, 1.0, 1.750529176945786E9, 0.0, 2025-06-21 20:06:16.945
144.0, -44983.243344216746, -38559.1508220614, -30513.595701884715, -74033.4703366125, -28188.29902271021, -29744.89685832225, -53259.49081891666, -101621.22268929753, -187500.02235174447, -187500.02235174447, -49222.609308077015, -47659.23889389502, -78672.35138086694, -49648.16417076161, -89390.45988207578, -32349.679750165913, 0.0, 0.0, 0.0, 193.0, 0.0, 1.0, 1.0, 0.0, 0.0, 1.0, 1.0, 256.0, 1.0, 1.750529176952821E9, 0.0, 2025-06-21 20:06:16.952
146.0, -45032.23836806278, -38605.44128482834, -30540.95423709801, -74090.71315416256, -28221.37960450406, -29685.843549471327, -53311.21275558624, -101649.92232917814, -187500.02235174447, -187500.02235174447, -49197.35183684252, -47642.81036172037, -78653.33004633547, -49619.82215879228, -89383.28497210563, -32318.521418395212, 0.0, 0.0, 0.0, 193.0, 0.0, 1.0, 1.0, 0.0, 0.0, 1.0, 1.0, 256.0, 1.0, 1.750529176960872E9, 0.0, 2025-06-21 20:06:16.960
148.0, -45028.10329533855, -38602.468502815784, -30550.90076338062, -74084.92405234862, -28252.984971163867, -29738.526611152487, -53310.1845753413, -101667.69196602011, -187500.02235174447, -187500.02235174447, -49260.94254981787, -47702.5565746494, -78704.33672718248, -49691.571258493816, -89384.38020758393, -32398.786532734222, 0.0, 0.0, 0.0, 193.0, 0.0, 1.0, 1.0, 0.0, 0.0, 1.0, 1.0, 256.0, 1.0, 1.750529176968904E9, 0.0, 2025-06-21 20:06:16.968
150.0, -44979.93528603736, -38567.68918844333, -30497.547149365804, -74034.76673779091, -28172.161063213476, -29766.399236488254, -53281.462583716224, -101629.76105567945, -187500.02235174447, -187500.02235174447, -49190.84747920603, -47630.60630924777, -78652.6147905129, -49618.27988842486, -89398.48415833524, -32312.374688670003, 0.0, 0.0, 0.0, 193.0, 0.0, 1.0, 1.0, 0.0, 0.0, 1.0, 1.0, 256.0, 1.0, 1.750529176975935E9, 0.0, 2025-06-21 20:06:16.975
152.0, -45029.109123839036, -38602.78142723816, -30533.71227189449, -74088.1874070391, -28216.663386423992, -29664.58704049433, -53338.14660765489, -101680.16423942617, -187500.02235174447, -187500.02235174447, -49204.59380204604, -47649.649995523694, -78649.48554628916, -49646.95717656102, -89346.98573911021, -32353.658360678957, 0.0, 0.0, 0.0, 193.0, 0.0, 1.0, 1.0, 0.0, 0.0, 1.0, 1.0, 256.0, 1.0, 1.750529176984872E9, 0.0, 2025-06-21 20:06:16.984
154.0, -44983.243344216746, -38564.09055758602, -30509.818257071765, -74044.08741522877, -28219.882037625557, -29738.034872774468, -53288.03399658609, -101640.53459650691, -187500.02235174447, -187500.02235174447, -49220.35178188703, -47662.63635905223, -78671.27849713308, -49659.63061566718, -89395.51137632268, -32361.07913983812, 0.0, 0.0, 0.0, 193.0, 0.0, 1.0, 1.0, 0.0, 0.0, 1.0, 1.0, 256.0, 1.0, 1.750529176992986E9, 0.0, 2025-06-21 20:06:16.992
156.0, -45038.56391174364, -38621.35572688052, -30546.34100751174, -74093.57417745283, -28241.317360558198, -29739.063053019414, -53324.2885260926, -101677.48203009153, -187500.02235174447, -187500.02235174447, -49186.332426826055, -47633.71320172706, -78643.42822354176, -49626.77355131788, -89382.56971628306, -32324.511685909238, 0.0, 0.0, 0.0, 193.0, 0.0, 1.0, 1.0, 0.0, 0.0, 1.0, 1.0, 256.0, 1.0, 1.750529177000978E9, 0.0, 2025-06-21 20:06:17.000
158.0, -45026.71748718232, -38603.85431097201, -30543.167059799085, -74079.40317146816, -28230.946151130935, -29762.80060563095, -53313.492633520684, -101663.53454155142, -187500.02235174447, -187500.02235174447, -49260.49551492876, -47700.18728973714, -78700.69339283627, -49696.68980797408, -89393.16444315488, -32401.60285253559, 0.0, 0.0, 0.0, 193.0, 0.0, 1.0, 1.0, 0.0, 0.0, 1.0, 1.0, 256.0, 1.0, 1.750529177008008E9, 0.0, 2025-06-21 20:06:17.008
160.0, -44992.76518735471, -38584.520052018175, -30511.785210583832, -74040.6228948382, -28191.562377400685, -29758.799643373448, -53289.28569427558, -101644.98259365352, -187500.02235174447, -187500.02235174447, -49185.63952274794, -47622.71614345505, -78647.65270324382, -49607.0593127083, -89379.5969342705, -32303.47869437679, 0.0, 0.0, 0.0, 193.0, 0.0, 1.0, 1.0, 0.0, 0.0, 1.0, 1.0, 256.0, 1.0, 1.75052917701705E9, 0.0, 2025-06-21 20:06:17.017
162.0, -45061.80972597715, -38642.38871841296, -30563.417740275592, -74115.18831434111, -28234.813002921703, -29656.763929934972, -53345.455628091775, -101688.747309297, -187500.02235174447, -187500.02235174447, -49243.46348565382, -47686.48567038604, -78688.64580257486, -49668.50425821594, -89372.1985068558, -32373.21613707735, 0.0, 0.0, 0.0, 193.0, 0.0, 1.0, 1.0, 0.0, 0.0, 1.0, 1.0, 256.0, 1.0, 1.750529177025057E9, 0.0, 2025-06-21 20:06:17.025
164.0, -44985.7690913402, -38572.852441412506, -30515.04856527431, -74037.78422329239, -28195.451580935907, -29765.773387643505, -53263.69294687426, -101616.39471249518, -187500.02235174447, -187500.02235174447, -49228.37605814649, -47672.33701614583, -78682.38731412737, -49651.9192638301, -89386.66008551838, -32353.21132578985, 0.0, 0.0, 0.0, 193.0, 0.0, 1.0, 1.0, 0.0, 0.0, 1.0, 1.0, 256.0, 1.0, 1.750529177032055E9, 0.0, 2025-06-21 20:06:17.032
166.0, -45029.176179072405, -38619.65699430192, -30534.874562606165, -74078.82202611232, -28203.855836851104, -29688.816331483882, -53315.79486319958, -101658.41599207115, -187500.02235174447, -187500.02235174447, -49179.44808953382, -47617.70935269706, -78632.29705480303, -49606.94755398602, -89359.07803286053, -32303.746915310257, 0.0, 0.0, 0.0, 193.0, 0.0, 1.0, 1.0, 0.0, 0.0, 1.0, 1.0, 256.0, 1.0, 1.750529177041128E9, 0.0, 2025-06-21 20:06:17.041
168.0, -45037.02164137622, -38625.69196530485, -30555.035836104853, -74091.62957568522, -28259.086997400165, -29735.151497739735, -53324.10971213695, -101677.77260276946, -187500.02235174447, -187500.02235174447, -49259.31087247263, -47703.85297582782, -78699.70991608023, -49704.87054644473, -89396.80777750109, -32408.487189827825, 0.0, 0.0, 0.0, 193.0, 0.0, 1.0, 1.0, 0.0, 0.0, 1.0, 1.0, 256.0, 1.0, 1.750529177049154E9, 0.0, 2025-06-21 20:06:17.049
170.0, -45015.407504487936, -38604.59191853904, -30535.500411450914, -74061.90175555967, -28248.69343622845, -29768.165024300222, -53307.70353170676, -101659.33241359383, -187500.02235174447, -187500.02235174447, -49194.60257227452, -47631.36626855925, -78653.4641568022, -49637.41298167861, -89412.54340559762, -32329.20555224485, 0.0, 0.0, 0.0, 193.0, 0.0, 1.0, 1.0, 0.0, 0.0, 1.0, 1.0, 256.0, 1.0, 1.750529177057133E9, 0.0, 2025-06-21 20:06:17.057
172.0, -45052.89137993949, -38633.380965397475, -30546.296304022828, -74089.48380821751, -28246.21239259391, -29703.993165969037, -53341.76759025665, -101678.19728591411, -187500.02235174447, -187500.02235174447, -49243.15056123144, -47674.86276326928, -78681.29207864906, -49686.83268866929, -89394.349085611, -32385.643706994502, 0.0, 0.0, 0.0, 193.0, 0.0, 1.0, 1.0, 0.0, 0.0, 1.0, 1.0, 256.0, 1.0, 1.750529177064199E9, 0.0, 2025-06-21 20:06:17.064
174.0, -45011.29478350816, -38599.24985161422, -30536.28272250685, -74054.81625256733, -28229.24741855233, -29766.801567888448, -53290.425633242805, -101644.75907620897, -187500.02235174447, -187500.02235174447, -49222.98928773276, -47655.57320780435, -78672.10551167793, -49662.268121512905, -89403.24507990421, -32357.100529325075, 0.0, 0.0, 0.0, 193.0, 0.0, 1.0, 1.0, 0.0, 0.0, 1.0, 1.0, 256.0, 1.0, 1.750529177072248E9, 0.0, 2025-06-21 20:06:17.072
176.0, -45039.81560943313, -38624.84259901555, -30530.314806737282, -74073.32349697631, -28206.985081074847, -29703.054392701913, -53307.770586940125, -101657.43251531513, -187500.02235174447, -187500.02235174447, -49200.05639792161, -47632.34974531529, -78651.25133410112, -49637.189464234056, -89397.23246064574, -32329.40671794495, 0.0, 0.0, 0.0, 193.0, 0.0, 1.0, 1.0, 0.0, 0.0, 1.0, 1.0, 256.0, 1.0, 1.750529177081234E9, 0.0, 2025-06-21 20:06:17.081
178.0, -45048.28692058169, -38639.21477070031, -30548.15149881262, -74085.6393081712, -28222.944226615935, -29718.812372542903, -53317.40418880036, -101667.93783520912, -187500.02235174447, -187500.02235174447, -49241.2730146972, -47677.969655748566, -78680.19684317075, -49674.94156061907, -89367.77286145365, -32377.820596435144, 0.0, 0.0, 0.0, 193.0, 0.0, 1.0, 1.0, 0.0, 0.0, 1.0, 1.0, 256.0, 1.0, 1.750529177088265E9, 0.0, 2025-06-21 20:06:17.088
180.0, -45041.51434201173, -38636.15258170993, -30535.098080050717, -74077.07859004481, -28230.722633686382, -29783.788893674482, -53300.014531614135, -101664.2945008629, -187500.02235174447, -187500.02235174447, -49205.82314799108, -47651.72870775804, -78669.6691715323, -49637.792961334344, -89401.79221651462, -32334.994654058773, 0.0, 0.0, 0.0, 193.0, 0.0, 1.0, 1.0, 0.0, 0.0, 1.0, 1.0, 256.0, 1.0, 1.75052917709627E9, 0.0, 2025-06-21 20:06:17.096
182.0, -45084.87672625503, -38670.5295646822, -30568.201013589027, -74123.32434932284, -28212.17068578848, -29679.428598812654, -53332.31280235205, -101704.72880658256, -187500.02235174447, -187500.02235174447, -49245.25162521024, -47691.49246114403, -78687.10353220745, -49683.055243856346, -89378.94873368129, -32389.242337851807, 0.0, 0.0, 0.0, 193.0, 0.0, 1.0, 1.0, 0.0, 0.0, 1.0, 1.0, 256.0, 1.0, 1.750529177105286E9, 0.0, 2025-06-21 20:06:17.105
184.0, -45017.79914114466, -38611.58801455355, -30525.866809590676, -74055.06212175633, -28226.609912706605, -29742.281704220975, -53262.664766629314, -101623.54727072088, -187500.02235174447, -187500.02235174447, -49238.88137804048, -47683.93757151814, -78690.5233491091, -49673.93573211858, -89409.23534741823, -32373.59611673309, 0.0, 0.0, 0.0, 193.0, 0.0, 1.0, 1.0, 0.0, 0.0, 1.0, 1.0, 256.0, 1.0, 1.750529177112268E9, 0.0, 2025-06-21 20:06:17.112
186.0, -45056.847638708074, -38654.436308674376, -30527.073803791263, -74078.44204645659, -28213.62354917807, -29738.817183830404, -53322.61214525845, -101690.17782094215, -187500.02235174447, -187500.02235174447, -49189.461671049794, -47632.32739357083, -78646.13278462086, -49624.82894955027, -89376.35593132448, -32322.947063797365, 0.0, 0.0, 0.0, 193.0, 0.0, 1.0, 1.0, 0.0, 0.0, 1.0, 1.0, 256.0, 1.0, 1.750529177120329E9, 0.0, 2025-06-21 20:06:17.120
188.0, -45058.00992941975, -38650.07771850559, -30553.650027948624, -74085.28168025991, -28202.11240078359, -29700.081610689358, -53315.19136609929, -101649.76586696695, -187500.02235174447, -187500.02235174447, -49258.550913161154, -47694.66640885668, -78697.56414861252, -49688.73258694799, -89384.73783549522, -32391.522215786248, 0.0, 0.0, 0.0, 193.0, 0.0, 1.0, 1.0, 0.0, 0.0, 1.0, 1.0, 256.0, 1.0, 1.750529177128335E9, 0.0, 2025-06-21 20:06:17.128
190.0, -45018.35793475604, -38616.326584378075, -30513.28277746234, -74047.99897050846, -28239.618627979595, -29749.903649080235, -53286.60348494095, -101634.94666039309, -187500.02235174447, -187500.02235174447, -49191.585086773055, -47634.987251161016, -78656.23577311466, -49629.58987111925, -89407.24604216171, -32320.44366841837, 0.0, 0.0, 0.0, 193.0, 0.0, 1.0, 1.0, 0.0, 0.0, 1.0, 1.0, 256.0, 1.0, 1.750529177137377E9, 0.0, 2025-06-21 20:06:17.137
192.0, -45112.1458544905, -38701.64319296398, -30585.233042863973, -74136.243657618, -28284.098599445653, -29699.12048567778, -53373.17179121635, -101707.83569906185, -187500.02235174447, -187500.02235174447, -49254.9746340483, -47701.751911849016, -78702.28036669259, -49705.630505756206, -89412.49870210871, -32406.07320142665, 0.0, 0.0, 0.0, 193.0, 0.0, 1.0, 1.0, 0.0, 0.0, 1.0, 1.0, 256.0, 1.0, 1.750529177144398E9, 0.0, 2025-06-21 20:06:17.144
194.0, -45048.77865895971, -38642.56753236861, -30551.258391291907, -74070.86480508624, -28252.135604874566, -29759.31373349592, -53287.40814774134, -101645.78725645391, -187500.02235174447, -187500.02235174447, -49241.78710481967, -47680.96478950558, -78692.825578788, -49677.75788042044, -89418.77954230065, -32373.059674866163, 0.0, 0.0, 0.0, 193.0, 0.0, 1.0, 1.0, 0.0, 0.0, 1.0, 1.0, 256.0, 1.0, 1.750529177152418E9, 0.0, 2025-06-21 20:06:17.152
196.0, -45078.797051763184, -38681.9289543544, -30550.364321513694, -74099.40798275567, -28241.853802425125, -29698.964023466593, -53342.97458445723, -101688.97082674156, -187500.02235174447, -187500.02235174447, -49224.59861333354, -47661.58582706283, -78676.10647393543, -49658.93771158907, -89414.17508294286, -32352.7866426452, 0.0, 0.0, 0.0, 193.0, 0.0, 1.0, 1.0, 0.0, 0.0, 1.0, 1.0, 256.0, 1.0, 1.750529177161419E9, 0.0, 2025-06-21 20:06:17.161
198.0, -45063.39669983348, -38661.633570388985, -30546.676283678567, -74078.8890813457, -28193.216406490377, -29692.414962341187, -53313.73850270969, -101671.46941083306, -187500.02235174447, -187500.02235174447, -49264.31766323062, -47706.60224039582, -78706.79541907256, -49698.58970625278, -89392.51624256566, -32400.93230020193, 0.0, 0.0, 0.0, 193.0, 0.0, 1.0, 1.0, 0.0, 0.0, 1.0, 1.0, 256.0, 1.0, 1.750529177168467E9, 0.0, 2025-06-21 20:06:17.168
200.0, -45028.95266162785, -38639.77356431169, -30508.07482100425, -74041.33815066077, -28220.932569614957, -29726.009634257513, -53273.81828711251, -101626.90003238918, -187500.02235174447, -187500.02235174447, -49194.28964785214, -47635.680155239126, -78656.59340102595, -49615.9106035126, -89393.2985536216, -32308.82076130161, 0.0, 0.0, 0.0, 193.0, 0.0, 1.0, 1.0, 0.0, 0.0, 1.0, 1.0, 256.0, 1.0, 1.750529177176464E9, 0.0, 2025-06-21 20:06:17.176
202.0, -45128.440276198424, -38725.06782115315, -30579.689810239055, -74134.65668376168, -28277.21426215342, -29676.344058077822, -53364.16403820086, -101734.8589581083, -187500.02235174447, -187500.02235174447, -49244.55872113213, -47697.683894358146, -78696.24539568966, -49670.82883963929, -89380.40159707089, -32372.657343465966, 0.0, 0.0, 0.0, 193.0, 0.0, 1.0, 1.0, 0.0, 0.0, 1.0, 1.0, 256.0, 1.0, 1.750529177184461E9, 0.0, 2025-06-21 20:06:17.184
204.0, -45041.31317631164, -38648.334282438074, -30524.883332834645, -74050.74823507646, -28221.469011481884, -29771.808358646438, -53293.48782223318, -101650.23525360052, -187500.02235174447, -187500.02235174447, -49251.44305842437, -47698.57796413636, -78709.76820108511, -49684.26223805693, -89425.99915575972, -32382.335648815115, 0.0, 0.0, 0.0, 193.0, 0.0, 1.0, 1.0, 0.0, 0.0, 1.0, 1.0, 256.0, 1.0, 1.750529177193549E9, 0.0, 2025-06-21 20:06:17.193
206.0, -45078.35001687408, -38686.04167533418, -30532.95231258301, -74082.95709883656, -28212.751831144316, -29688.704572761606, -53326.45664530476, -101667.244931131, -187500.02235174447, -187500.02235174447, -49200.794005488635, -47644.01735592096, -78658.33683709346, -49634.08257175476, -89389.83403323103, -32329.898456322964, 0.0, 0.0, 0.0, 193.0, 0.0, 1.0, 1.0, 0.0, 0.0, 1.0, 1.0, 256.0, 1.0, 1.750529177200646E9, 0.0, 2025-06-21 20:06:17.200
208.0, -45070.52690631472, -38680.47609096481, -30552.398330259126, -74081.41482846915, -28204.124057784567, -29694.381915853253, -53317.51594752264, -101662.43930607311, -187500.02235174447, -187500.02235174447, -49258.39445094996, -47693.23589721154, -78696.80418930104, -49687.704406703044, -89387.73296925223, -32387.633012251023, 0.0, 0.0, 0.0, 193.0, 0.0, 1.0, 1.0, 0.0, 0.0, 1.0, 1.0, 256.0, 1.0, 1.750529177208682E9, 0.0, 2025-06-21 20:06:17.208
210.0, -45046.655243236455, -38662.34882621156, -30517.57431239776, -74055.46445315653, -28234.79065117725, -29716.711308564107, -53299.388682769386, -101652.47042804604, -187500.02235174447, -187500.02235174447, -49204.54909855713, -47644.62085302125, -78666.5175755641, -49634.2166822215, -89417.48314112224, -32322.745898097266, 0.0, 0.0, 0.0, 193.0, 0.0, 1.0, 1.0, 0.0, 0.0, 1.0, 1.0, 256.0, 1.0, 1.750529177216716E9, 0.0, 2025-06-21 20:06:17.216
212.0, -45113.621069624554, -38722.452667051875, -30571.531423512868, -74118.51872426496, -28275.135549919076, -29648.382025764233, -53337.23018613222, -101683.27113190547, -187500.02235174447, -187500.02235174447, -49239.239005951764, -47690.15135647671, -78689.36105839742, -49673.28753152937, -89377.25000110269, -32373.79728243319, 0.0, 0.0, 0.0, 193.0, 0.0, 1.0, 1.0, 0.0, 0.0, 1.0, 1.0, 256.0, 1.0, 1.750529177224666E9, 0.0, 2025-06-21 20:06:17.224
214.0, -45066.078909168114, -38680.0290560757, -30558.701522195523, -74079.67139240162, -28233.91893314349, -29761.9735910861, -53319.50525277916, -101667.06611717536, -187500.02235174447, -187500.02235174447, -49251.01837527972, -47688.944362276125, -78703.19678821525, -49673.57810420729, -89419.94183301233, -32365.8400614071, 0.0, 0.0, 0.0, 193.0, 0.0, 1.0, 1.0, 0.0, 0.0, 1.0, 1.0, 256.0, 1.0, 1.750529177232719E9, 0.0, 2025-06-21 20:06:17.232
216.0, -45107.74256083281, -38723.503199041275, -30567.262240321907, -74111.9473113951, -28240.669159968995, -29685.396514582222, -53347.57904381503, -101695.4081291447, -187500.02235174447, -187500.02235174447, -49248.51497990072, -47684.76458606298, -78705.49901789415, -49671.65585418414, -89421.81937954658, -32363.426073005925, 0.0, 0.0, 0.0, 193.0, 0.0, 1.0, 1.0, 0.0, 0.0, 1.0, 1.0, 256.0, 1.0, 1.750529177240723E9, 0.0, 2025-06-21 20:06:17.240
218.0, -45083.80384252118, -38697.37400977302, -30561.316676296792, -74095.58583445381, -28244.40190129303, -29682.468436058574, -53324.824967959525, -101675.73859402402, -187500.02235174447, -187500.02235174447, -49277.70635815935, -47719.96858358009, -78723.20159950276, -49712.91717444863, -89411.55992884158, -32409.515370072768, 0.0, 0.0, 0.0, 193.0, 0.0, 1.0, 1.0, 0.0, 0.0, 1.0, 1.0, 256.0, 1.0, 1.750529177249786E9, 0.0, 2025-06-21 20:06:17.249
220.0, -45046.14115311398, -38666.305084980144, -30525.039795045832, -74058.01255202443, -28220.01614809229, -29706.518913092485, -53293.35371176645, -101654.01269841347, -187500.02235174447, -187500.02235174447, -49210.9640492158, -47653.919178714656, -78676.48645359116, -49639.49169391295, -89410.12941719645, -32328.892627822475, 0.0, 0.0, 0.0, 193.0, 0.0, 1.0, 1.0, 0.0, 0.0, 1.0, 1.0, 256.0, 1.0, 1.750529177255784E9, 0.0, 2025-06-21 20:06:17.255
222.0, -45066.19066789039, -38685.259364278245, -30521.195294999518, -74072.1835580091, -28213.645900922525, -29617.91659807165, -53311.682142219805, -101652.87275944624, -187500.02235174447, -187500.02235174447, -49221.73759004326, -47669.43128936664, -78670.00444769913, -49653.68505164207, -89354.7417944362, -32351.959628100354, 0.0, 0.0, 0.0, 193.0, 0.0, 1.0, 1.0, 0.0, 0.0, 1.0, 1.0, 256.0, 1.0, 1.750529177264768E9, 0.0, 2025-06-21 20:06:17.264
224.0, -45043.928330412906, -38664.785166357186, -30521.37410895516, -74049.38477866468, -28226.185229561954, -29736.760823340515, -53304.88721190539, -101656.65020425919, -187500.02235174447, -187500.02235174447, -49213.40038936143, -47659.507114828484, -78669.17743315428, -49642.44212418105, -89384.00022792819, -32335.106412781053, 0.0, 0.0, 0.0, 193.0, 0.0, 1.0, 1.0, 0.0, 0.0, 1.0, 1.0, 256.0, 1.0, 1.750529177272837E9, 0.0, 2025-06-21 20:06:17.272
226.0, -45072.11388017105, -38687.919221868426, -30520.815315343778, -74072.94351732059, -28227.615741207093, -29657.434482268633, -53335.84437797599, -101684.96986448407, -187500.02235174447, -187500.02235174447, -49193.797909474124, -47640.642242508206, -78651.89953469032, -49625.8124263063, -89377.38411156942, -32318.186142228384, 0.0, 0.0, 0.0, 193.0, 0.0, 1.0, 1.0, 0.0, 0.0, 1.0, 1.0, 256.0, 1.0, 1.750529177280928E9, 0.0, 2025-06-21 20:06:17.280
228.0, -45033.020679118716, -38655.10686100803, -30515.160323996584, -74051.50819438793, -28205.44281070743, -29666.330476561845, -53318.92410742332, -101664.47331481855, -187500.02235174447, -187500.02235174447, -49238.43434315138, -47684.6528273407, -78681.04620946005, -49677.377900764695, -89376.04300690211, -32374.512538255756, 0.0, 0.0, 0.0, 193.0, 0.0, 1.0, 1.0, 0.0, 0.0, 1.0, 1.0, 256.0, 1.0, 1.750529177288908E9, 0.0, 2025-06-21 20:06:17.288
230.0, -45003.784597371174, -38621.556892580615, -30499.625861600147, -74024.19436266356, -28200.033688549243, -29676.4558168001, -53296.438252501284, -101655.59967226979, -187500.02235174447, -187500.02235174447, -49167.02051961667, -47605.259431035454, -78626.10562158891, -49600.84552774973, -89380.44630055981, -32287.89952849144, 0.0, 0.0, 0.0, 193.0, 0.0, 1.0, 1.0, 0.0, 0.0, 1.0, 1.0, 256.0, 1.0, 1.750529177296936E9, 0.0, 2025-06-21 20:06:17.296
232.0, -45046.163504858436, -38655.263323219224, -30527.118507280175, -74070.1271975192, -28227.749851673827, -29589.75340005796, -53338.70540126627, -101690.15546919769, -187500.02235174447, -187500.02235174447, -49209.466482337295, -47648.06302166737, -78651.65366550132, -49656.054336554334, -89365.42592828584, -32351.423186233427, 0.0, 0.0, 0.0, 193.0, 0.0, 1.0, 1.0, 0.0, 0.0, 1.0, 1.0, 256.0, 1.0, 1.750529177304963E9, 0.0, 2025-06-21 20:06:17.304
234.0, -45006.444454961354, -38621.713354791806, -30529.957178825996, -74045.13794721817, -28220.39612774803, -29676.813444711384, -53318.92410742332, -101660.80762872788, -187500.02235174447, -187500.02235174447, -49204.4149880904, -47642.98917567601, -78656.97338068168, -49646.55484516083, -89389.58816404203, -32339.040319805186, 0.0, 0.0, 0.0, 193.0, 0.0, 1.0, 1.0, 0.0, 0.0, 1.0, 1.0, 256.0, 1.0, 1.750529177311992E9, 0.0, 2025-06-21 20:06:17.311
236.0, -45047.6834234814, -38666.48389893579, -30560.9143448966, -74101.0843635898, -28249.319285073198, -29612.641586380196, -53330.72582849572, -101686.8474110183, -187500.02235174447, -187500.02235174447, -49225.38092438948, -47656.42257409365, -78673.75954076763, -49647.60537715023, -89402.37336187046, -32341.78958437319, 0.0, 0.0, 0.0, 193.0, 0.0, 1.0, 1.0, 0.0, 0.0, 1.0, 1.0, 256.0, 1.0, 1.750529177320998E9, 0.0, 2025-06-21 20:06:17.320
238.0, -45040.508513511246, -38659.06311977663, -30563.082464108764, -74101.35258452328, -28247.91112517251, -29666.911621917683, -53332.35750584096, -101685.08162320634, -187500.02235174447, -187500.02235174447, -49264.764698119725, -47713.73244687706, -78712.47276216421, -49708.55858427985, -89404.42972236035, -32409.671832283955, 0.0, 0.0, 0.0, 193.0, 0.0, 1.0, 1.0, 0.0, 0.0, 1.0, 1.0, 256.0, 1.0, 1.750529177329019E9, 0.0, 2025-06-21 20:06:17.329
240.0, -44975.844916802045, -38608.25760462971, -30514.64623387411, -74054.4809764005, -28225.73819467285, -29676.43346505564, -53297.33232227949, -101649.58705301132, -187500.02235174447, -187500.02235174447, -49187.60647626001, -47638.89880644069, -78655.319351592, -49628.27111819638, -89395.57843155604, -32320.466020162825, 0.0, 0.0, 0.0, 193.0, 0.0, 1.0, 1.0, 0.0, 0.0, 1.0, 1.0, 256.0, 1.0, 1.750529177336043E9, 0.0, 2025-06-21 20:06:17.336
242.0, -45022.96239411383, -38651.79880282865, -30544.7093301665, -74100.68203218962, -28246.100633871632, -29592.90499602616, -53344.13687516891, -101675.29155913492, -187500.02235174447, -187500.02235174447, -49218.83186326407, -47678.28258017094, -78670.67500003279, -49679.680130443594, -89377.29470459161, -32378.155872601972, 0.0, 0.0, 0.0, 193.0, 0.0, 1.0, 1.0, 0.0, 0.0, 1.0, 1.0, 256.0, 1.0, 1.750529177344077E9, 0.0, 2025-06-21 20:06:17.344
244.0, -44968.24532368724, -38598.579299280565, -30517.037870530832, -74044.48974662897, -28212.751831144316, -29649.186688564623, -53317.51594752264, -101652.80570421288, -187500.02235174447, -187500.02235174447, -49211.03110444917, -47663.217504408065, -78669.33389536547, -49660.27881625639, -89395.22080364476, -32353.21132578985, 0.0, 0.0, 0.0, 193.0, 0.0, 1.0, 1.0, 0.0, 0.0, 1.0, 1.0, 256.0, 1.0, 1.750529177353091E9, 0.0, 2025-06-21 20:06:17.353
246.0, -45024.75053367025, -38652.08937550657, -30542.652969676612, -74094.55765420887, -28240.088014613157, -29622.833981851814, -53372.25536969368, -101710.09322525183, -187500.02235174447, -187500.02235174447, -49195.04960716362, -47646.632510022224, -78654.93937193626, -49648.58885390626, -89395.44432108931, -32341.901343095466, 0.0, 0.0, 0.0, 193.0, 0.0, 1.0, 1.0, 0.0, 0.0, 1.0, 1.0, 256.0, 1.0, 1.750529177361125E9, 0.0, 2025-06-21 20:06:17.361
248.0, -45020.436646990376, -38635.1691049539, -30569.609173489713, -74092.76951465243, -28265.300782358743, -29619.749441116983, -53360.073668965546, -101699.67731233565, -187500.02235174447, -187500.02235174447, -49240.021317007704, -47691.58186812185, -78688.77991304158, -49703.46238654404, -89400.4511118473, -32400.7981897352, 0.0, 0.0, 0.0, 193.0, 0.0, 1.0, 1.0, 0.0, 0.0, 1.0, 1.0, 256.0, 1.0, 1.750529177368169E9, 0.0, 2025-06-21 20:06:17.368
250.0, -44978.39301566995, -38605.30717436161, -30519.496562420914, -74051.01645600992, -28220.329072514665, -29634.3451302463, -53355.13393344092, -101681.88532374923, -187500.02235174447, -187500.02235174447, -49211.94752597184, -47651.43813508012, -78669.7138750212, -49661.6199209237, -89444.99813854673, -32345.49997395277, 0.0, 0.0, 0.0, 193.0, 0.0, 1.0, 1.0, 0.0, 0.0, 1.0, 1.0, 256.0, 1.0, 1.750529177376176E9, 0.0, 2025-06-21 20:06:17.376
252.0, -45016.033353332685, -38636.97959625478, -30527.297321235816, -74082.86769185873, -28229.87326739708, -29547.687416993074, -53354.48573285172, -101701.62191410326, -187500.02235174447, -187500.02235174447, -49200.72695025527, -47656.06494618237, -78648.8149939555, -49671.94642686206, -89373.6960737343, -32368.097587597083, 0.0, 0.0, 0.0, 193.0, 0.0, 1.0, 1.0, 0.0, 0.0, 1.0, 1.0, 256.0, 1.0, 1.750529177385215E9, 0.0, 2025-06-21 20:06:17.385
254.0, -44928.66038425689, -38555.66394992638, -30460.711474503456, -73988.92330991308, -28155.352551383086, -29601.42101066363, -53281.753156394145, -101623.39080850969, -187500.02235174447, -187500.02235174447, -49179.93982791184, -47628.21467259106, -78635.7615751936, -49636.98829853396, -89372.51143127817, -32331.708947623843, 0.0, 0.0, 0.0, 193.0, 0.0, 1.0, 1.0, 0.0, 0.0, 1.0, 1.0, 256.0, 1.0, 1.750529177392241E9, 0.0, 2025-06-21 20:06:17.392
0.0, -45014.26756552071, -38640.13119222298, -30515.361489696683, -74065.79095909488, -28223.92770337197, -29580.388019131187, -53334.57032854204, -101694.53641111094, -187500.02235174447, -187500.02235174447, -49146.143990295415, -47589.65791340565, -78598.72473463115, -49596.53164106985, -89342.33657626351, -32291.63226981548, 0.0, 0.0, 0.0, 193.0, 0.0, 1.0, 1.0, 0.0, 0.0, 1.0, 1.0, 256.0, 1.0, 1.750529177400211E9, 0.0, 2025-06-21 20:06:17.400
2.0, -44989.83710883107, -38614.87372098848, -30505.79494306981, -74044.31093267334, -28200.838351349637, -29563.311286367334, -53312.97854339821, -101661.65699501718, -187500.02235174447, -187500.02235174447, -49207.90186022543, -47666.5479143319, -78661.30961910602, -49667.63254018218, -89361.67083521734, -32368.097587597083, 0.0, 0.0, 0.0, 193.0, 0.0, 1.0, 1.0, 0.0, 0.0, 1.0, 1.0, 256.0, 1.0, 1.750529177408277E9, 0.0, 2025-06-21 20:06:17.408
4.0, -44991.82641408758, -38618.22648265678, -30503.045678501807, -74034.05148196834, -28219.569113203182, -29604.013813020447, -53297.9805228687, -101639.99815463998, -187500.02235174447, -187500.02235174447, -49154.70470842179, -47609.55096597087, -78627.58083672296, -49603.72890278446, -89373.74077722321, -32295.230900672785, 0.0, 0.0, 0.0, 193.0, 0.0, 1.0, 1.0, 0.0, 0.0, 1.0, 1.0, 256.0, 1.0, 1.750529177417411E9, 0.0, 2025-06-21 20:06:17.417
6.0, -45039.70385071085, -38655.755061597236, -30536.752109140412, -74087.91918610563, -28230.476764497373, -29542.300646579344, -53346.88613973691, -101681.90767549368, -187500.02235174447, -187500.02235174447, -49211.83576724956, -47663.55278057489, -78663.94712495174, -49662.8716186132, -89365.53768700811, -32359.581572959614, 0.0, 0.0, 0.0, 193.0, 0.0, 1.0, 1.0, 0.0, 0.0, 1.0, 1.0, 256.0, 1.0, 1.750529177424323E9, 0.0, 2025-06-21 20:06:17.424
8.0, -44983.84684131704, -38602.40144758242, -30505.102038991696, -74027.41301386512, -28201.464200194383, -29572.207280660547, -53288.36927275292, -101626.20712831106, -187500.02235174447, -187500.02235174447, -49200.32461885508, -47649.56058854587, -78662.40485458433, -49647.024231794385, -89384.15669013938, -32339.12972678301, 0.0, 0.0, 0.0, 193.0, 0.0, 1.0, 1.0, 0.0, 0.0, 1.0, 1.0, 256.0, 1.0, 1.750529177432345E9, 0.0, 2025-06-21 20:06:17.432
10.0, -45023.96822261432, -38645.830887059084, -30523.6539868896, -74071.75887486445, -28207.856799108602, -29536.89152442116, -53319.08056963451, -101661.67934676164, -187500.02235174447, -187500.02235174447, -49185.281894836655, -47637.73651572902, -78649.59730501143, -49630.193368219545, -89376.40063481338, -32320.60013062956, 0.0, 0.0, 0.0, 193.0, 0.0, 1.0, 1.0, 0.0, 0.0, 1.0, 1.0, 256.0, 1.0, 1.750529177440355E9, 0.0, 2025-06-21 20:06:17.440
12.0, -45004.365742727015, -38629.75998279572, -30523.676338634057, -74053.98923802248, -28192.747019856815, -29572.162577171635, -53318.521776023124, -101661.20996012806, -187500.02235174447, -187500.02235174447, -49224.26333716671, -47670.92885624515, -78671.05497968853, -49675.29918853035, -89366.76703295315, -32373.283192310715, 0.0, 0.0, 0.0, 193.0, 0.0, 1.0, 1.0, 0.0, 0.0, 1.0, 1.0, 256.0, 1.0, 1.75052917744838E9, 0.0, 2025-06-21 20:06:17.448
