%OpenBCI Raw EXG Data
%Number of channels = 16
%Sample Rate = 125 Hz
%Board = OpenBCI_GUI$BoardCytonSerialDaisy
Sample Index, EXG Channel 0, EXG Channel 1, EXG Channel 2, EXG Channel 3, EXG Channel 4, EXG Channel 5, EXG Channel 6, EXG Channel 7, EXG Channel 8, EXG Channel 9, EXG Channel 10, EXG Channel 11, EXG Channel 12, EXG Channel 13, EXG Channel 14, EXG Channel 15, Accel Channel 0, Accel Channel 1, Accel Channel 2, Not Used, Digital Channel 0 (D11), Digital Channel 1 (D12), Digital Channel 2 (D13), Digital Channel 3 (D17), Not Used, Digital Channel 4 (D18), Analog Channel 0, Analog Channel 1, Analog Channel 2, Timestamp, Marker Channel, Timestamp (Formatted)
0.0, -42277.60938139074, -38720.61982400654, -28045.158451218424, -68632.81948957677, -27817.193009518745, -27588.55701548541, -51356.820923903106, -98236.90035783057, 0.0, 0.0, 0.0, 0.0, 0.0, 0.0, 0.0, 0.0, 0.0, 0.0, 0.0, 193.0, 0.0, 0.5, 0.5, 0.0, 0.0, 0.5, 0.5, 128.0, 0.5, 1.750525946185887E9, 0.0, 2025-06-21 19:12:26.185
104.0, -42273.898991811155, -38718.85403619457, -28027.657035309916, -68627.07509125174, -27801.25621572211, -27545.97694229805, -51346.472066220296, -98232.07238102822, -187500.02235174447, -187500.02235174447, -44408.60234601526, -43270.049186950826, -77102.14133288161, -46381.97080874095, -85040.60924537292, -29506.359041495212, 0.0, 0.0, 0.0, 193.0, 0.0, 1.0, 1.0, 0.0, 0.0, 1.0, 1.0, 256.0, 1.0, 1.750525946185929E9, 0.0, 2025-06-21 19:12:26.185
0.0, -20920.159926433556, -19177.573225208907, -13908.216525103633, -34322.154143113396, -13750.301450526887, -14192.955397719788, -25617.06609929396, -49103.698027574785, -93750.01117587223, -93750.01117587223, -22204.2899971354, -21636.667446692878, -38540.10713578548, -23197.132134095686, -42495.76240727454, -14756.82285509382, 0.0, 0.0, 0.0, 193.0, 0.0, 1.0, 1.0, 0.0, 0.0, 1.0, 1.0, 256.0, 1.0, 1.750525946280563E9, 0.0, 2025-06-21 19:12:26.280
2.0, -41823.690154992364, -38342.80828747848, -27808.297015225533, -68629.93611454203, -27507.77781102393, -28389.464722807974, -51216.295506512586, -98192.93447648699, -187500.02235174447, -187500.02235174447, -44132.84887467013, -43121.54419678977, -76726.2073428878, -46268.44629865245, -84968.27900031555, -29327.27686491929, 0.0, 0.0, 0.0, 193.0, 0.0, 1.0, 1.0, 0.0, 0.0, 1.0, 1.0, 256.0, 1.0, 1.750525946287537E9, 0.0, 2025-06-21 19:12:26.287
4.0, -41839.068155177614, -38358.16393591928, -27810.845114093438, -68644.30828622679, -27459.29687730037, -28363.402588773086, -51223.2916025271, -98203.35038940316, -187500.02235174447, -187500.02235174447, -44117.1132465736, -43121.141865389574, -76715.4561538048, -46257.09161246915, -84950.84463964042, -29318.872609004095, 0.0, 0.0, 0.0, 193.0, 0.0, 1.0, 1.0, 0.0, 0.0, 1.0, 1.0, 256.0, 1.0, 1.750525946294553E9, 0.0, 2025-06-21 19:12:26.294
6.0, -41810.23440483027, -38330.55953151698, -27793.83543656295, -68624.16936447256, -27459.073359855814, -28367.448254519495, -51213.635648922405, -98182.13858391508, -187500.02235174447, -187500.02235174447, -44121.53889197575, -43123.68996425748, -76714.56208402659, -46263.43950789446, -84935.42193596625, -29323.432364872977, 0.0, 0.0, 0.0, 193.0, 0.0, 1.0, 1.0, 0.0, 0.0, 1.0, 1.0, 256.0, 1.0, 1.750525946302584E9, 0.0, 2025-06-21 19:12:26.302
8.0, -41844.09729768006, -38359.7062062867, -27837.51074522862, -68657.89814685562, -27492.10923816076, -28406.608510805192, -51219.87178562544, -98207.7313313164, -187500.02235174447, -187500.02235174447, -44128.5126362458, -43121.58890027868, -76724.7097760093, -46246.25101640833, -84955.71731993167, -29314.201094412936, 0.0, 0.0, 0.0, 193.0, 0.0, 1.0, 1.0, 0.0, 0.0, 1.0, 1.0, 256.0, 1.0, 1.750525946310621E9, 0.0, 2025-06-21 19:12:26.310
10.0, -41841.14686741196, -38353.671235283764, -27815.538980429053, -68648.5551176733, -27482.095656644782, -28359.84866140469, -51230.131236330424, -98203.43979638098, -187500.02235174447, -187500.02235174447, -44152.60781676863, -43141.25843539935, -76735.39390985893, -46287.40057795055, -84959.36065427789, -29346.700530850954, 0.0, 0.0, 0.0, 193.0, 0.0, 1.0, 1.0, 0.0, 0.0, 1.0, 1.0, 256.0, 1.0, 1.750525946319654E9, 0.0, 2025-06-21 19:12:26.319
12.0, -41835.6259865315, -38353.31360737248, -27831.006387592126, -68650.27620199636, -27500.513494075956, -28349.209231043966, -51210.72992214322, -98197.91891550052, -187500.02235174447, -187500.02235174447, -44148.11511613311, -43139.29148188728, -76740.26659015019, -46276.2694092118, -84980.10307313241, -29335.301141178745, 0.0, 0.0, 0.0, 193.0, 0.0, 1.0, 1.0, 0.0, 0.0, 1.0, 1.0, 256.0, 1.0, 1.750525946326612E9, 0.0, 2025-06-21 19:12:26.326
14.0, -41839.26932087771, -38363.01426446608, -27803.93842505675, -68645.15765251609, -27483.660278756655, -28401.735830513935, -51236.45678001127, -98211.97816276291, -187500.02235174447, -187500.02235174447, -44131.99950838083, -43124.65108926906, -76725.13445915395, -46258.455068880925, -84947.53658146103, -29320.928969493983, 0.0, 0.0, 0.0, 193.0, 0.0, 1.0, 1.0, 0.0, 0.0, 1.0, 1.0, 256.0, 1.0, 1.750525946334697E9, 0.0, 2025-06-21 19:12:26.334
16.0, -41831.580320785084, -38351.39135734932, -27807.045317536034, -68634.42881517754, -27486.610709024753, -28385.530815783837, -51223.068085082545, -98200.64582832406, -187500.02235174447, -187500.02235174447, -44132.96063339241, -43134.30704287375, -76725.87206672097, -46269.76505157531, -84941.59101743592, -29328.260341675323, 0.0, 0.0, 0.0, 193.0, 0.0, 1.0, 1.0, 0.0, 0.0, 1.0, 1.0, 256.0, 1.0, 1.75052594634272E9, 0.0, 2025-06-21 19:12:26.342
18.0, -41843.47144883531, -38355.16880216227, -27822.82564912148, -68637.75922510138, -27464.035447124894, -28373.23735633342, -51223.04573333809, -98199.39413063457, -187500.02235174447, -187500.02235174447, -44129.3172990462, -43120.13603688908, -76727.48139232176, -46243.501751840326, -84958.51128798859, -29305.23804488636, 0.0, 0.0, 0.0, 193.0, 0.0, 1.0, 1.0, 0.0, 0.0, 1.0, 1.0, 256.0, 1.0, 1.750525946350739E9, 0.0, 2025-06-21 19:12:26.350
20.0, -41856.346053641566, -38363.41659586628, -27831.07344282549, -68654.18775727603, -27499.574720808832, -28354.908925880067, -51228.61131770746, -98201.04815972426, -187500.02235174447, -187500.02235174447, -44160.22976162789, -43142.62189181112, -76740.89243899494, -46276.291760956265, -84958.1983635662, -29330.540219609764, 0.0, 0.0, 0.0, 193.0, 0.0, 1.0, 1.0, 0.0, 0.0, 1.0, 1.0, 256.0, 1.0, 1.750525946358762E9, 0.0, 2025-06-21 19:12:26.358
22.0, -41826.39471607145, -38342.4506595672, -27802.485561667152, -68622.38122491613, -27484.464941557046, -28398.58423454574, -51207.37716047492, -98184.79844150525, -187500.02235174447, -187500.02235174447, -44132.0665636142, -43123.19822587946, -76731.19178190133, -46250.78842053276, -84957.5054594881, -29312.390603112057, 0.0, 0.0, 0.0, 193.0, 0.0, 1.0, 1.0, 0.0, 0.0, 1.0, 1.0, 256.0, 1.0, 1.750525946366782E9, 0.0, 2025-06-21 19:12:26.366
24.0, -41844.99136745827, -38363.751872033106, -27810.0628030375, -68643.63773389313, -27484.241424112493, -28342.23548677391, -51212.875689610926, -98186.89950548405, -187500.02235174447, -187500.02235174447, -44126.54568273374, -43123.68996425748, -76725.89441846542, -46246.1169059416, -84945.16729654877, -29308.07671643218, 0.0, 0.0, 0.0, 193.0, 0.0, 1.0, 1.0, 0.0, 0.0, 1.0, 1.0, 256.0, 1.0, 1.750525946375831E9, 0.0, 2025-06-21 19:12:26.375
26.0, -41827.8699312055, -38349.334996859434, -27805.480695424165, -68630.96429478697, -27461.95673489055, -28386.022554161857, -51211.13225354341, -98177.95880770193, -187500.02235174447, -187500.02235174447, -44140.917854418505, -43136.05047894126, -76728.97895920026, -46272.804888821236, -84954.46562224218, -29328.148582953047, 0.0, 0.0, 0.0, 193.0, 0.0, 1.0, 1.0, 0.0, 0.0, 1.0, 1.0, 256.0, 1.0, 1.750525946382845E9, 0.0, 2025-06-21 19:12:26.382
28.0, -41847.78533551518, -38362.6566365548, -27821.775117132085, -68646.23053624995, -27477.401790309166, -28393.48803680993, -51246.91739641636, -98217.96843027693, -187500.02235174447, -187500.02235174447, -44122.27649954278, -43115.30806008674, -76723.23456087525, -46247.8156385202, -84958.75715717759, -29310.893036233552, 0.0, 0.0, 0.0, 193.0, 0.0, 1.0, 1.0, 0.0, 0.0, 1.0, 1.0, 256.0, 1.0, 1.750525946390882E9, 0.0, 2025-06-21 19:12:26.390
30.0, -41854.13323094049, -38362.96956097717, -27825.93254160077, -68656.9593735885, -27477.446493798077, -28342.74957689638, -51233.86397765446, -98217.65550585455, -187500.02235174447, -187500.02235174447, -44149.03153765578, -43137.279824886304, -76731.70587202381, -46282.1255662591, -84953.12451757485, -29338.050405746748, 0.0, 0.0, 0.0, 193.0, 0.0, 1.0, 1.0, 0.0, 0.0, 1.0, 1.0, 256.0, 1.0, 1.750525946398919E9, 0.0, 2025-06-21 19:12:26.398
32.0, -41834.1731231419, -38343.85881946788, -27816.678919396272, -68639.23444023544, -27501.83224699882, -28389.53177804134, -51214.77558788963, -98194.99083697687, -187500.02235174447, -187500.02235174447, -44137.006299138826, -43125.63456602509, -76727.57079929957, -46257.20337119143, -84958.89126764433, -29318.962015981917, 0.0, 0.0, 0.0, 193.0, 0.0, 1.0, 1.0, 0.0, 0.0, 1.0, 1.0, 256.0, 1.0, 1.750525946406918E9, 0.0, 2025-06-21 19:12:26.406
34.0, -41856.971902486315, -38362.09784294341, -27827.340701501456, -68653.98659157593, -27503.039241199403, -28365.48130100743, -51227.71724792925, -98202.56807834722, -187500.02235174447, -187500.02235174447, -44143.37654630859, -43137.92802547551, -76737.47262209328, -46263.59597010565, -84965.66384621429, -29324.684062562475, 0.0, 0.0, 0.0, 193.0, 0.0, 1.0, 1.0, 0.0, 0.0, 1.0, 1.0, 256.0, 1.0, 1.750525946414948E9, 0.0, 2025-06-21 19:12:26.414
36.0, -41835.313062109126, -38343.59059853442, -27813.79554436154, -68632.97595178794, -27469.422217538624, -28359.33457128222, -51216.161396045856, -98188.6205898071, -187500.02235174447, -187500.02235174447, -44152.518409790806, -43137.77156326432, -76736.75736627071, -46272.84959231014, -84955.4043955093, -29329.981425998383, 0.0, 0.0, 0.0, 193.0, 0.0, 1.0, 1.0, 0.0, 0.0, 1.0, 1.0, 256.0, 1.0, 1.750525946421928E9, 0.0, 2025-06-21 19:12:26.421
38.0, -41831.75913474073, -38345.289331113025, -27807.872332080882, -68631.83601282073, -27479.905185688163, -28384.837911705723, -51216.1390443014, -98189.71582528543, -187500.02235174447, -187500.02235174447, -44122.29885128723, -43114.45869379744, -76723.63689227545, -46233.39876334653, -84948.11772681687, -29298.21959712739, 0.0, 0.0, 0.0, 193.0, 0.0, 1.0, 1.0, 0.0, 0.0, 1.0, 1.0, 256.0, 1.0, 1.750525946431009E9, 0.0, 2025-06-21 19:12:26.431
40.0, -41854.82613501861, -38367.75283429061, -27832.41454749281, -68658.30047825581, -27476.038333897395, -28364.117844595654, -51232.52287298714, -98206.99372374937, -187500.02235174447, -187500.02235174447, -44152.4737063019, -43144.34297613418, -76740.57951457257, -46280.471537169404, -84961.1487938343, -29335.345844667656, 0.0, 0.0, 0.0, 193.0, 0.0, 1.0, 1.0, 0.0, 0.0, 1.0, 1.0, 256.0, 1.0, 1.750525946438998E9, 0.0, 2025-06-21 19:12:26.438
42.0, -41818.07986713408, -38329.86662743886, -27790.683840594753, -68619.14022197011, -27462.984915135494, -28390.783475730834, -51211.64634366588, -98184.48551708288, -187500.02235174447, -187500.02235174447, -44117.60498495161, -43110.81535945122, -76713.01981365918, -46240.841894250145, -84943.66972967026, -29301.885283218064, 0.0, 0.0, 0.0, 193.0, 0.0, 1.0, 1.0, 0.0, 0.0, 1.0, 1.0, 256.0, 1.0, 1.750525946446107E9, 0.0, 2025-06-21 19:12:26.446
44.0, -41848.63470180448, -38359.43798535323, -27810.353375715422, -68649.78446361834, -27493.875025972728, -28376.478359279437, -51234.13219858792, -98206.85961328264, -187500.02235174447, -187500.02235174447, -44130.59134848015, -43125.76867649182, -76724.53096205366, -46252.800077533735, -84947.06719482747, -29316.5703793252, 0.0, 0.0, 0.0, 193.0, 0.0, 1.0, 1.0, 0.0, 0.0, 1.0, 1.0, 256.0, 1.0, 1.750525946454109E9, 0.0, 2025-06-21 19:12:26.454
46.0, -41836.00596618724, -38351.503116071595, -27812.879122838873, -68644.37534146015, -27492.645680027686, -28382.356868071183, -51228.097227584985, -98201.13756670208, -187500.02235174447, -187500.02235174447, -44138.07918287268, -43131.691888772475, -76723.12280215297, -46270.79323182026, -84945.32375875996, -29330.13788820957, 0.0, 0.0, 0.0, 193.0, 0.0, 1.0, 1.0, 0.0, 0.0, 1.0, 1.0, 256.0, 1.0, 1.750525946463137E9, 0.0, 2025-06-21 19:12:26.463
48.0, -41836.967091198814, -38346.78689799153, -27814.756669373117, -68642.09546352571, -27476.10538913076, -28356.764120669857, -51216.25080302368, -98186.60893280614, -187500.02235174447, -187500.02235174447, -44136.62631948308, -43123.73466774639, -76732.62229354648, -46252.26363566681, -84967.4519857707, -29316.3692136251, 0.0, 0.0, 0.0, 193.0, 0.0, 1.0, 1.0, 0.0, 0.0, 1.0, 1.0, 256.0, 1.0, 1.750525946471166E9, 0.0, 2025-06-21 19:12:26.471
50.0, -41846.220713403316, -38353.06773818347, -27828.61475093541, -68663.84371088073, -27488.756476492465, -28329.89732383458, -51222.509291471164, -98200.71288355743, -187500.02235174447, -187500.02235174447, -44147.265749843806, -43138.285653386796, -76731.61646504598, -46277.43169992348, -84957.19253506573, -29334.719995822907, 0.0, 0.0, 0.0, 193.0, 0.0, 1.0, 1.0, 0.0, 0.0, 1.0, 1.0, 256.0, 1.0, 1.750525946478183E9, 0.0, 2025-06-21 19:12:26.478
52.0, -41833.18964638587, -38334.806362963485, -27829.79939339154, -68658.99338233392, -27474.07138038533, -28392.728077498447, -51223.76098916066, -98206.74785456037, -187500.02235174447, -187500.02235174447, -44145.34349982065, -43136.8327899972, -76737.29380813763, -46270.94969403144, -84971.96703815067, -29333.55770511123, 0.0, 0.0, 0.0, 193.0, 0.0, 1.0, 1.0, 0.0, 0.0, 1.0, 1.0, 256.0, 1.0, 1.750525946488229E9, 0.0, 2025-06-21 19:12:26.488
54.0, -41848.63470180448, -38350.83256373794, -27836.61667545041, -68670.21395805049, -27490.030525926417, -28372.790321444314, -51250.42662029584, -98224.69630535798, -187500.02235174447, -187500.02235174447, -44160.98972093937, -43152.09903146017, -76752.85062227854, -46295.53661293228, -84990.49663430413, -29357.25055423386, 0.0, 0.0, 0.0, 193.0, 0.0, 1.0, 1.0, 0.0, 0.0, 1.0, 1.0, 256.0, 1.0, 1.750525946495195E9, 0.0, 2025-06-21 19:12:26.495
56.0, -41824.114838137015, -38338.092069398415, -27807.22413149168, -68634.76409134438, -27448.478632984, -28375.114902867666, -51220.65409668137, -98195.75079628835, -187500.02235174447, -187500.02235174447, -44141.90133117454, -43127.04272592577, -76723.74865099772, -46279.55511564673, -84956.4996309876, -29336.128155723592, 0.0, 0.0, 0.0, 193.0, 0.0, 1.0, 1.0, 0.0, 0.0, 1.0, 1.0, 256.0, 1.0, 1.750525946502288E9, 0.0, 2025-06-21 19:12:26.502
58.0, -41797.35980002401, -38317.52846449953, -27783.486578880143, -68621.62126560466, -27462.001438379462, -28363.514347495362, -51212.49570995518, -98189.96169447443, -187500.02235174447, -187500.02235174447, -44113.291098271744, -43106.747341960356, -76710.31525258008, -46246.63099606407, -84955.0020641091, -29310.691870533454, 0.0, 0.0, 0.0, 193.0, 0.0, 1.0, 1.0, 0.0, 0.0, 1.0, 1.0, 256.0, 1.0, 1.750525946510312E9, 0.0, 2025-06-21 19:12:26.510
60.0, -41823.80191371464, -38343.23297062313, -27805.50304716862, -68654.59008867622, -27488.085924158804, -28318.78850684029, -51231.315878786554, -98206.85961328264, -187500.02235174447, -187500.02235174447, -44111.23473778185, -43119.309022344234, -76701.48631352023, -46269.60858936413, -84941.59101743592, -29327.41097538602, 0.0, 0.0, 0.0, 193.0, 0.0, 1.0, 1.0, 0.0, 0.0, 1.0, 1.0, 256.0, 1.0, 1.750525946518408E9, 0.0, 2025-06-21 19:12:26.518
62.0, -41797.80683491312, -38325.91036867027, -27788.336907426943, -68623.31999818326, -27454.737121431488, -28411.39178411863, -51222.777512404624, -98197.87421201161, -187500.02235174447, -187500.02235174447, -44117.04619134023, -43129.05438292675, -76716.99842417221, -46261.83018229368, -84959.47241300016, -29325.399318385043, 0.0, 0.0, 0.0, 193.0, 0.0, 1.0, 1.0, 0.0, 0.0, 1.0, 1.0, 256.0, 1.0, 1.750525946527436E9, 0.0, 2025-06-21 19:12:26.527
64.0, -41799.23734655826, -38323.25051108009, -27795.48946565264, -68633.93707679953, -27448.702150428555, -28381.596908759704, -51234.71334394376, -98205.1832324485, -187500.02235174447, -187500.02235174447, -44104.43980746744, -43105.74151345986, -76701.50866526469, -46244.060545451706, -84938.70764240118, -29309.596635055143, 0.0, 0.0, 0.0, 193.0, 0.0, 1.0, 1.0, 0.0, 0.0, 1.0, 1.0, 256.0, 1.0, 1.75052594653439E9, 0.0, 2025-06-21 19:12:26.534
66.0, -41783.635828928454, -38301.30109802498, -27783.3077649245, -68618.4026144031, -27463.610763980243, -28372.745617955403, -51226.219681050745, -98191.36985437511, -187500.02235174447, -187500.02235174447, -44113.291098271744, -43113.318754830216, -76700.68165071984, -46260.980816004376, -84935.26547375506, -29322.2700741613, 0.0, 0.0, 0.0, 193.0, 0.0, 1.0, 1.0, 0.0, 0.0, 1.0, 1.0, 256.0, 1.0, 1.750525946542448E9, 0.0, 2025-06-21 19:12:26.542
68.0, -41786.362741752004, -38306.01731610505, -27789.387439416343, -68622.26946619386, -27463.96839189153, -28363.514347495362, -51219.31299201406, -98190.7216537859, -187500.02235174447, -187500.02235174447, -44093.5545079177, -43093.78333017627, -76692.63502271593, -46234.47164708038, -84951.04580534052, -29301.482951817867, 0.0, 0.0, 0.0, 193.0, 0.0, 1.0, 1.0, 0.0, 0.0, 1.0, 1.0, 256.0, 1.0, 1.750525946551473E9, 0.0, 2025-06-21 19:12:26.551
70.0, -41796.53278547917, -38320.09891511189, -27788.046334749026, -68637.15572800109, -27461.48734825699, -28342.682521663013, -51238.8931201569, -98193.76149103184, -187500.02235174447, -187500.02235174447, -44111.68177267096, -43117.63264151009, -76698.02179312966, -46261.94194101595, -84935.55604643299, -29324.773469540298, 0.0, 0.0, 0.0, 193.0, 0.0, 1.0, 1.0, 0.0, 0.0, 1.0, 1.0, 256.0, 1.0, 1.750525946558511E9, 0.0, 2025-06-21 19:12:26.558
72.0, -41767.45316594281, -38288.91823159674, -27774.79175028703, -68607.11498345315, -27461.464996512535, -28387.52012104036, -51186.18770673129, -98165.97827267388, -187500.02235174447, -187500.02235174447, -44105.311525501194, -43108.848405939156, -76699.36289779698, -46246.787458275256, -84943.4015087368, -29313.23996940136, 0.0, 0.0, 0.0, 193.0, 0.0, 1.0, 1.0, 0.0, 0.0, 1.0, 1.0, 256.0, 1.0, 1.750525946566535E9, 0.0, 2025-06-21 19:12:26.566
74.0, -41791.056608087616, -38313.751019686584, -27788.3592591714, -68634.13824249963, -27423.936417572073, -28333.138326780598, -51211.9369163438, -98190.09580494116, -187500.02235174447, -187500.02235174447, -44087.78775784824, -43096.15261508854, -76681.16857781036, -46234.73986801384, -84930.48220044163, -29299.94068145045, 0.0, 0.0, 0.0, 193.0, 0.0, 1.0, 1.0, 0.0, 0.0, 1.0, 1.0, 256.0, 1.0, 1.750525946574501E9, 0.0, 2025-06-21 19:12:26.574
76.0, -41782.63000042796, -38307.87251089484, -27791.712020839695, -68631.43368142053, -27455.787653420884, -28373.28205982233, -51222.308125771066, -98195.61668582162, -187500.02235174447, -187500.02235174447, -44115.0121825948, -43126.34982184766, -76702.08981062053, -46266.59110386266, -84936.2489505111, -29329.243818431358, 0.0, 0.0, 0.0, 193.0, 0.0, 1.0, 1.0, 0.0, 0.0, 1.0, 1.0, 256.0, 1.0, 1.75052594658359E9, 0.0, 2025-06-21 19:12:26.583
78.0, -41787.99441909724, -38308.945394628696, -27786.034677748048, -68626.18102147353, -27477.71471473154, -28371.80684468828, -51198.41411094834, -98186.40776710604, -187500.02235174447, -187500.02235174447, -44095.4097027075, -43101.74055120237, -76695.80897042858, -46238.78553376026, -84947.80480239449, -29307.428515842978, 0.0, 0.0, 0.0, 193.0, 0.0, 1.0, 1.0, 0.0, 0.0, 1.0, 1.0, 256.0, 1.0, 1.750525946590616E9, 0.0, 2025-06-21 19:12:26.590
80.0, -41779.590163182045, -38299.222385790636, -27774.814102031483, -68623.0964807387, -27457.15110983266, -28330.813745357245, -51224.72211417224, -98189.20173516295, -187500.02235174447, -187500.02235174447, -44108.194900535935, -43116.89503394307, -76695.49604600621, -46256.48811536886, -84931.68919464221, -29321.197190427447, 0.0, 0.0, 0.0, 193.0, 0.0, 1.0, 1.0, 0.0, 0.0, 1.0, 1.0, 256.0, 1.0, 1.750525946598634E9, 0.0, 2025-06-21 19:12:26.598
82.0, -41770.783575866655, -38285.788987372995, -27779.86559627838, -68609.88659976561, -27450.132662073695, -28383.697972738504, -51216.83194837951, -98186.98891246188, -187500.02235174447, -187500.02235174447, -44096.39317946353, -43100.310039557226, -76691.98682212672, -46234.87397848058, -84931.5997876644, -29304.634547786063, 0.0, 0.0, 0.0, 193.0, 0.0, 1.0, 1.0, 0.0, 0.0, 1.0, 1.0, 256.0, 1.0, 1.750525946606655E9, 0.0, 2025-06-21 19:12:26.606
84.0, -41793.5152999777, -38312.544025486, -27802.865541322895, -68640.73200711394, -27467.164691348637, -28351.623219445137, -51229.95242237478, -98199.10355795665, -187500.02235174447, -187500.02235174447, -44101.73524638835, -43101.40527503553, -76693.99847912771, -46243.18882741795, -84943.08858431442, -29309.775449010784, 0.0, 0.0, 0.0, 193.0, 0.0, 1.0, 1.0, 0.0, 0.0, 1.0, 1.0, 256.0, 1.0, 1.750525946614682E9, 0.0, 2025-06-21 19:12:26.614
86.0, -41788.732026664264, -38306.553757971975, -27798.35048894292, -68637.8486320792, -27476.261851341947, -28348.56103045476, -51226.55495721757, -98186.5195258283, -187500.02235174447, -187500.02235174447, -44131.44071476945, -43144.25356915636, -76721.40171782991, -46282.81847033721, -84960.4558897562, -29343.28071394929, 0.0, 0.0, 0.0, 193.0, 0.0, 1.0, 1.0, 0.0, 0.0, 1.0, 1.0, 256.0, 1.0, 1.750525946622711E9, 0.0, 2025-06-21 19:12:26.622
88.0, -41757.75250884921, -38282.70444663816, -27767.415674616776, -68608.36668114265, -27446.131699816193, -28359.75925442687, -51212.18278553281, -98182.25034263734, -187500.02235174447, -187500.02235174447, -44072.63327510754, -43078.76295790231, -76671.62438292794, -46208.610678745594, -84919.03810728052, -29277.477178272868, 0.0, 0.0, 0.0, 193.0, 0.0, 1.0, 1.0, 0.0, 0.0, 1.0, 1.0, 256.0, 1.0, 1.750525946630756E9, 0.0, 2025-06-21 19:12:26.630
90.0, -41783.009980083705, -38300.831711391416, -27806.2630064801, -68645.67174263856, -27457.75460693295, -28347.97988509892, -51253.198236608296, -98220.00243902236, -187500.02235174447, -187500.02235174447, -44119.34842101913, -43125.23223462489, -76704.03441238814, -46273.631903366084, -84952.14104081882, -29334.943513267463, 0.0, 0.0, 0.0, 193.0, 0.0, 1.0, 1.0, 0.0, 0.0, 1.0, 1.0, 256.0, 1.0, 1.750525946638745E9, 0.0, 2025-06-21 19:12:26.638
92.0, -41767.81079385409, -38288.381789729814, -27806.732393113663, -68636.57458264525, -27465.62242098122, -28379.47349303645, -51260.97664367875, -98222.90816580155, -187500.02235174447, -187500.02235174447, -44113.380505249566, -43112.759961218835, -76704.52615076616, -46261.85253403813, -84961.01468336758, -29327.343920152656, 0.0, 0.0, 0.0, 193.0, 0.0, 1.0, 1.0, 0.0, 0.0, 1.0, 1.0, 256.0, 1.0, 1.750525946645792E9, 0.0, 2025-06-21 19:12:26.645
94.0, -41779.724273648775, -38289.566432185944, -27800.65271862182, -68636.82045183425, -27472.931441418106, -28340.961437339956, -51258.920283188854, -98216.8284913097, -187500.02235174447, -187500.02235174447, -44104.03747606724, -43107.55200476074, -76699.11702860797, -46259.863228781614, -84965.32857004745, -29322.292425905758, 0.0, 0.0, 0.0, 193.0, 0.0, 1.0, 1.0, 0.0, 0.0, 1.0, 1.0, 256.0, 1.0, 1.750525946654793E9, 0.0, 2025-06-21 19:12:26.654
96.0, -41768.526049676664, -38282.81620536044, -27787.64400334883, -68628.19267847452, -27462.850804668764, -28329.852620345668, -51231.62880320893, -98201.07051146872, -187500.02235174447, -187500.02235174447, -44109.670115669986, -43117.96791767692, -76699.74287745272, -46265.920551529, -84947.08954657192, -29327.321568408202, 0.0, 0.0, 0.0, 193.0, 0.0, 1.0, 1.0, 0.0, 0.0, 1.0, 1.0, 256.0, 1.0, 1.750525946663843E9, 0.0, 2025-06-21 19:12:26.663
98.0, -41778.31611374809, -38294.28265026601, -27789.230977205156, -68627.63388486313, -27466.516490759434, -28377.305373824285, -51216.87665186843, -98197.11425270012, -187500.02235174447, -187500.02235174447, -44093.800377106716, -43100.2206325794, -76693.5067407497, -46230.9624232009, -84949.59294195092, -29299.337184350155, 0.0, 0.0, 0.0, 193.0, 0.0, 1.0, 1.0, 0.0, 0.0, 1.0, 1.0, 256.0, 1.0, 1.750525946669858E9, 0.0, 2025-06-21 19:12:26.669
100.0, -41794.38701801145, -38307.6936969392, -27804.854846579416, -68644.68826588253, -27466.561194248345, -28351.533812467318, -51231.04765785309, -98204.06564522572, -187500.02235174447, -187500.02235174447, -44115.10158957262, -43123.10881890164, -76701.93334840934, -46259.6173595926, -84940.56283719097, -29321.420707872, 0.0, 0.0, 0.0, 193.0, 0.0, 1.0, 1.0, 0.0, 0.0, 1.0, 1.0, 256.0, 1.0, 1.750525946677886E9, 0.0, 2025-06-21 19:12:26.677
102.0, -41748.58829362253, -38268.08640576439, -27769.65084906231, -68599.64950080508, -27435.55932468883, -28358.105225337178, -51205.65607615186, -98166.71588024091, -187500.02235174447, -187500.02235174447, -44109.20072903642, -43106.7249902159, -76698.78175244114, -46241.266577394796, -84946.50840121608, -29304.813361741708, 0.0, 0.0, 0.0, 193.0, 0.0, 1.0, 1.0, 0.0, 0.0, 1.0, 1.0, 256.0, 1.0, 1.750525946686867E9, 0.0, 2025-06-21 19:12:26.686
104.0, -41794.118797077994, -38306.79962716098, -27803.312576212, -68642.96718155946, -27475.747761219474, -28330.92550407952, -51226.33143977302, -98197.04719746676, -187500.02235174447, -187500.02235174447, -44093.241583495335, -43098.61130697862, -76686.86827264646, -46225.57565278717, -84924.96131956117, -29290.575300523677, 0.0, 0.0, 0.0, 193.0, 0.0, 1.0, 1.0, 0.0, 0.0, 1.0, 1.0, 256.0, 1.0, 1.750525946694968E9, 0.0, 2025-06-21 19:12:26.694
106.0, -41760.47942167275, -38272.84732733337, -27776.311668909988, -68610.37833814364, -27428.697339141054, -28301.845884543167, -51190.38983468889, -98158.62454874809, -187500.02235174447, -187500.02235174447, -44111.458255226404, -43116.89503394307, -76698.55823499658, -46255.12465895709, -84933.58909292091, -29315.676309546987, 0.0, 0.0, 0.0, 193.0, 0.0, 1.0, 1.0, 0.0, 0.0, 1.0, 1.0, 256.0, 1.0, 1.750525946701968E9, 0.0, 2025-06-21 19:12:26.701
108.0, -41807.4180850289, -38321.88705466832, -27813.84024785045, -68644.3976932046, -27468.14816810467, -28384.636746005624, -51239.72013470175, -98211.35231391816, -187500.02235174447, -187500.02235174447, -44113.291098271744, -43112.87171994111, -76710.09173513553, -46239.947824471936, -84956.14200307633, -29307.294405376248, 0.0, 0.0, 0.0, 193.0, 0.0, 1.0, 1.0, 0.0, 0.0, 1.0, 1.0, 256.0, 1.0, 1.750525946711002E9, 0.0, 2025-06-21 19:12:26.711
110.0, -41792.95650636632, -38311.71701094115, -27790.92970978376, -68638.54153615733, -27480.10635138826, -28348.158699054566, -51229.86301539696, -98197.13660444459, -187500.02235174447, -187500.02235174447, -44124.84695015514, -43128.562644548736, -76711.38813631394, -46263.12658347208, -84942.21686628067, -29327.61214108612, 0.0, 0.0, 0.0, 193.0, 0.0, 1.0, 1.0, 0.0, 0.0, 1.0, 1.0, 256.0, 1.0, 1.750525946719025E9, 0.0, 2025-06-21 19:12:26.719
112.0, -41786.161576051905, -38303.200996303676, -27791.756724328607, -68628.63971336362, -27466.404732037157, -28396.885501967135, -51214.66382916735, -98188.21825840691, -187500.02235174447, -187500.02235174447, -44108.23960402484, -43112.894071685565, -76703.76619145468, -46240.81954250569, -84947.11189831638, -29309.12724842158, 0.0, 0.0, 0.0, 193.0, 0.0, 1.0, 1.0, 0.0, 0.0, 1.0, 1.0, 256.0, 1.0, 1.7505259467261E9, 0.0, 2025-06-21 19:12:26.726
114.0, -41796.488081990254, -38311.96288013016, -27794.2601197076, -68638.8991640686, -27458.782787177897, -28340.04501581729, -51225.1915008058, -98188.79940376275, -187500.02235174447, -187500.02235174447, -44110.8100546372, -43114.704562986444, -76703.87795017696, -46239.70195528292, -84944.58615119293, -29308.009661198816, 0.0, 0.0, 0.0, 193.0, 0.0, 1.0, 1.0, 0.0, 0.0, 1.0, 1.0, 256.0, 1.0, 1.750525946734091E9, 0.0, 2025-06-21 19:12:26.734
116.0, -41805.56289023911, -38320.63535697882, -27807.22413149168, -68644.68826588253, -27466.516490759434, -28340.715568150947, -51213.65800066686, -98187.0783194397, -187500.02235174447, -187500.02235174447, -44124.64578445504, -43127.46740907042, -76709.9576246688, -46264.80296430623, -84941.9486453472, -29328.08152771968, 0.0, 0.0, 0.0, 193.0, 0.0, 1.0, 1.0, 0.0, 0.0, 1.0, 1.0, 256.0, 1.0, 1.750525946743133E9, 0.0, 2025-06-21 19:12:26.743
118.0, -41784.17227079538, -38302.26222303656, -27791.488503395143, -68630.80783257578, -27447.91983937262, -28309.37842242461, -51198.32470397052, -98169.33103434218, -187500.02235174447, -187500.02235174447, -44118.09672332963, -43123.667612513025, -76714.62913925995, -46244.50758034082, -84961.81934616796, -29311.89886473404, 0.0, 0.0, 0.0, 193.0, 0.0, 1.0, 1.0, 0.0, 0.0, 1.0, 1.0, 256.0, 1.0, 1.750525946751171E9, 0.0, 2025-06-21 19:12:26.751
120.0, -41813.475407776285, -38327.65380473778, -27810.48748618215, -68650.34325722972, -27478.29586008738, -28352.13730956761, -51233.43929450981, -98200.5340696018, -187500.02235174447, -187500.02235174447, -44122.96940362089, -43136.07283068572, -76709.97997641325, -46258.477420625386, -84938.03709006752, -29320.526638093786, 0.0, 0.0, 0.0, 193.0, 0.0, 1.0, 1.0, 0.0, 0.0, 1.0, 1.0, 256.0, 1.0, 1.750525946758198E9, 0.0, 2025-06-21 19:12:26.758
122.0, -41771.25296250021, -38294.08148456591, -27781.29610792352, -68609.90895151006, -27447.316342272323, -28382.490978537917, -51195.55308765806, -98173.19788613296, -187500.02235174447, -187500.02235174447, -44109.021915080775, -43106.54617626026, -76702.96152865428, -46237.690298281945, -84941.92629360275, -29302.75700125182, 0.0, 0.0, 0.0, 193.0, 0.0, 1.0, 1.0, 0.0, 0.0, 1.0, 1.0, 256.0, 1.0, 1.75052594676622E9, 0.0, 2025-06-21 19:12:26.766
124.0, -41816.96227991131, -38337.533275787035, -27821.931579343272, -68653.13722528663, -27498.85946498626, -28360.407455016073, -51232.3440590315, -98200.60112483516, -187500.02235174447, -187500.02235174447, -44114.565147705696, -43115.06219089773, -76710.04703164662, -46241.37833611707, -84948.78827915053, -29306.780315253774, 0.0, 0.0, 0.0, 193.0, 0.0, 1.0, 1.0, 0.0, 0.0, 1.0, 1.0, 256.0, 1.0, 1.750525946775238E9, 0.0, 2025-06-21 19:12:26.775
126.0, -41804.13237859397, -38314.57803423143, -27816.723622885183, -68646.31994322776, -27472.931441418106, -28334.41237621455, -51238.35667828997, -98196.60016257766, -187500.02235174447, -187500.02235174447, -44154.395956325054, -43148.142772691586, -76737.74084302674, -46282.706711614934, -84970.84945092791, -29343.99596977186, 0.0, 0.0, 0.0, 193.0, 0.0, 1.0, 1.0, 0.0, 0.0, 1.0, 1.0, 256.0, 1.0, 1.750525946782229E9, 0.0, 2025-06-21 19:12:26.782
128.0, -41798.85736690251, -38313.03576386401, -27803.06670702299, -68640.1508617581, -27463.610763980243, -28367.47060626395, -51228.20898630727, -98187.927685729, -187500.02235174447, -187500.02235174447, -44122.29885128723, -43123.91348170203, -76722.8098777306, -46240.90894948351, -84959.27124730006, -29312.79293451225, 0.0, 0.0, 0.0, 193.0, 0.0, 1.0, 1.0, 0.0, 0.0, 1.0, 1.0, 256.0, 1.0, 1.750525946790317E9, 0.0, 2025-06-21 19:12:26.790
130.0, -41788.93319236436, -38298.70829566816, -27801.45738142221, -68643.41421644858, -27460.705037201053, -28324.532905165306, -51216.11669255694, -98187.81592700673, -187500.02235174447, -187500.02235174447, -44118.23083379636, -43127.55681604824, -76708.34829906802, -46255.795211290744, -84933.76790687656, -29321.308949149723, 0.0, 0.0, 0.0, 193.0, 0.0, 1.0, 1.0, 0.0, 0.0, 1.0, 1.0, 256.0, 1.0, 1.750525946798389E9, 0.0, 2025-06-21 19:12:26.798
132.0, -41766.022654297674, -38283.64321990529, -27790.326212683467, -68625.42106216206, -27465.19773783657, -28351.220888044943, -51206.214869763244, -98175.96950244541, -187500.02235174447, -187500.02235174447, -44115.28040352827, -43115.30806008674, -76707.54363626763, -46251.99541473334, -84954.24210479762, -29317.844428759152, 0.0, 0.0, 0.0, 193.0, 0.0, 1.0, 1.0, 0.0, 0.0, 1.0, 1.0, 256.0, 1.0, 1.75052594680738E9, 0.0, 2025-06-21 19:12:26.807
134.0, -41797.38215176847, -38317.57316798844, -27784.82768354746, -68633.98178028844, -27442.130737558695, -28322.32008246423, -51223.24689903819, -98187.1230229286, -187500.02235174447, -187500.02235174447, -44101.73524638835, -43107.32848731619, -76693.5514442386, -46233.2646528798, -84931.13040103084, -29301.907634962517, 0.0, 0.0, 0.0, 193.0, 0.0, 1.0, 1.0, 0.0, 0.0, 1.0, 1.0, 256.0, 1.0, 1.750525946814401E9, 0.0, 2025-06-21 19:12:26.814
136.0, -41794.409369755915, -38315.13682784281, -27789.54390162753, -68631.88071630964, -27455.00534236495, -28336.33462623771, -51212.451006466275, -98188.50883108484, -187500.02235174447, -187500.02235174447, -44114.006354094316, -43125.00871718034, -76700.23461583073, -46259.48324912587, -84934.5949214214, -29323.76764103981, 0.0, 0.0, 0.0, 193.0, 0.0, 1.0, 1.0, 0.0, 0.0, 1.0, 1.0, 256.0, 1.0, 1.750525946822384E9, 0.0, 2025-06-21 19:12:26.822
138.0, -41806.27814606168, -38330.69364198371, -27797.255253464613, -68637.2451349789, -27459.162766833637, -28385.977850672945, -51213.79211113359, -98190.78870901928, -187500.02235174447, -187500.02235174447, -44098.31542948668, -43108.28961232777, -76697.26183381818, -46228.03434467725, -84943.96030234818, -29299.203073883426, 0.0, 0.0, 0.0, 193.0, 0.0, 1.0, 1.0, 0.0, 0.0, 1.0, 1.0, 256.0, 1.0, 1.750525946831465E9, 0.0, 2025-06-21 19:12:26.831
140.0, -41808.69213446285, -38325.88801692582, -27792.673145851273, -68638.02744603484, -27469.176348349614, -28339.642684417093, -51225.41501825035, -98193.426214865, -187500.02235174447, -187500.02235174447, -44120.577766964176, -43131.11074341664, -76710.47171479127, -46265.182943961976, -84945.43551748223, -29330.09318472066, 0.0, 0.0, 0.0, 193.0, 0.0, 1.0, 1.0, 0.0, 0.0, 1.0, 1.0, 256.0, 1.0, 1.750525946838497E9, 0.0, 2025-06-21 19:12:26.838
142.0, -41786.18392779636, -38303.87154863734, -27778.189215444236, -68618.87200103665, -27435.894600855663, -28333.875934347623, -51211.80280587707, -98180.70807226993, -187500.02235174447, -187500.02235174447, -44095.901441085516, -43107.82022569421, -76693.77496168316, -46231.58827204565, -84931.13040103084, -29302.689946018454, 0.0, 0.0, 0.0, 193.0, 0.0, 1.0, 1.0, 0.0, 0.0, 1.0, 1.0, 256.0, 1.0, 1.750525946846524E9, 0.0, 2025-06-21 19:12:26.846
144.0, -41803.81945417159, -38311.940528385705, -27795.69063135274, -68634.29470471082, -27471.456226284055, -28365.391894029606, -51212.89804135538, -98189.76052877434, -187500.02235174447, -187500.02235174447, -44107.25612726881, -43112.37998156309, -76701.68747922033, -46237.690298281945, -84943.13328780333, -29308.054364687727, 0.0, 0.0, 0.0, 193.0, 0.0, 1.0, 1.0, 0.0, 0.0, 1.0, 1.0, 256.0, 1.0, 1.750525946854556E9, 0.0, 2025-06-21 19:12:26.854
146.0, -41779.4113492264, -38299.24473753509, -27785.2076632032, -68632.23834422092, -27443.136566059184, -28346.884649620613, -51228.030172351624, -98184.44081359397, -187500.02235174447, -187500.02235174447, -44113.224043038375, -43123.667612513025, -76699.89933966391, -46252.84478102264, -84935.98072957764, -29318.023242714793, 0.0, 0.0, 0.0, 193.0, 0.0, 1.0, 1.0, 0.0, 0.0, 1.0, 1.0, 256.0, 1.0, 1.75052594686359E9, 0.0, 2025-06-21 19:12:26.863
148.0, -41791.615401699, -38308.788932417505, -27792.941366784737, -68638.51918441286, -27441.013150335926, -28350.796204900293, -51227.18080606232, -98194.20852592094, -187500.02235174447, -187500.02235174447, -44096.2590689968, -43113.05053389675, -76697.9547378963, -46227.96728944389, -84939.48995345712, -29301.907634962517, 0.0, 0.0, 0.0, 193.0, 0.0, 1.0, 1.0, 0.0, 0.0, 1.0, 1.0, 256.0, 1.0, 1.750525946870594E9, 0.0, 2025-06-21 19:12:26.870
150.0, -41788.06147433061, -38314.13099934233, -27790.12504698337, -68642.43073969254, -27463.29783955787, -28329.76321336785, -51231.4946927422, -98196.75662478885, -187500.02235174447, -187500.02235174447, -44117.1132465736, -43129.27790037131, -76705.95666241129, -46262.14310671605, -84936.047784811, -29328.349748653145, 0.0, 0.0, 0.0, 193.0, 0.0, 1.0, 1.0, 0.0, 0.0, 1.0, 1.0, 256.0, 1.0, 1.750525946878632E9, 0.0, 2025-06-21 19:12:26.878
152.0, -41775.63390441345, -38298.305964267965, -27790.437971405743, -68627.41036741858, -27467.589374493287, -28361.860318405666, -51200.26930573813, -98176.14831640104, -187500.02235174447, -187500.02235174447, -44108.23960402484, -43118.61611826612, -76705.30846182209, -46247.32390014218, -84952.00693035209, -29313.64230080155, 0.0, 0.0, 0.0, 193.0, 0.0, 1.0, 1.0, 0.0, 0.0, 1.0, 1.0, 256.0, 1.0, 1.750525946886655E9, 0.0, 2025-06-21 19:12:26.886
154.0, -41814.07890487658, -38327.92202567125, -27818.60116941943, -68665.90007137062, -27465.488310514487, -28301.17533220951, -51244.257538826176, -98204.93736325948, -187500.02235174447, -187500.02235174447, -44116.800322151226, -43127.69092651498, -76714.27151134868, -46245.08872569665, -84951.58224720744, -29314.581074068676, 0.0, 0.0, 0.0, 193.0, 0.0, 1.0, 1.0, 0.0, 0.0, 1.0, 1.0, 256.0, 1.0, 1.750525946894719E9, 0.0, 2025-06-21 19:12:26.894
156.0, -41787.86030863051, -38305.793798660496, -27806.64298613584, -68645.49292868291, -27480.508682788455, -28390.269385608364, -51230.22064330825, -98199.86351726812, -187500.02235174447, -187500.02235174447, -44135.73224970487, -43144.275920900815, -76725.44738357632, -46278.370473190604, -84959.22654381115, -29342.945437782462, 0.0, 0.0, 0.0, 193.0, 0.0, 1.0, 1.0, 0.0, 0.0, 1.0, 1.0, 256.0, 1.0, 1.750525946902702E9, 0.0, 2025-06-21 19:12:26.902
158.0, -41766.849668842515, -38293.74620839908, -27776.60224158791, -68628.10327149669, -27440.700225913555, -28336.71460589345, -51212.316895999546, -98184.06083393823, -187500.02235174447, -187500.02235174447, -44097.3096009862, -43109.42955129499, -76701.95570015379, -46237.77970525977, -84955.71731993167, -29311.60829205612, 0.0, 0.0, 0.0, 193.0, 0.0, 1.0, 1.0, 0.0, 0.0, 1.0, 1.0, 256.0, 1.0, 1.750525946910757E9, 0.0, 2025-06-21 19:12:26.910
160.0, -41806.83693967306, -38323.67519422474, -27807.045317536034, -68662.68142016906, -27462.91785990213, -28327.0363005443, -51247.78911445011, -98211.17349996252, -187500.02235174447, -187500.02235174447, -44109.71481915889, -43135.335223118695, -76706.73897346723, -46266.144068973554, -84939.6464156683, -29338.050405746748, 0.0, 0.0, 0.0, 193.0, 0.0, 1.0, 1.0, 0.0, 0.0, 1.0, 1.0, 256.0, 1.0, 1.750525946918766E9, 0.0, 2025-06-21 19:12:26.918
162.0, -41776.75149163622, -38299.088275323906, -27784.335945169445, -68632.19364073202, -27421.500077426444, -28345.76706239785, -51207.80184361957, -98184.86549673862, -187500.02235174447, -187500.02235174447, -44111.748827904325, -43127.26624337033, -76711.09756363602, -46252.46480136691, -84948.14007856132, -29324.974635240393, 0.0, 0.0, 0.0, 193.0, 0.0, 1.0, 1.0, 0.0, 0.0, 1.0, 1.0, 256.0, 1.0, 1.750525946925802E9, 0.0, 2025-06-21 19:12:26.925
164.0, -41773.04110205664, -38298.26126077906, -27767.79565427252, -68618.35791091417, -27454.24538305347, -28297.576701352205, -51193.31791321253, -98171.36504308762, -187500.02235174447, -187500.02235174447, -44082.71391185688, -43106.255603582336, -76686.26477554617, -46224.14514114203, -84922.5920346489, -29297.23612037136, 0.0, 0.0, 0.0, 193.0, 0.0, 1.0, 1.0, 0.0, 0.0, 1.0, 1.0, 256.0, 1.0, 1.750525946934767E9, 0.0, 2025-06-21 19:12:26.934
166.0, -41812.581337998075, -38332.079450139936, -27818.668224652796, -68657.58522243323, -27475.77011296393, -28370.152815598587, -51224.43154149432, -98207.7313313164, -187500.02235174447, -187500.02235174447, -44127.95384263442, -43145.21469416794, -76718.45128756181, -46274.03423476627, -84955.58320946494, -29336.642245846066, 0.0, 0.0, 0.0, 193.0, 0.0, 1.0, 1.0, 0.0, 0.0, 1.0, 1.0, 256.0, 1.0, 1.750525946942845E9, 0.0, 2025-06-21 19:12:26.942
168.0, -41779.8136806266, -38301.27874628052, -27775.79757878752, -68620.950713271, -27455.430025509602, -28334.47943144792, -51205.34315172949, -98181.13275541458, -187500.02235174447, -187500.02235174447, -44090.514670671786, -43109.09427512816, -76696.41246752888, -46225.01685917579, -84942.52979070303, -29297.414934327, 0.0, 0.0, 0.0, 193.0, 0.0, 1.0, 1.0, 0.0, 0.0, 1.0, 1.0, 256.0, 1.0, 1.750525946949898E9, 0.0, 2025-06-21 19:12:26.949
170.0, -41814.28007057668, -38330.62658675034, -27807.715869869695, -68652.26550725287, -27453.44072025308, -28349.298638021784, -51238.28962305661, -98205.76437780433, -187500.02235174447, -187500.02235174447, -44114.274575027775, -43132.58595855069, -76708.77298221267, -46258.65623458102, -84941.25574126908, -29325.33226315168, 0.0, 0.0, 0.0, 193.0, 0.0, 1.0, 1.0, 0.0, 0.0, 1.0, 1.0, 256.0, 1.0, 1.750525946957931E9, 0.0, 2025-06-21 19:12:26.957
172.0, -41795.526956978676, -38313.14752258629, -27801.92676805577, -68636.30636171179, -27464.482482014, -28372.47739702194, -51217.90483211337, -98190.00639796334, -187500.02235174447, -187500.02235174447, -44123.997583865836, -43130.574301549714, -76721.33466259655, -46253.87296126759, -84955.69496818722, -29321.89009450556, 0.0, 0.0, 0.0, 193.0, 0.0, 1.0, 1.0, 0.0, 0.0, 1.0, 1.0, 256.0, 1.0, 1.750525946966981E9, 0.0, 2025-06-21 19:12:26.966
174.0, -41810.346163552545, -38327.27382508205, -27806.508875669108, -68659.5074724564, -27471.188005350592, -28319.593169640684, -51218.731846658215, -98197.13660444459, -187500.02235174447, -187500.02235174447, -44116.75561866231, -43134.083525429196, -76716.88666544994, -46251.257807166316, -84956.32081703197, -29320.683100304974, 0.0, 0.0, 0.0, 193.0, 0.0, 1.0, 1.0, 0.0, 0.0, 1.0, 1.0, 256.0, 1.0, 1.750525946975058E9, 0.0, 2025-06-21 19:12:26.975
176.0, -41785.62513418498, -38305.12324632684, -27784.000669002613, -68631.67955060954, -27440.409653235634, -28338.659207661058, -51216.027285579126, -98178.29408386876, -187500.02235174447, -187500.02235174447, -44109.42424648097, -43130.663708527536, -76703.6544327324, -46257.85157178064, -84934.43845921021, -29323.09708870615, 0.0, 0.0, 0.0, 193.0, 0.0, 1.0, 1.0, 0.0, 0.0, 1.0, 1.0, 256.0, 1.0, 1.750525946981963E9, 0.0, 2025-06-21 19:12:26.981
178.0, -41781.24419227173, -38305.10089458238, -27789.99093651664, -68636.5522309008, -27440.700225913555, -28340.827326873223, -51207.354808730466, -98185.06666243872, -187500.02235174447, -187500.02235174447, -44097.48841494184, -43115.129246131095, -76703.96735715478, -46240.216045405396, -84948.98944485062, -29311.496533333844, 0.0, 0.0, 0.0, 193.0, 0.0, 1.0, 1.0, 0.0, 0.0, 1.0, 1.0, 256.0, 1.0, 1.750525946989992E9, 0.0, 2025-06-21 19:12:26.989
180.0, -41791.48129123227, -38314.75684818708, -27801.815009333495, -68651.41614096357, -27455.787653420884, -28311.568893381227, -51217.480148968716, -98194.52145034331, -187500.02235174447, -187500.02235174447, -44112.41938023799, -43125.72397300291, -76703.20739784329, -46268.49100214136, -84943.89324711481, -29330.786088798774, 0.0, 0.0, 0.0, 193.0, 0.0, 1.0, 1.0, 0.0, 0.0, 1.0, 1.0, 256.0, 1.0, 1.750525946999068E9, 0.0, 2025-06-21 19:12:26.999
182.0, -41802.81362567111, -38326.4468105372, -27810.040451293047, -68656.26646951037, -27482.07330490033, -28368.498786508895, -51231.82996890903, -98202.4786713694, -187500.02235174447, -187500.02235174447, -44124.44461875494, -43144.45473485646, -76726.09558416552, -46268.71451958591, -84959.91944788928, -29338.81036505823, 0.0, 0.0, 0.0, 193.0, 0.0, 1.0, 1.0, 0.0, 0.0, 1.0, 1.0, 256.0, 1.0, 1.750525947006101E9, 0.0, 2025-06-21 19:12:27.006
184.0, -41802.5677564821, -38319.406011033774, -27819.271721753088, -68667.04001033783, -27462.940211646583, -28311.45713465895, -51229.17011131885, -98204.3785696481, -187500.02235174447, -187500.02235174447, -44123.48349374336, -43140.11849643213, -76725.00034868722, -46266.077013740185, -84967.6531514708, -29335.03292024528, 0.0, 0.0, 0.0, 193.0, 0.0, 1.0, 1.0, 0.0, 0.0, 1.0, 1.0, 256.0, 1.0, 1.75052594701405E9, 0.0, 2025-06-21 19:12:27.014
186.0, -41817.252852589234, -38333.71112748517, -27814.84607635094, -68658.16636778908, -27475.121912374725, -28340.872030362134, -51236.72500094474, -98204.51268011483, -187500.02235174447, -187500.02235174447, -44143.95769166442, -43159.00572049686, -76735.59507555903, -46287.08765352818, -84963.98746538014, -29353.540164654278, 0.0, 0.0, 0.0, 193.0, 0.0, 1.0, 1.0, 0.0, 0.0, 1.0, 1.0, 256.0, 1.0, 1.750525947023046E9, 0.0, 2025-06-21 19:12:27.023
188.0, -41799.773788425184, -38318.2437203221, -27797.076439508968, -68637.22278323445, -27471.72444721752, -28364.788396929314, -51204.62789590692, -98181.91506647052, -187500.02235174447, -187500.02235174447, -44108.93250810296, -43117.54323453227, -76712.57277877007, -46235.65628953651, -84954.97971236464, -29308.300233876736, 0.0, 0.0, 0.0, 193.0, 0.0, 1.0, 1.0, 0.0, 0.0, 1.0, 1.0, 256.0, 1.0, 1.750525947031111E9, 0.0, 2025-06-21 19:12:27.031
190.0, -41822.28199509168, -38346.63043578034, -27821.193971776247, -68672.5608912183, -27448.836260895285, -28334.21121051445, -51233.01461136516, -98202.6798370695, -187500.02235174447, -187500.02235174447, -44140.71668871841, -43155.07181347273, -76731.63881679045, -46280.11390925812, -84960.5005932451, -29348.086339007183, 0.0, 0.0, 0.0, 193.0, 0.0, 1.0, 1.0, 0.0, 0.0, 1.0, 1.0, 256.0, 1.0, 1.750525947038129E9, 0.0, 2025-06-21 19:12:27.038
192.0, -41796.30926803461, -38319.80834243397, -27791.913186539794, -68636.44047217852, -27443.941228859574, -28363.491995750905, -51216.18374779031, -98194.74496778786, -187500.02235174447, -187500.02235174447, -44119.59429020814, -43134.10587717365, -76716.9090171944, -46256.82339153569, -84953.72801467514, -29328.41680388651, 0.0, 0.0, 0.0, 193.0, 0.0, 1.0, 1.0, 0.0, 0.0, 1.0, 1.0, 256.0, 1.0, 1.750525947046186E9, 0.0, 2025-06-21 19:12:27.046
194.0, -41794.85640464502, -38322.57995874643, -27792.60609061791, -68641.51431816988, -27456.704074943555, -28296.66027982954, -51204.15850927336, -98188.24061015138, -187500.02235174447, -187500.02235174447, -44104.21629002289, -43116.26918509832, -76700.92751990886, -46241.87007449509, -84939.1993807792, -29314.066983946203, 0.0, 0.0, 0.0, 193.0, 0.0, 1.0, 1.0, 0.0, 0.0, 1.0, 1.0, 256.0, 1.0, 1.750525947055178E9, 0.0, 2025-06-21 19:12:27.055
196.0, -41809.586204241066, -38328.32435707145, -27802.619672133886, -68652.39961771961, -27456.681723199097, -28323.840001087192, -51237.59671897849, -98202.45631962495, -187500.02235174447, -187500.02235174447, -44120.39895300853, -43135.9834237079, -76709.48823803524, -46268.84863005264, -84942.70860465868, -29335.43525164548, 0.0, 0.0, 0.0, 193.0, 0.0, 1.0, 1.0, 0.0, 0.0, 1.0, 1.0, 256.0, 1.0, 1.750525947062248E9, 0.0, 2025-06-21 19:12:27.062
198.0, -41828.40637307243, -38345.95988344668, -27809.2134367482, -68651.08086479675, -27481.335697333303, -28386.782513473336, -51223.44806473829, -98200.01997947932, -187500.02235174447, -187500.02235174447, -44114.85572038362, -43129.30025211576, -76718.09365965053, -46245.178132674475, -84955.02441585355, -29320.28076890478, 0.0, 0.0, 0.0, 193.0, 0.0, 1.0, 1.0, 0.0, 0.0, 1.0, 1.0, 256.0, 1.0, 1.750525947070267E9, 0.0, 2025-06-21 19:12:27.070
200.0, -41837.883512721484, -38353.78299400604, -27815.114297284403, -68662.41319923558, -27467.4329122821, -28317.827381828713, -51250.58308250703, -98209.98885750638, -187500.02235174447, -187500.02235174447, -44141.90133117454, -43148.88038025861, -76731.75057551272, -46274.749490588845, -84955.51615423158, -29341.939609281973, 0.0, 0.0, 0.0, 193.0, 0.0, 1.0, 1.0, 0.0, 0.0, 1.0, 1.0, 256.0, 1.0, 1.750525947078295E9, 0.0, 2025-06-21 19:12:27.078
202.0, -41808.02158212919, -38326.53621751502, -27803.200817489724, -68638.47448092395, -27460.19094707858, -28322.454192930963, -51219.20123329177, -98186.22895315039, -187500.02235174447, -187500.02235174447, -44128.40087752353, -43138.66563304253, -76729.53775281165, -46255.951673501935, -84958.13130833284, -29325.645187574053, 0.0, 0.0, 0.0, 193.0, 0.0, 1.0, 1.0, 0.0, 0.0, 1.0, 1.0, 256.0, 1.0, 1.750525947087368E9, 0.0, 2025-06-21 19:12:27.087
204.0, -41820.02446890169, -38341.62364502235, -27808.27466348108, -68653.71837064247, -27451.60787720774, -28346.57172519824, -51215.75906464566, -98187.70416828444, -187500.02235174447, -187500.02235174447, -44112.08410407115, -43127.13213290359, -76715.2549881047, -46238.91964422699, -84946.19547679371, -29309.060193188216, 0.0, 0.0, 0.0, 193.0, 0.0, 1.0, 1.0, 0.0, 0.0, 1.0, 1.0, 256.0, 1.0, 1.750525947094392E9, 0.0, 2025-06-21 19:12:27.094
206.0, -41821.47733229129, -38338.87438045435, -27816.32129148499, -68660.20037653451, -27465.175386092116, -28350.75150141138, -51238.20021607879, -98210.05591273976, -187500.02235174447, -187500.02235174447, -44141.9683864079, -43153.2836739163, -76733.89634298043, -46283.757243604334, -84962.89222990183, -29349.85212681915, 0.0, 0.0, 0.0, 193.0, 0.0, 1.0, 1.0, 0.0, 0.0, 1.0, 1.0, 256.0, 1.0, 1.750525947102341E9, 0.0, 2025-06-21 19:12:27.102
208.0, -41802.76892218219, -38322.49055176861, -27799.98216628816, -68640.62024839166, -27467.589374493287, -28359.669847449048, -51209.76879713163, -98183.85966823813, -187500.02235174447, -187500.02235174447, -44117.9626128629, -43126.953318947955, -76718.76421198419, -46243.18882741795, -84956.11965133187, -29318.492629348355, 0.0, 0.0, 0.0, 193.0, 0.0, 1.0, 1.0, 0.0, 0.0, 1.0, 1.0, 256.0, 1.0, 1.750525947111386E9, 0.0, 2025-06-21 19:12:27.111
210.0, -41827.08762014957, -38345.87047646886, -27809.63811989285, -68661.02739107936, -27476.172444364125, -28315.189875982986, -51224.744465916694, -98200.84699402416, -187500.02235174447, -187500.02235174447, -44131.55247349173, -43143.806534267256, -76719.43476431785, -46263.59597010565, -84944.74261340412, -29331.36723415461, 0.0, 0.0, 0.0, 193.0, 0.0, 1.0, 1.0, 0.0, 0.0, 1.0, 1.0, 256.0, 1.0, 1.75052594711839E9, 0.0, 2025-06-21 19:12:27.118
212.0, -41792.97885811077, -38317.595519732895, -27783.73244806915, -68622.60474236068, -27444.81294689333, -28332.110146535655, -51219.357695502964, -98186.16189791703, -187500.02235174447, -187500.02235174447, -44122.61177570961, -43136.095182430174, -76721.02173817417, -46245.84868500813, -84941.65807266928, -29319.319643893203, 0.0, 0.0, 0.0, 193.0, 0.0, 1.0, 1.0, 0.0, 0.0, 1.0, 1.0, 256.0, 1.0, 1.750525947126371E9, 0.0, 2025-06-21 19:12:27.126
214.0, -41838.28584412168, -38355.48172658464, -27815.36016647341, -68657.87579511116, -27470.29393557238, -28308.059669501745, -51243.02819288113, -98207.17253770502, -187500.02235174447, -187500.02235174447, -44116.219176795385, -43129.36730734912, -76716.7078514943, -46233.219949390885, -84939.48995345712, -29305.193341397448, 0.0, 0.0, 0.0, 193.0, 0.0, 1.0, 1.0, 0.0, 0.0, 1.0, 1.0, 256.0, 1.0, 1.750525947134438E9, 0.0, 2025-06-21 19:12:27.134
216.0, -41800.980782625775, -38322.78112444653, -27790.706192339207, -68628.52795464134, -27463.744874446977, -28354.148966568588, -51208.89707909788, -98178.87522922459, -187500.02235174447, -187500.02235174447, -44132.60300548113, -43144.410031367544, -76723.39102308644, -46255.72815605738, -84939.57936043495, -29323.56647533971, 0.0, 0.0, 0.0, 193.0, 0.0, 1.0, 1.0, 0.0, 0.0, 1.0, 1.0, 256.0, 1.0, 1.750525947143482E9, 0.0, 2025-06-21 19:12:27.143
218.0, -41816.24702408875, -38336.72861298664, -27798.037564520546, -68639.21208849098, -27479.01111590995, -28367.42590277504, -51226.82317815103, -98195.59433407716, -187500.02235174447, -187500.02235174447, -44104.551566189715, -43110.86006294013, -76706.29193857813, -46221.59704227412, -84943.96030234818, -29295.872663959584, 0.0, 0.0, 0.0, 193.0, 0.0, 1.0, 1.0, 0.0, 0.0, 1.0, 1.0, 256.0, 1.0, 1.750525947150488E9, 0.0, 2025-06-21 19:12:27.150
220.0, -41822.32669858059, -38336.23687460862, -27803.93842505675, -68649.69505664051, -27464.370723291722, -28283.83037851219, -51229.1924630633, -98199.0812062122, -187500.02235174447, -187500.02235174447, -44128.78085717927, -43140.16319992104, -76719.30065385111, -46262.523086371795, -84944.63085468183, -29331.18842019897, 0.0, 0.0, 0.0, 193.0, 0.0, 1.0, 1.0, 0.0, 0.0, 1.0, 1.0, 256.0, 1.0, 1.750525947158535E9, 0.0, 2025-06-21 19:12:27.158
222.0, -41816.492893277755, -38332.079450139936, -27801.792657589038, -68639.18973674653, -27460.459168012047, -28338.167469283042, -51217.94953560228, -98192.04040670877, -187500.02235174447, -187500.02235174447, -44120.913043131004, -43128.92027246002, -76715.0091189157, -46252.46480136691, -84955.89613388732, -29321.51011484982, 0.0, 0.0, 0.0, 193.0, 0.0, 1.0, 1.0, 0.0, 0.0, 1.0, 1.0, 256.0, 1.0, 1.750525947166553E9, 0.0, 2025-06-21 19:12:27.166
224.0, -41840.52101856721, -38360.86849699837, -27819.919922342295, -68659.82039687877, -27449.216240551024, -28351.26559153385, -51237.23909106721, -98206.90431677156, -187500.02235174447, -187500.02235174447, -44126.90331064502, -43130.507246316345, -76718.74186023974, -46247.07803095318, -84951.80576465199, -29318.22440841489, 0.0, 0.0, 0.0, 193.0, 0.0, 1.0, 1.0, 0.0, 0.0, 1.0, 1.0, 256.0, 1.0, 1.750525947174544E9, 0.0, 2025-06-21 19:12:27.174
226.0, -41816.69405897785, -38335.432211808235, -27793.45545690721, -68641.62607689215, -27473.62434549622, -28314.56402713824, -51225.66088743936, -98190.31932238571, -187500.02235174447, -187500.02235174447, -44141.744868963346, -43159.25158968587, -76733.29284588013, -46277.118775501105, -84955.71731993167, -29344.91239129453, 0.0, 0.0, 0.0, 193.0, 0.0, 1.0, 1.0, 0.0, 0.0, 1.0, 1.0, 256.0, 1.0, 1.750525947182564E9, 0.0, 2025-06-21 19:12:27.182
228.0, -41827.71346899432, -38346.54102880252, -27809.88398908186, -68652.77959737535, -27470.360990805744, -28334.166507025544, -51234.02043986564, -98195.88490675509, -187500.02235174447, -187500.02235174447, -44100.01416206529, -43112.71525772992, -76706.02371764467, -46216.165568371485, -84935.62310166635, -29292.184626124457, 0.0, 0.0, 0.0, 193.0, 0.0, 1.0, 1.0, 0.0, 0.0, 1.0, 1.0, 256.0, 1.0, 1.750525947190588E9, 0.0, 2025-06-21 19:12:27.190
230.0, -41853.66384430693, -38365.11532844488, -27831.118146314402, -68678.6629174546, -27485.627232268722, -28340.693216406493, -51255.500466287194, -98217.40963666554, -187500.02235174447, -187500.02235174447, -44164.186020396475, -43175.188383482506, -76754.07996822357, -46286.148880261055, -84972.61523873988, -29357.407016445046, 0.0, 0.0, 0.0, 193.0, 0.0, 1.0, 1.0, 0.0, 0.0, 1.0, 1.0, 256.0, 1.0, 1.75052594719962E9, 0.0, 2025-06-21 19:12:27.199
232.0, -41824.00307941474, -38331.83358095093, -27812.677957138774, -68647.77280661736, -27493.249177127982, -28343.66599841905, -51229.505387485675, -98199.46118586794, -187500.02235174447, -187500.02235174447, -44149.724441733895, -43154.60242683917, -76745.92158149739, -46263.975949761385, -84966.66967471477, -29338.94447552496, 0.0, 0.0, 0.0, 193.0, 0.0, 1.0, 1.0, 0.0, 0.0, 1.0, 1.0, 256.0, 1.0, 1.750525947205656E9, 0.0, 2025-06-21 19:12:27.205
234.0, -41841.28097787869, -38353.00068295011, -27819.763460131107, -68669.02931559435, -27473.110255373747, -28306.226826456408, -51229.30422178558, -98200.89169751307, -187500.02235174447, -187500.02235174447, -44130.904272902524, -43139.85027549866, -76731.57176155708, -46251.63778682206, -84962.06521535698, -29325.80164978524, 0.0, 0.0, 0.0, 193.0, 0.0, 1.0, 1.0, 0.0, 0.0, 1.0, 1.0, 256.0, 1.0, 1.750525947214664E9, 0.0, 2025-06-21 19:12:27.214
236.0, -41840.16339065592, -38349.24558988161, -27825.08317531147, -68661.96616434648, -27496.378421351725, -28358.015818359356, -51229.505387485675, -98205.22793593741, -187500.02235174447, -187500.02235174447, -44155.2229708699, -43165.30891243326, -76745.608657075, -46284.606609893635, -84962.24402931261, -29354.344827454668, 0.0, 0.0, 0.0, 193.0, 0.0, 1.0, 1.0, 0.0, 0.0, 1.0, 1.0, 256.0, 1.0, 1.750525947222679E9, 0.0, 2025-06-21 19:12:27.222
238.0, -41824.807742215125, -38338.382642076336, -27807.22413149168, -68647.86221359519, -27455.318266787323, -28346.281152520318, -51235.316841044056, -98206.18906094898, -187500.02235174447, -187500.02235174447, -44134.92758690448, -43132.09422017267, -76732.04114819063, -46254.63292057907, -84973.84458468492, -29326.069870718704, 0.0, 0.0, 0.0, 193.0, 0.0, 1.0, 1.0, 0.0, 0.0, 1.0, 1.0, 256.0, 1.0, 1.750525947230732E9, 0.0, 2025-06-21 19:12:27.230
240.0, -41855.18376292989, -38366.36702613438, -27831.811050392516, -68687.17893209207, -27503.240406899502, -28325.56108541025, -51273.44891708481, -98234.75459036286, -187500.02235174447, -187500.02235174447, -44137.85566542813, -43152.70252856047, -76726.7661364992, -46283.556077904235, -84958.53363973304, -29353.026074531805, 0.0, 0.0, 0.0, 193.0, 0.0, 1.0, 1.0, 0.0, 0.0, 1.0, 1.0, 256.0, 1.0, 1.750525947237775E9, 0.0, 2025-06-21 19:12:27.237
242.0, -41847.58416981508, -38355.63818879583, -27837.153117317335, -68674.01375460789, -27480.173406621627, -28343.733053652413, -51285.362396879485, -98246.01986956834, -187500.02235174447, -187500.02235174447, -44164.99068319687, -43173.93668579301, -76758.25974443671, -46302.66681941353, -85001.5607478095, -29373.76849338633, 0.0, 0.0, 0.0, 193.0, 0.0, 1.0, 1.0, 0.0, 0.0, 1.0, 1.0, 256.0, 1.0, 1.750525947246791E9, 0.0, 2025-06-21 19:12:27.246
244.0, -41843.51615232422, -38349.133831159335, -27826.714852656707, -68667.64350743813, -27481.894490944684, -28314.385213182595, -51254.740506975715, -98219.75656983335, -187500.02235174447, -187500.02235174447, -44149.50092428934, -43155.09416521718, -76745.00515997472, -46271.597894620645, -84977.19734635322, -29345.359426183633, 0.0, 0.0, 0.0, 193.0, 0.0, 1.0, 1.0, 0.0, 0.0, 1.0, 1.0, 256.0, 1.0, 1.750525947254855E9, 0.0, 2025-06-21 19:12:27.254
246.0, -41842.06328893462, -38345.088165412926, -27824.658492166818, -68662.2567370244, -27487.862406714252, -28345.856469375667, -51240.1448178464, -98213.00634300784, -187500.02235174447, -187500.02235174447, -44154.261845858324, -43159.5868658527, -76740.84773550603, -46278.54928714625, -84963.2498578131, -29347.61695237362, 0.0, 0.0, 0.0, 193.0, 0.0, 1.0, 1.0, 0.0, 0.0, 1.0, 1.0, 256.0, 1.0, 1.75052594726194E9, 0.0, 2025-06-21 19:12:27.261
248.0, -41851.652187305954, -38362.03078771005, -27829.754689902627, -68670.99626910643, -27472.663220484643, -28318.207361484452, -51236.41207652236, -98211.5311278738, -187500.02235174447, -187500.02235174447, -44149.03153765578, -43157.06111872925, -76749.47550886578, -46258.27625492529, -84981.60064001092, -29335.61406560112, 0.0, 0.0, 0.0, 193.0, 0.0, 1.0, 1.0, 0.0, 0.0, 1.0, 1.0, 256.0, 1.0, 1.75052594727086E9, 0.0, 2025-06-21 19:12:27.270
250.0, -41846.198361658855, -38357.806308007996, -27811.381555960364, -68657.09348405522, -27493.651508528175, -28318.006195784357, -51241.08359111352, -98210.39118890658, -187500.02235174447, -187500.02235174447, -44147.08693588817, -43157.35169140717, -76737.09264243754, -46271.28497019827, -84953.97388386415, -29343.70539709394, 0.0, 0.0, 0.0, 193.0, 0.0, 1.0, 1.0, 0.0, 0.0, 1.0, 1.0, 256.0, 1.0, 1.750525947278994E9, 0.0, 2025-06-21 19:12:27.278
252.0, -41820.78442821317, -38336.70626124219, -27794.416581918787, -68635.41229193358, -27472.52911001791, -28377.17126335755, -51221.592869948494, -98188.88881074058, -187500.02235174447, -187500.02235174447, -44134.21233108191, -43139.470295842926, -76729.73891851175, -46258.90210377004, -84958.6006949664, -29331.300178921247, 0.0, 0.0, 0.0, 193.0, 0.0, 1.0, 1.0, 0.0, 0.0, 1.0, 1.0, 256.0, 1.0, 1.750525947285908E9, 0.0, 2025-06-21 19:12:27.285
254.0, -41846.01954770322, -38364.28831390003, -27810.822762348984, -68655.79708287682, -27479.502854287966, -28331.484297690906, -51232.90285264288, -98203.7303690589, -187500.02235174447, -187500.02235174447, -44119.661345441506, -43124.002888679854, -76716.39492707193, -46239.45608609392, -84939.55700869048, -29315.162219424514, 0.0, 0.0, 0.0, 193.0, 0.0, 1.0, 1.0, 0.0, 0.0, 1.0, 1.0, 256.0, 1.0, 1.750525947293875E9, 0.0, 2025-06-21 19:12:27.293
0.0, -41854.15558268494, -38365.45060461171, -27827.050128823535, -68670.32571677277, -27480.95571767756, -28337.876896605125, -51255.925149431845, -98214.23568895289, -187500.02235174447, -187500.02235174447, -44160.31916860571, -43165.13009847762, -76747.37444488698, -46289.03225529579, -84967.36257879289, -29358.211679245436, 0.0, 0.0, 0.0, 193.0, 0.0, 1.0, 1.0, 0.0, 0.0, 1.0, 1.0, 256.0, 1.0, 1.750525947302958E9, 0.0, 2025-06-21 19:12:27.302
2.0, -41847.8300390041, -38357.96277021918, -27815.159000773314, -68659.88745211213, -27503.62038655524, -28315.346338194173, -51237.30614630057, -98205.65261908206, -187500.02235174447, -187500.02235174447, -44142.84010444166, -43153.238970427396, -76745.40749137492, -46260.31026367072, -84977.33145681996, -29338.877420291596, 0.0, 0.0, 0.0, 193.0, 0.0, 1.0, 1.0, 0.0, 0.0, 1.0, 1.0, 256.0, 1.0, 1.750525947310964E9, 0.0, 2025-06-21 19:12:27.310
4.0, -41849.9311029829, -38360.041482453526, -27814.55550367302, -68657.54051894433, -27489.225863126027, -28332.445422702483, -51255.232245353734, -98221.14237798958, -187500.02235174447, -187500.02235174447, -44143.33184281967, -43152.2331419269, -76733.71752902478, -46279.711577857925, -84965.79795668101, -29349.449795418954, 0.0, 0.0, 0.0, 193.0, 0.0, 1.0, 1.0, 0.0, 0.0, 1.0, 1.0, 256.0, 1.0, 1.750525947317994E9, 0.0, 2025-06-21 19:12:27.317
6.0, -41835.313062109126, -38339.0978978989, -27805.100715768425, -68638.54153615733, -27481.268642099934, -28386.022554161857, -51234.75804743267, -98192.8227177647, -187500.02235174447, -187500.02235174447, -44134.63701422656, -43132.27303412832, -76726.94495045482, -46259.25973168132, -84965.57443923646, -29332.842449288662, 0.0, 0.0, 0.0, 193.0, 0.0, 1.0, 1.0, 0.0, 0.0, 1.0, 1.0, 256.0, 1.0, 1.750525947326036E9, 0.0, 2025-06-21 19:12:27.326
8.0, -41843.51615232422, -38351.63722653833, -27807.112372769403, -68648.1080827842, -27478.67583974312, -28323.951759809468, -51233.86397765446, -98203.10452021415, -187500.02235174447, -187500.02235174447, -44129.33965079065, -43128.07090617072, -76722.2063806303, -46248.955577487424, -84958.69010194423, -29323.410013128523, 0.0, 0.0, 0.0, 193.0, 0.0, 1.0, 1.0, 0.0, 0.0, 1.0, 1.0, 256.0, 1.0, 1.750525947335045E9, 0.0, 2025-06-21 19:12:27.335
10.0, -41836.78827724318, -38351.77133700506, -27811.06863153799, -68656.7582078884, -27471.4338745396, -28302.40467815455, -51237.50731200067, -98198.433005623, -187500.02235174447, -187500.02235174447, -44138.10153461713, -43140.34201387668, -76723.18985738634, -46268.35689167463, -84948.00596809459, -29336.84341154616, 0.0, 0.0, 0.0, 193.0, 0.0, 1.0, 1.0, 0.0, 0.0, 1.0, 1.0, 256.0, 1.0, 1.750525947342099E9, 0.0, 2025-06-21 19:12:27.342
12.0, -41846.31012038113, -38358.9015434863, -27821.439840965253, -68661.11679805718, -27486.00721192446, -28346.32585600923, -51234.78039917713, -98203.17157544752, -187500.02235174447, -187500.02235174447, -44137.58744449466, -43144.410031367544, -76739.73014828327, -46259.662063081516, -84979.58898300993, -29334.09414697816, 0.0, 0.0, 0.0, 193.0, 0.0, 1.0, 1.0, 0.0, 0.0, 1.0, 1.0, 256.0, 1.0, 1.750525947350124E9, 0.0, 2025-06-21 19:12:27.350
14.0, -41855.854315263554, -38367.21639242368, -27825.060823567015, -68678.43940001004, -27483.950851434573, -28314.541675393782, -51261.28956810112, -98212.78282556329, -187500.02235174447, -187500.02235174447, -44152.76427897981, -43165.26420894435, -76744.1110901965, -46287.80290935074, -84966.6026194814, -29358.122272267614, 0.0, 0.0, 0.0, 193.0, 0.0, 1.0, 1.0, 0.0, 0.0, 1.0, 1.0, 256.0, 1.0, 1.750525947358187E9, 0.0, 2025-06-21 19:12:27.358
16.0, -41833.59197778606, -38344.998758435104, -27816.008367062615, -68652.86900435317, -27471.702095473065, -28369.772835942847, -51227.56078571806, -98194.54380208776, -187500.02235174447, -187500.02235174447, -44143.24243584185, -43151.629644826615, -76739.84190700554, -46270.99439752036, -84969.82127068297, -29345.71705409492, 0.0, 0.0, 0.0, 193.0, 0.0, 1.0, 1.0, 0.0, 0.0, 1.0, 1.0, 256.0, 1.0, 1.750525947367169E9, 0.0, 2025-06-21 19:12:27.367
18.0, -41855.38492862999, -38368.11046220189, -27824.479678211177, -68671.17508306207, -27486.34248809129, -28326.008120299357, -51262.02717566815, -98218.12489248812, -187500.02235174447, -187500.02235174447, -44132.871226414594, -43136.92219697502, -76730.76709875668, -46249.76024028781, -84956.99136936563, -29326.09222246316, 0.0, 0.0, 0.0, 193.0, 0.0, 1.0, 1.0, 0.0, 0.0, 1.0, 1.0, 256.0, 1.0, 1.750525947374171E9, 0.0, 2025-06-21 19:12:27.374
20.0, -41855.11670769653, -38369.473918613665, -27833.107451570926, -68670.81745515078, -27469.086941371792, -28320.88957081909, -51261.803658223595, -98214.63802035309, -187500.02235174447, -187500.02235174447, -44172.90320073404, -43182.07272077474, -76765.52406138468, -46300.85632811265, -84979.47722428766, -29372.24857476337, 0.0, 0.0, 0.0, 193.0, 0.0, 1.0, 1.0, 0.0, 0.0, 1.0, 1.0, 256.0, 1.0, 1.750525947382179E9, 0.0, 2025-06-21 19:12:27.382
22.0, -41833.88255046398, -38346.406918335786, -27808.27466348108, -68651.41614096357, -27504.290938888902, -28342.503707707372, -51244.19048359281, -98200.42231087951, -187500.02235174447, -187500.02235174447, -44134.21233108191, -43146.60050232417, -76742.01002621771, -46252.44244962245, -84974.06810212947, -29328.03682423077, 0.0, 0.0, 0.0, 193.0, 0.0, 1.0, 1.0, 0.0, 0.0, 1.0, 1.0, 256.0, 1.0, 1.750525947391264E9, 0.0, 2025-06-21 19:12:27.391
24.0, -41856.88249550849, -38365.74117728963, -27817.997672319136, -68672.89616738513, -27491.72925850502, -28322.32008246423, -51275.59468455252, -98219.84597681118, -187500.02235174447, -187500.02235174447, -44140.20259859593, -43151.428479126516, -76735.68448253686, -46279.152784246544, -84960.92527638975, -29349.6286093746, 0.0, 0.0, 0.0, 193.0, 0.0, 1.0, 1.0, 0.0, 0.0, 1.0, 1.0, 256.0, 1.0, 1.75052594739829E9, 0.0, 2025-06-21 19:12:27.398
26.0, -41837.28001562119, -38351.03372943804, -27819.495239197644, -68657.07113231077, -27481.268642099934, -28362.262649805863, -51234.62393696594, -98201.98693299138, -187500.02235174447, -187500.02235174447, -44143.711822475416, -43152.09903146017, -76740.60186631703, -46274.54832488875, -84972.81640443997, -29349.740368096875, 0.0, 0.0, 0.0, 193.0, 0.0, 1.0, 1.0, 0.0, 0.0, 1.0, 1.0, 256.0, 1.0, 1.750525947406321E9, 0.0, 2025-06-21 19:12:27.406
28.0, -41846.488934336776, -38359.46033709769, -27821.953931087726, -68667.37528650467, -27501.675784787632, -28317.626216128614, -51249.912530173366, -98212.08992148518, -187500.02235174447, -187500.02235174447, -44141.56605500771, -43149.528580847815, -76739.14900292743, -46273.54249638826, -84977.57732600896, -29347.862821562627, 0.0, 0.0, 0.0, 193.0, 0.0, 1.0, 1.0, 0.0, 0.0, 1.0, 1.0, 256.0, 1.0, 1.750525947414393E9, 0.0, 2025-06-21 19:12:27.414
30.0, -41811.93313740887, -38328.078487882434, -27788.06868649348, -68639.27914372434, -27453.775996419907, -28322.70006211997, -51211.78045413261, -98174.02490067779, -187500.02235174447, -187500.02235174447, -44131.77599093628, -43146.645205813074, -76720.9099794519, -46277.81167957922, -84956.41022400979, -29345.359426183633, 0.0, 0.0, 0.0, 193.0, 0.0, 1.0, 1.0, 0.0, 0.0, 1.0, 1.0, 256.0, 1.0, 1.750525947423375E9, 0.0, 2025-06-21 19:12:27.423
32.0, -41859.11766995402, -38369.27275291357, -27824.390271233355, -68669.29753652783, -27494.411467839658, -28360.80978641627, -51272.66660602887, -98231.35712520566, -187500.02235174447, -187500.02235174447, -44126.858607156115, -43142.21956041093, -76733.62812204697, -46253.73885080086, -84964.76977643606, -29334.272960933802, 0.0, 0.0, 0.0, 193.0, 0.0, 1.0, 1.0, 0.0, 0.0, 1.0, 1.0, 256.0, 1.0, 1.75052594742935E9, 0.0, 2025-06-21 19:12:27.429
34.0, -41858.73769029829, -38368.02105522407, -27812.99088156115, -68659.39571373412, -27478.20645310956, -28335.440556459496, -51269.87263797196, -98218.46016865494, -187500.02235174447, -187500.02235174447, -44139.46499102891, -43146.041708712786, -76732.68934877985, -46269.362720175115, -84947.58128494993, -29343.213658715926, 0.0, 0.0, 0.0, 193.0, 0.0, 1.0, 1.0, 0.0, 0.0, 1.0, 1.0, 256.0, 1.0, 1.750525947438373E9, 0.0, 2025-06-21 19:12:27.438
36.0, -41856.88249550849, -38367.171688934766, -27816.12012578489, -68653.53955668682, -27512.44932561509, -28351.08677757821, -51267.324539104055, -98213.81100580824, -187500.02235174447, -187500.02235174447, -44153.65834875803, -43159.07277573023, -76753.43176763436, -46267.909856785525, -84968.03313112655, -29342.364292426624, 0.0, 0.0, 0.0, 193.0, 0.0, 1.0, 1.0, 0.0, 0.0, 1.0, 1.0, 256.0, 1.0, 1.7505259474464E9, 0.0, 2025-06-21 19:12:27.446
38.0, -41860.4811263658, -38365.294142400526, -27812.096811782936, -68651.3043822413, -27492.556273049864, -28311.501838147862, -51250.76189646267, -98207.12783421611, -187500.02235174447, -187500.02235174447, -44132.04421186975, -43134.5305603183, -76733.49401158023, -46244.261711151805, -84953.5492007195, -29317.531504336777, 0.0, 0.0, 0.0, 193.0, 0.0, 1.0, 1.0, 0.0, 0.0, 1.0, 1.0, 256.0, 1.0, 1.750525947454455E9, 0.0, 2025-06-21 19:12:27.454
40.0, -41862.26926592222, -38370.47974711416, -27818.847038608437, -68663.82135913627, -27488.376496836725, -28311.0324515143, -51265.782268736635, -98219.08601749969, -187500.02235174447, -187500.02235174447, -44155.91587494801, -43161.71028157596, -76746.03334021966, -46279.085729013175, -84956.61138970988, -29348.399263429557, 0.0, 0.0, 0.0, 193.0, 0.0, 1.0, 1.0, 0.0, 0.0, 1.0, 1.0, 256.0, 1.0, 1.750525947462546E9, 0.0, 2025-06-21 19:12:27.462
42.0, -41837.86116097703, -38356.264037640576, -27802.820837833984, -68644.956486816, -27475.72540947502, -28340.00031232838, -51251.11952437396, -98204.51268011483, -187500.02235174447, -187500.02235174447, -44128.959671134915, -43136.229292896904, -76733.87399123597, -46249.0673362097, -84964.38979678034, -29325.13109745158, 0.0, 0.0, 0.0, 193.0, 0.0, 1.0, 1.0, 0.0, 0.0, 1.0, 1.0, 256.0, 1.0, 1.750525947470475E9, 0.0, 2025-06-21 19:12:27.470
44.0, -41856.88249550849, -38370.70326455871, -27816.209532762714, -68663.39667599162, -27466.337676803792, -28315.07811726071, -51261.35662333448, -98216.69438084298, -187500.02235174447, -187500.02235174447, -44130.03255486877, -43141.683118544, -76723.39102308644, -46267.32871142968, -84947.69304367222, -29336.262266190322, 0.0, 0.0, 0.0, 193.0, 0.0, 1.0, 1.0, 0.0, 0.0, 1.0, 1.0, 256.0, 1.0, 1.75052594747856E9, 0.0, 2025-06-21 19:12:27.478
46.0, -41831.91559695192, -38348.53033405904, -27805.92773031327, -68646.11877752766, -27486.409543324655, -28351.46675723395, -51248.012631894664, -98201.29402891327, -187500.02235174447, -187500.02235174447, -44142.12484861909, -43148.36629013614, -76739.75250002772, -46274.54832488875, -84973.062273629, -29347.19226922897, 0.0, 0.0, 0.0, 193.0, 0.0, 1.0, 1.0, 0.0, 0.0, 1.0, 1.0, 256.0, 1.0, 1.75052594748551E9, 0.0, 2025-06-21 19:12:27.485
48.0, -41864.21386768983, -38377.67700882876, -27828.905323613326, -68673.14203657414, -27499.798238253385, -28333.540658180795, -51261.69189950132, -98216.80613956525, -187500.02235174447, -187500.02235174447, -44133.80999968171, -43143.13598193359, -76738.09847093803, -46262.83601079417, -84968.68133171575, -29337.37985341309, 0.0, 0.0, 0.0, 193.0, 0.0, 1.0, 1.0, 0.0, 0.0, 1.0, 1.0, 256.0, 1.0, 1.750525947494587E9, 0.0, 2025-06-21 19:12:27.494
50.0, -41854.33439664059, -38361.360235376385, -27823.339739243955, -68666.41416149308, -27489.605842781766, -28290.848826271158, -51278.41100435388, -98220.96356403394, -187500.02235174447, -187500.02235174447, -44155.33472959218, -43163.92310427703, -76747.73207279827, -46289.90397332954, -84969.7095119607, -29359.10574902365, 0.0, 0.0, 0.0, 193.0, 0.0, 1.0, 1.0, 0.0, 0.0, 1.0, 1.0, 256.0, 1.0, 1.750525947502554E9, 0.0, 2025-06-21 19:12:27.502
52.0, -41849.81934426062, -38364.1542034333, -27817.26006475211, -68653.91953634257, -27487.974165436528, -28373.684391222527, -51257.48977154372, -98210.48059588441, -187500.02235174447, -187500.02235174447, -44133.65353747053, -43142.71129878894, -76739.05959594961, -46250.72136529939, -84971.09532011692, -29326.874533519094, 0.0, 0.0, 0.0, 193.0, 0.0, 1.0, 1.0, 0.0, 0.0, 1.0, 1.0, 256.0, 1.0, 1.750525947510662E9, 0.0, 2025-06-21 19:12:27.510
54.0, -41871.366425915534, -38371.97731399266, -27824.300864255532, -68668.89520512763, -27487.951813692074, -28318.676748118014, -51279.66270204338, -98229.4348751825, -187500.02235174447, -187500.02235174447, -44159.425098827494, -43164.772470566335, -76750.10135771053, -46285.098348271655, -84969.17307009376, -29355.66358037753, 0.0, 0.0, 0.0, 193.0, 0.0, 1.0, 1.0, 0.0, 0.0, 1.0, 1.0, 256.0, 1.0, 1.750525947518666E9, 0.0, 2025-06-21 19:12:27.518
56.0, -41832.38498358548, -38343.881171212335, -27796.852922064416, -68635.16642274457, -27490.67872651562, -28352.33847526771, -51237.887291656414, -98198.09772945616, -187500.02235174447, -187500.02235174447, -44135.15110434903, -43140.096144687675, -76732.59994180202, -46258.27625492529, -84955.94083737623, -29330.830792287685, 0.0, 0.0, 0.0, 193.0, 0.0, 1.0, 1.0, 0.0, 0.0, 1.0, 1.0, 256.0, 1.0, 1.750525947526679E9, 0.0, 2025-06-21 19:12:27.526
58.0, -41858.11184145354, -38369.183345935744, -27817.70709964122, -68659.82039687877, -27490.25404337097, -28337.27339950483, -51252.9970709082, -98211.44172089598, -187500.02235174447, -187500.02235174447, -44126.076296100175, -43132.608310295145, -76724.19568588682, -46245.22283616338, -84949.12355531736, -29321.018376471806, 0.0, 0.0, 0.0, 193.0, 0.0, 1.0, 1.0, 0.0, 0.0, 1.0, 1.0, 256.0, 1.0, 1.750525947534702E9, 0.0, 2025-06-21 19:12:27.534
60.0, -41865.86789677953, -38369.25040116911, -27825.194934033745, -68663.17315854707, -27473.132607118205, -28288.054858214244, -51273.963007207276, -98222.34937219018, -187500.02235174447, -187500.02235174447, -44149.098592889146, -43149.930912248004, -76734.41043310291, -46273.87777255509, -84950.62112219587, -29343.504231393843, 0.0, 0.0, 0.0, 193.0, 0.0, 1.0, 1.0, 0.0, 0.0, 1.0, 1.0, 256.0, 1.0, 1.750525947542773E9, 0.0, 2025-06-21 19:12:27.542
62.0, -41838.64347203296, -38344.32820610145, -27807.581759402965, -68642.0507600368, -27471.52328151742, -28341.520230951337, -51250.0466406401, -98201.53989810227, -187500.02235174447, -187500.02235174447, -44140.24730208484, -43143.18068542251, -76742.8146890181, -46254.94584500144, -84970.98356139465, -29331.99308299936, 0.0, 0.0, 0.0, 193.0, 0.0, 1.0, 1.0, 0.0, 0.0, 1.0, 1.0, 256.0, 1.0, 1.750525947550737E9, 0.0, 2025-06-21 19:12:27.550
64.0, -41886.20798423386, -38394.083189258956, -27855.03451288158, -68693.37036530618, -27485.11314214625, -28332.646588402582, -51291.933809749346, -98238.64379389808, -187500.02235174447, -187500.02235174447, -44152.2725406018, -43151.80845878225, -76743.35113088503, -46278.14695574605, -84961.77464267905, -29348.734539596386, 0.0, 0.0, 0.0, 193.0, 0.0, 1.0, 1.0, 0.0, 0.0, 1.0, 1.0, 256.0, 1.0, 1.750525947558814E9, 0.0, 2025-06-21 19:12:27.558
66.0, -41842.30915812364, -38345.62460727985, -27822.669186910294, -68654.97006833197, -27502.078116187826, -28356.47354799194, -51267.391594337416, -98205.78672954878, -187500.02235174447, -187500.02235174447, -44154.820639469704, -43157.709319318456, -76752.7612153007, -46278.41517667952, -84982.31589583348, -29351.930839053493, 0.0, 0.0, 0.0, 193.0, 0.0, 1.0, 1.0, 0.0, 0.0, 1.0, 1.0, 256.0, 1.0, 1.750525947565804E9, 0.0, 2025-06-21 19:12:27.565
68.0, -41878.787205074696, -38386.43889265524, -27842.092852841957, -68686.0166413804, -27508.4930668465, -28335.373501226128, -51276.421699097365, -98231.04420078329, -187500.02235174447, -187500.02235174447, -44148.74096497786, -43154.80359253926, -76751.2636484222, -46280.404481936035, -84989.64726801483, -29356.937629811484, 0.0, 0.0, 0.0, 193.0, 0.0, 1.0, 1.0, 0.0, 0.0, 1.0, 1.0, 256.0, 1.0, 1.750525947573828E9, 0.0, 2025-06-21 19:12:27.573
70.0, -41869.3324171701, -38386.41654091079, -27836.393158005856, -68679.28876629935, -27486.990688680493, -28319.302596962763, -51268.66564377137, -98223.89164255759, -187500.02235174447, -187500.02235174447, -44163.35900585163, -43170.78508982481, -76757.34332291405, -46304.96904909242, -84982.47235804467, -29376.897737610074, 0.0, 0.0, 0.0, 193.0, 0.0, 1.0, 1.0, 0.0, 0.0, 1.0, 1.0, 256.0, 1.0, 1.750525947582882E9, 0.0, 2025-06-21 19:12:27.582
72.0, -41853.887361751484, -38376.62647683937, -27822.780945632574, -68664.89424287013, -27470.15982510565, -28343.84481237469, -51261.6471960124, -98218.79544482178, -187500.02235174447, -187500.02235174447, -44145.07527888719, -43159.67627283052, -76755.39872114644, -46268.62511260809, -84979.96896266568, -29349.80742333024, 0.0, 0.0, 0.0, 193.0, 0.0, 1.0, 1.0, 0.0, 0.0, 1.0, 1.0, 256.0, 1.0, 1.750525947590895E9, 0.0, 2025-06-21 19:12:27.590
74.0, -41875.90383003996, -38387.377665922366, -27833.75565216013, -68682.39565877864, -27484.375534579223, -28328.064480789242, -51271.9513502063, -98226.66325887004, -187500.02235174447, -187500.02235174447, -44150.350290578644, -43161.57617110922, -76746.03334021966, -46281.879697070086, -84958.93597113324, -29355.596525144163, 0.0, 0.0, 0.0, 193.0, 0.0, 1.0, 1.0, 0.0, 0.0, 1.0, 1.0, 256.0, 1.0, 1.750525947597911E9, 0.0, 2025-06-21 19:12:27.597
76.0, -41872.975751516315, -38385.634229854855, -27832.95098935974, -68666.86119638219, -27499.55236906438, -28352.874917134635, -51264.41881232486, -98214.63802035309, -187500.02235174447, -187500.02235174447, -44158.799249982745, -43166.11357523365, -76758.14798571444, -46272.76018533232, -84971.18472709475, -29347.058158762236, 0.0, 0.0, 0.0, 193.0, 0.0, 1.0, 1.0, 0.0, 0.0, 1.0, 1.0, 256.0, 1.0, 1.75052594760594E9, 0.0, 2025-06-21 19:12:27.605
78.0, -41876.4849753958, -38386.684761844255, -27822.535076443564, -68663.88841436963, -27481.358049077757, -28348.784547899315, -51266.60928328148, -98211.44172089598, -187500.02235174447, -187500.02235174447, -44155.535895292276, -43157.37404315163, -76756.65041883594, -46255.37052814609, -84964.81447992499, -29332.5742283552, 0.0, 0.0, 0.0, 193.0, 0.0, 1.0, 1.0, 0.0, 0.0, 1.0, 1.0, 256.0, 1.0, 1.750525947614976E9, 0.0, 2025-06-21 19:12:27.614
80.0, -41869.37712065901, -38372.58081109295, -27822.42331772129, -68664.87189112567, -27491.550444549375, -28316.97801553941, -51267.54805654861, -98210.90527902906, -187500.02235174447, -187500.02235174447, -44153.412479569015, -43159.184534452506, -76745.22867741928, -46266.68051084048, -84947.73774716113, -29338.56449586922, 0.0, 0.0, 0.0, 193.0, 0.0, 1.0, 1.0, 0.0, 0.0, 1.0, 1.0, 256.0, 1.0, 1.750525947621982E9, 0.0, 2025-06-21 19:12:27.621
82.0, -41883.97280978833, -38391.87036655788, -27841.019969108103, -68683.5579494903, -27517.88079951773, -28342.61546642965, -51275.348815363504, -98223.44460766848, -187500.02235174447, -187500.02235174447, -44148.808020211225, -43162.5372961208, -76757.14215721395, -46259.75147005934, -84980.52775627706, -29339.503269136345, 0.0, 0.0, 0.0, 193.0, 0.0, 1.0, 1.0, 0.0, 0.0, 1.0, 1.0, 256.0, 1.0, 1.750525947629958E9, 0.0, 2025-06-21 19:12:27.629
84.0, -41880.731806842305, -38395.60310788192, -27839.74591967415, -68677.50062674291, -27490.991650937995, -28339.75444313937, -51272.554847306594, -98223.48931115739, -187500.02235174447, -187500.02235174447, -44176.0771484467, -43183.77145335334, -76767.13338698547, -46300.275182756806, -84987.05446565802, -29371.645077663074, 0.0, 0.0, 0.0, 193.0, 0.0, 1.0, 1.0, 0.0, 0.0, 1.0, 1.0, 256.0, 1.0, 1.750525947639018E9, 0.0, 2025-06-21 19:12:27.639
86.0, -41875.61325736204, -38392.339753191445, -27835.432032994275, -68671.64446969563, -27491.48338931601, -28359.93806838251, -51268.55388504909, -98218.41546516604, -187500.02235174447, -187500.02235174447, -44159.00041568284, -43158.64809258558, -76755.51047986871, -46283.623133137604, -84983.29937258952, -29356.021208288817, 0.0, 0.0, 0.0, 193.0, 0.0, 1.0, 1.0, 0.0, 0.0, 1.0, 1.0, 256.0, 1.0, 1.750525947647031E9, 0.0, 2025-06-21 19:12:27.647
88.0, -41869.95826601485, -38386.55065137752, -27824.725547400183, -68672.3597255182, -27461.219127323526, -28349.790376399804, -51255.098134887, -98207.23959293838, -187500.02235174447, -187500.02235174447, -44145.16468586501, -43153.797764038776, -76746.23450591975, -46269.80975506422, -84972.48112827315, -29345.448833161456, 0.0, 0.0, 0.0, 193.0, 0.0, 1.0, 1.0, 0.0, 0.0, 1.0, 1.0, 256.0, 1.0, 1.750525947654069E9, 0.0, 2025-06-21 19:12:27.654
90.0, -41891.88532732551, -38409.28237548857, -27847.166698833313, -68698.28774908636, -27508.761287779962, -28337.51926869384, -51278.4557078428, -98225.54567164728, -187500.02235174447, -187500.02235174447, -44168.61166579863, -43184.73257836492, -76762.84185205006, -46302.01861882432, -84975.09628237442, -29372.159167785547, 0.0, 0.0, 0.0, 193.0, 0.0, 1.0, 1.0, 0.0, 0.0, 1.0, 1.0, 256.0, 1.0, 1.750525947662103E9, 0.0, 2025-06-21 19:12:27.662
92.0, -41868.371292158525, -38380.515680374585, -27819.517590942098, -68661.45207422401, -27480.374572321725, -28324.35409120966, -51260.73077448973, -98202.32220915821, -187500.02235174447, -187500.02235174447, -44152.160781879524, -43168.77343282383, -76760.13729097096, -46272.514316143315, -84987.23327961365, -29349.47214716341, 0.0, 0.0, 0.0, 193.0, 0.0, 1.0, 1.0, 0.0, 0.0, 1.0, 1.0, 256.0, 1.0, 1.750525947670117E9, 0.0, 2025-06-21 19:12:27.670
94.0, -41900.937783829904, -38412.3669162234, -27847.50197500014, -68686.0166413804, -27479.77107522143, -28365.771873685346, -51275.572332808064, -98225.81389258074, -187500.02235174447, -187500.02235174447, -44147.04223239925, -43153.35072914967, -76742.12178493998, -46272.89429579906, -84954.73384317564, -29343.5265831383, 0.0, 0.0, 0.0, 193.0, 0.0, 1.0, 1.0, 0.0, 0.0, 1.0, 1.0, 256.0, 1.0, 1.750525947678137E9, 0.0, 2025-06-21 19:12:27.678
96.0, -41893.94168781539, -38409.0141545551, -27833.196858548745, -68664.82718763677, -27510.795296525397, -28383.899138438603, -51261.2001611233, -98211.62053485162, -187500.02235174447, -187500.02235174447, -44185.084901462185, -43181.87155507464, -76780.5220819142, -46297.21299376643, -85001.5607478095, -29369.58871717319, 0.0, 0.0, 0.0, 193.0, 0.0, 1.0, 1.0, 0.0, 0.0, 1.0, 1.0, 256.0, 1.0, 1.750525947686152E9, 0.0, 2025-06-21 19:12:27.686
98.0, -41886.72207435633, -38401.97335505168, -27827.966550346202, -68668.17994930505, -27499.15003766418, -28317.872085317624, -51258.96498667777, -98206.12200571562, -187500.02235174447, -187500.02235174447, -44148.9197789335, -43153.01545298284, -76750.615447833, -46256.06343222421, -84966.44615727021, -29332.976559755392, 0.0, 0.0, 0.0, 193.0, 0.0, 1.0, 1.0, 0.0, 0.0, 1.0, 1.0, 256.0, 1.0, 1.750525947694235E9, 0.0, 2025-06-21 19:12:27.694
100.0, -41900.468397196346, -38417.999555826136, -27849.021893623103, -68687.40244953662, -27509.498895346987, -28366.598888230194, -51271.63842578392, -98219.3318866887, -187500.02235174447, -187500.02235174447, -44177.57471532521, -43179.56932539574, -76765.81463406261, -46298.15176703355, -84980.19248011023, -29368.426426461512, 0.0, 0.0, 0.0, 193.0, 0.0, 1.0, 1.0, 0.0, 0.0, 1.0, 1.0, 256.0, 1.0, 1.750525947703214E9, 0.0, 2025-06-21 19:12:27.703
102.0, -41893.02526629272, -38408.65652664382, -27840.260009796624, -68679.73580118845, -27492.131589905213, -28328.198591255976, -51259.5461320336, -98210.86057554014, -187500.02235174447, -187500.02235174447, -44157.39109008206, -43166.18063046702, -76764.74175032876, -46269.13920273056, -84984.97575342367, -29347.438138417976, 0.0, 0.0, 0.0, 193.0, 0.0, 1.0, 1.0, 0.0, 0.0, 1.0, 1.0, 256.0, 1.0, 1.750525947710232E9, 0.0, 2025-06-21 19:12:27.710
104.0, -41891.46064418086, -38419.00538432663, -27832.392195748354, -68685.74842044692, -27464.884813414195, -28348.628085688128, -51261.58014077904, -98209.07243598372, -187500.02235174447, -187500.02235174447, -44175.69716879096, -43189.62761040063, -76770.21792772031, -46300.968086834924, -84977.1079393754, -29374.461397464445, 0.0, 0.0, 0.0, 193.0, 0.0, 1.0, 1.0, 0.0, 0.0, 1.0, 1.0, 256.0, 1.0, 1.750525947718266E9, 0.0, 2025-06-21 19:12:27.718
106.0, -41889.02430403523, -38416.233768014165, -27837.0190068506, -68683.46854251249, -27497.741877763496, -28379.026458147346, -51243.98931789271, -98206.90431677156, -187500.02235174447, -187500.02235174447, -44160.140354650066, -43174.40607242657, -76761.47839563827, -46286.17123200551, -84978.02436089807, -29363.777263614807, 0.0, 0.0, 0.0, 193.0, 0.0, 1.0, 1.0, 0.0, 0.0, 1.0, 1.0, 256.0, 1.0, 1.750525947726306E9, 0.0, 2025-06-21 19:12:27.726
108.0, -41910.75019964579, -38434.763364167615, -27849.2230593232, -68692.02926063887, -27509.141267435705, -28359.625143960136, -51263.16711463536, -98213.87806104161, -187500.02235174447, -187500.02235174447, -44164.968331452415, -43175.389549182604, -76770.93318354287, -46284.85247908264, -84994.98933493964, -29361.51973742482, 0.0, 0.0, 0.0, 193.0, 0.0, 1.0, 1.0, 0.0, 0.0, 1.0, 1.0, 256.0, 1.0, 1.750525947734334E9, 0.0, 2025-06-21 19:12:27.734
110.0, -41906.30220249918, -38422.62636692839, -27845.624428465897, -68685.72606870247, -27474.04902864087, -28353.1431380681, -51275.214704896774, -98218.37076167713, -187500.02235174447, -187500.02235174447, -44174.043139701265, -43178.11646200615, -76766.39577941845, -46295.022522809806, -84973.35284630691, -29366.124196782614, 0.0, 0.0, 0.0, 193.0, 0.0, 1.0, 1.0, 0.0, 0.0, 1.0, 1.0, 256.0, 1.0, 1.750525947742387E9, 0.0, 2025-06-21 19:12:27.742
112.0, -41908.11269380006, -38425.822666385495, -27846.853774410938, -68683.46854251249, -27511.555255836876, -28368.7446556979, -51268.084498415534, -98214.77213081982, -187500.02235174447, -187500.02235174447, -44181.75449153835, -43186.3419039657, -76786.78057036169, -46282.997284292855, -85003.6171082994, -29361.497385680366, 0.0, 0.0, 0.0, 193.0, 0.0, 1.0, 1.0, 0.0, 0.0, 1.0, 1.0, 256.0, 1.0, 1.750525947750395E9, 0.0, 2025-06-21 19:12:27.750
114.0, -41937.81816218116, -38464.491184293176, -27859.66132398383, -68711.9223132041, -27509.76711628045, -28340.55910593976, -51270.185562394334, -98220.181252978, -187500.02235174447, -187500.02235174447, -44177.35119788065, -43189.44879644499, -76770.10616899803, -46283.757243604334, -84968.94955264921, -29357.25055423386, 0.0, 0.0, 0.0, 193.0, 0.0, 1.0, 1.0, 0.0, 0.0, 1.0, 1.0, 256.0, 1.0, 1.750525947758458E9, 0.0, 2025-06-21 19:12:27.758
116.0, -41899.395513462485, -38426.090887318955, -27833.68859692676, -68667.01765859338, -27506.839037756807, -28375.919565668057, -51250.31486157356, -98208.67010458352, -187500.02235174447, -187500.02235174447, -44183.94496249497, -43196.020209314855, -76782.24316623725, -46285.724197116404, -84984.28284934556, -29360.782129857795, 0.0, 0.0, 0.0, 193.0, 0.0, 1.0, 1.0, 0.0, 0.0, 1.0, 1.0, 256.0, 1.0, 1.750525947766442E9, 0.0, 2025-06-21 19:12:27.766
118.0, -41926.798752164694, -38459.95378016875, -27855.839175681973, -68694.13032461767, -27502.279281887924, -28367.247088819397, -51270.744356005715, -98216.89554654308, -187500.02235174447, -187500.02235174447, -44180.36868338212, -43185.33607546522, -76778.93510805788, -46280.0245022803, -84990.3625238374, -29353.786033843284, 0.0, 0.0, 0.0, 193.0, 0.0, 1.0, 1.0, 0.0, 0.0, 1.0, 1.0, 256.0, 1.0, 1.750525947774444E9, 0.0, 2025-06-21 19:12:27.774
120.0, -41938.73458370383, -38456.53396326709, -27865.919812431315, -68695.71729847399, -27496.803104496375, -28351.75732991187, -51249.68901272881, -98209.05008423926, -187500.02235174447, -187500.02235174447, -44195.97020101192, -43201.74225589541, -76783.76308486023, -46304.36555199213, -84982.11473013338, -29372.516795696833, 0.0, 0.0, 0.0, 193.0, 0.0, 1.0, 1.0, 0.0, 0.0, 1.0, 1.0, 256.0, 1.0, 1.750525947782517E9, 0.0, 2025-06-21 19:12:27.782
122.0, -41938.71223195938, -38450.70015796425, -27866.053922898045, -68695.67259498508, -27546.133404509237, -28385.061429150275, -51251.70066972979, -98208.04425573877, -187500.02235174447, -187500.02235174447, -44199.010038257846, -43194.321476736244, -76797.75527688925, -46290.64158089657, -85013.45187585973, -29365.364237471134, 0.0, 0.0, 0.0, 193.0, 0.0, 1.0, 1.0, 0.0, 0.0, 1.0, 1.0, 256.0, 1.0, 1.750525947790525E9, 0.0, 2025-06-21 19:12:27.790
124.0, -41954.58197052264, -38474.817690231524, -27874.122902646413, -68713.55399054934, -27508.560122079867, -28361.457987005473, -51271.370204850464, -98221.70117160096, -187500.02235174447, -187500.02235174447, -44202.139282481585, -43204.69268616351, -76792.88259659799, -46312.05455208475, -84994.63170702835, -29386.084304581203, 0.0, 0.0, 0.0, 193.0, 0.0, 1.0, 1.0, 0.0, 0.0, 1.0, 1.0, 256.0, 1.0, 1.750525947798537E9, 0.0, 2025-06-21 19:12:27.798
126.0, -41956.83949671263, -38473.14130939738, -27881.521330061118, -68715.99033069496, -27537.59503812731, -28374.51140576737, -51268.53153330464, -98218.46016865494, -187500.02235174447, -187500.02235174447, -44220.06538153475, -43221.21062531598, -76813.3791462635, -46322.76103767884, -85021.16322769682, -29401.842284422197, 0.0, 0.0, 0.0, 193.0, 0.0, 1.0, 1.0, 0.0, 0.0, 1.0, 1.0, 256.0, 1.0, 1.750525947806619E9, 0.0, 2025-06-21 19:12:27.806
128.0, -41969.803508496705, -38483.1325391689, -27877.922699203817, -68721.51121157542, -27526.083889732825, -28350.796204900293, -51272.86777172897, -98222.10350300116, -187500.02235174447, -187500.02235174447, -44210.49883490787, -43206.7490466534, -76805.66779442642, -46303.38207523609, -85013.09424794844, -29383.469150479934, 0.0, 0.0, 0.0, 193.0, 0.0, 1.0, 1.0, 0.0, 0.0, 1.0, 1.0, 256.0, 1.0, 1.750525947814592E9, 0.0, 2025-06-21 19:12:27.814
130.0, -41967.50127881781, -38479.89153622288, -27877.877995714905, -68716.90675221762, -27533.370558425257, -28391.677545509046, -51275.371167107965, -98221.70117160096, -187500.02235174447, -187500.02235174447, -44228.96137582796, -43234.465209777976, -76816.84366665408, -46335.568587251735, -85011.6190328144, -29410.023022892838, 0.0, 0.0, 0.0, 193.0, 0.0, 1.0, 1.0, 0.0, 0.0, 1.0, 1.0, 256.0, 1.0, 1.750525947821607E9, 0.0, 2025-06-21 19:12:27.821
132.0, -41947.76468846377, -38462.032492403094, -27859.99660015066, -68692.02926063887, -27507.509590090467, -28380.836949448225, -51250.42662029584, -98207.70897957194, -187500.02235174447, -187500.02235174447, -44189.26467767533, -43187.70536037748, -76789.3286692296, -46284.56190640473, -85004.42177109979, -29360.96094381344, 0.0, 0.0, 0.0, 193.0, 0.0, 1.0, 1.0, 0.0, 0.0, 1.0, 1.0, 256.0, 1.0, 1.750525947830712E9, 0.0, 2025-06-21 19:12:27.830
134.0, -41966.71896776187, -38484.87597523641, -27870.233699111188, -68716.54912430634, -27539.15966023918, -28325.315216221243, -51270.69965251681, -98224.07045651323, -187500.02235174447, -187500.02235174447, -44205.447340660976, -43208.447779232, -76794.49192219877, -46312.52393871832, -84997.20215764071, -29384.474978980423, 0.0, 0.0, 0.0, 193.0, 0.0, 1.0, 1.0, 0.0, 0.0, 1.0, 1.0, 256.0, 1.0, 1.750525947838768E9, 0.0, 2025-06-21 19:12:27.838
136.0, -41964.97553169436, -38480.47268157872, -27880.739019005185, -68718.98546445197, -27537.10329974929, -28407.81550500578, -51263.614149524474, -98220.56123263374, -187500.02235174447, -187500.02235174447, -44222.99346005839, -43233.68289872204, -76821.71634694534, -46329.488912759894, -85027.9134545223, -29405.15034260158, 0.0, 0.0, 0.0, 193.0, 0.0, 1.0, 1.0, 0.0, 0.0, 1.0, 1.0, 256.0, 1.0, 1.750525947845704E9, 0.0, 2025-06-21 19:12:27.845
138.0, -41977.40310161151, -38485.34536186998, -27888.875053986914, -68724.72986277698, -27525.39098565471, -28383.586214016228, -51268.24096062672, -98219.80127332226, -187500.02235174447, -187500.02235174447, -44211.54936689727, -43216.919090380565, -76811.85922764054, -46311.71927591792, -85023.42075388679, -29391.091095339194, 0.0, 0.0, 0.0, 193.0, 0.0, 1.0, 1.0, 0.0, 0.0, 1.0, 1.0, 256.0, 1.0, 1.750525947853774E9, 0.0, 2025-06-21 19:12:27.853
140.0, -41946.71415647437, -38457.58449525649, -27864.019914152614, -68702.0651938993, -27514.48333436052, -28346.638780431604, -51267.033966426134, -98210.48059588441, -187500.02235174447, -187500.02235174447, -44224.021640303334, -43220.137741582126, -76809.40053575046, -46330.27122381583, -85011.30610839202, -29403.742182700895, 0.0, 0.0, 0.0, 193.0, 0.0, 1.0, 1.0, 0.0, 0.0, 1.0, 1.0, 256.0, 1.0, 1.750525947862754E9, 0.0, 2025-06-21 19:12:27.862
142.0, -41971.68105503095, -38488.16168167134, -27890.976117965714, -68724.79691801035, -27552.88363133474, -28406.452048594005, -51281.80846951109, -98235.31338397425, -187500.02235174447, -187500.02235174447, -44203.27922144881, -43205.54205245281, -76807.99237584978, -46304.20908978094, -85027.51112312212, -29384.318516769235, 0.0, 0.0, 0.0, 193.0, 0.0, 1.0, 1.0, 0.0, 0.0, 1.0, 1.0, 256.0, 1.0, 1.750525947870827E9, 0.0, 2025-06-21 19:12:27.870
144.0, -41974.02798819876, -38487.982867715706, -27889.500902831664, -68730.92129599111, -27528.564933367365, -28360.18393757152, -51287.77638528066, -98231.04420078329, -187500.02235174447, -187500.02235174447, -44231.777695629324, -43236.074535378764, -76823.59389347958, -46338.11668611964, -85023.6666230758, -29413.420488050044, 0.0, 0.0, 0.0, 193.0, 0.0, 1.0, 1.0, 0.0, 0.0, 1.0, 1.0, 256.0, 1.0, 1.750525947877834E9, 0.0, 2025-06-21 19:12:27.877
146.0, -41952.39149956602, -38465.541716282576, -27874.90521370235, -68707.18374337957, -27527.357939166777, -28366.442426019006, -51259.85905645598, -98213.31926743023, -187500.02235174447, -187500.02235174447, -44213.89630006508, -43210.43708448853, -76807.70180317186, -46317.0836945872, -85015.99997472763, -29392.968641873438, 0.0, 0.0, 0.0, 193.0, 0.0, 1.0, 1.0, 0.0, 0.0, 1.0, 1.0, 256.0, 1.0, 1.750525947885876E9, 0.0, 2025-06-21 19:12:27.885
148.0, -41963.27679911575, -38484.74186476968, -27884.360001606943, -68723.09818543175, -27537.37152068276, -28364.542527740305, -51260.50725704518, -98221.56706113424, -187500.02235174447, -187500.02235174447, -44212.9351750535, -43214.99684035741, -76810.94280611788, -46313.932098619, -85024.80656204303, -29390.15232207207, 0.0, 0.0, 0.0, 193.0, 0.0, 1.0, 1.0, 0.0, 0.0, 1.0, 1.0, 256.0, 1.0, 1.75052594789492E9, 0.0, 2025-06-21 19:12:27.894
150.0, -41960.572238036664, -38481.00912344565, -27881.074295172013, -68721.33239761977, -27530.218962457056, -28346.95170485398, -51276.91343747538, -98223.69047685749, -187500.02235174447, -187500.02235174447, -44223.84282634769, -43223.4010962726, -76810.78634390669, -46336.95439540796, -85013.07189620398, -29408.525456014333, 0.0, 0.0, 0.0, 193.0, 0.0, 1.0, 1.0, 0.0, 0.0, 1.0, 1.0, 256.0, 1.0, 1.750525947901956E9, 0.0, 2025-06-21 19:12:27.901
152.0, -41939.53924650422, -38457.18216385629, -27866.724475231706, -68700.74644097644, -27515.31034890537, -28373.28205982233, -51249.68901272881, -98204.1327004591, -187500.02235174447, -187500.02235174447, -44196.26077368984, -43203.08336056273, -76801.73388740228, -46298.35293273365, -85014.61416657141, -29378.663525422042, 0.0, 0.0, 0.0, 193.0, 0.0, 1.0, 1.0, 0.0, 0.0, 1.0, 1.0, 256.0, 1.0, 1.750525947909979E9, 0.0, 2025-06-21 19:12:27.909
154.0, -41958.69469150242, -38471.66609426333, -27880.739019005185, -68714.62687428319, -27534.711663092574, -28361.9944288724, -51254.62874825344, -98208.40188365006, -187500.02235174447, -187500.02235174447, -44215.39386694359, -43213.476921734444, -76806.78538164918, -46323.543348734784, -85012.08841944796, -29395.807313419264, 0.0, 0.0, 0.0, 193.0, 0.0, 1.0, 1.0, 0.0, 0.0, 1.0, 1.0, 256.0, 1.0, 1.750525947917985E9, 0.0, 2025-06-21 19:12:27.917
156.0, -41960.66164501449, -38474.549469298065, -27885.388181851886, -68713.75515624943, -27518.841924529308, -28367.403551030584, -51276.46640258627, -98220.71769484493, -187500.02235174447, -187500.02235174447, -44209.64946861857, -43211.44291298901, -76808.5288177167, -46314.177967808006, -85016.98345148367, -29389.10179008267, 0.0, 0.0, 0.0, 193.0, 0.0, 1.0, 1.0, 0.0, 0.0, 1.0, 1.0, 256.0, 1.0, 1.750525947927034E9, 0.0, 2025-06-21 19:12:27.927
158.0, -41979.526517334765, -38492.27440265112, -27893.255995900156, -68729.53548783487, -27550.894326078218, -28385.173187872555, -51287.731681791745, -98233.0335060398, -187500.02235174447, -187500.02235174447, -44213.672782620524, -43215.510930479875, -76814.69789918637, -46309.59586019467, -85022.54903585304, -29386.508987725854, 0.0, 0.0, 0.0, 193.0, 0.0, 1.0, 1.0, 0.0, 0.0, 1.0, 1.0, 256.0, 1.0, 1.750525947933991E9, 0.0, 2025-06-21 19:12:27.933
160.0, -41961.73452874834, -38480.696199023274, -27883.175359150813, -68717.64435978465, -27533.92935203664, -28380.300507581298, -51284.20010616781, -98225.50096815836, -187500.02235174447, -187500.02235174447, -44238.75143989938, -43235.091058622726, -76823.66094871295, -46343.27993908882, -85020.40326838533, -29413.845171194695, 0.0, 0.0, 0.0, 193.0, 0.0, 1.0, 1.0, 0.0, 0.0, 1.0, 1.0, 256.0, 1.0, 1.750525947942052E9, 0.0, 2025-06-21 19:12:27.942
162.0, -41943.56256050617, -38461.92073368082, -27864.779873464093, -68702.93691193307, -27530.710700835076, -28368.476434764438, -51264.5529227916, -98210.72646507341, -187500.02235174447, -187500.02235174447, -44199.39001791358, -43201.56344193977, -76801.42096297992, -46301.325714746206, -85021.23028293018, -29377.903566110563, 0.0, 0.0, 0.0, 193.0, 0.0, 1.0, 1.0, 0.0, 0.0, 1.0, 1.0, 256.0, 1.0, 1.750525947950081E9, 0.0, 2025-06-21 19:12:27.950
164.0, -41976.77725276676, -38485.300658381064, -27886.684583030295, -68729.62489481269, -27558.963305826583, -28351.533812467318, -51301.63446684295, -98236.36391596365, -187500.02235174447, -187500.02235174447, -44206.497872650376, -43211.331154266736, -76798.67169841191, -46319.02829635481, -85000.24199488664, -29390.755819172362, 0.0, 0.0, 0.0, 193.0, 0.0, 1.0, 1.0, 0.0, 0.0, 1.0, 1.0, 256.0, 1.0, 1.750525947958131E9, 0.0, 2025-06-21 19:12:27.958
166.0, -41956.817144968176, -38476.69523676577, -27875.620469524918, -68711.09529865925, -27545.3510934533, -28366.241260318908, -51280.48971658823, -98221.90233730106, -187500.02235174447, -187500.02235174447, -44221.63000364661, -43219.8024654153, -76814.98847186429, -46325.9349853915, -85024.02425098709, -29398.2883570538, 0.0, 0.0, 0.0, 193.0, 0.0, 1.0, 1.0, 0.0, 0.0, 1.0, 1.0, 256.0, 1.0, 1.750525947966165E9, 0.0, 2025-06-21 19:12:27.966
168.0, -41976.19610741092, -38490.26274565014, -27891.601966810464, -68726.56270582232, -27528.96726476756, -28373.550280755793, -51280.1544404214, -98230.6418693831, -187500.02235174447, -187500.02235174447, -44205.9837825279, -43213.61103220118, -76809.73581191729, -46306.95835434894, -85019.08451546247, -29382.57508070172, 0.0, 0.0, 0.0, 193.0, 0.0, 1.0, 1.0, 0.0, 0.0, 1.0, 1.0, 256.0, 1.0, 1.750525947974183E9, 0.0, 2025-06-21 19:12:27.974
170.0, -41965.08729041664, -38477.05286467706, -27878.794417237572, -68718.35961560722, -27530.263665945968, -28378.22179534695, -51281.49554508872, -98219.80127332226, -187500.02235174447, -187500.02235174447, -44234.795181130794, -43229.72663995346, -76819.81644866664, -46334.875683173625, -85015.95527123872, -29405.239749579403, 0.0, 0.0, 0.0, 193.0, 0.0, 1.0, 1.0, 0.0, 0.0, 1.0, 1.0, 256.0, 1.0, 1.750525947983242E9, 0.0, 2025-06-21 19:12:27.983
172.0, -41962.405081082, -38475.465890820735, -27881.588385294486, -68709.0165864249, -27503.374517366236, -28390.93993794202, -51262.29539660161, -98208.37953190561, -187500.02235174447, -187500.02235174447, -44205.62615461661, -43210.88411937763, -76810.8310473956, -46294.86606059862, -85016.20114042773, -29373.544975941775, 0.0, 0.0, 0.0, 193.0, 0.0, 1.0, 1.0, 0.0, 0.0, 1.0, 1.0, 256.0, 1.0, 1.750525947990252E9, 0.0, 2025-06-21 19:12:27.990
174.0, -41972.664531786984, -38484.898326980874, -27884.024725440115, -68725.53452557737, -27549.664980133177, -28308.17142822402, -51277.36047236448, -98223.82458732421, -187500.02235174447, -187500.02235174447, -44226.30151823777, -43220.31655553777, -76811.18867530688, -46313.14978756307, -84999.07970417496, -29384.832606891705, 0.0, 0.0, 0.0, 193.0, 0.0, 1.0, 1.0, 0.0, 0.0, 1.0, 1.0, 256.0, 1.0, 1.750525947998289E9, 0.0, 2025-06-21 19:12:27.998
176.0, -41939.69570871541, -38459.39498655737, -27854.45336752574, -68693.4150687951, -27519.937160007616, -28371.65038247709, -51251.96889066326, -98199.70705505695, -187500.02235174447, -187500.02235174447, -44212.30932620875, -43221.098866593704, -76814.29556778618, -46315.20614805295, -85013.20600667072, -29389.4370662495, 0.0, 0.0, 0.0, 193.0, 0.0, 1.0, 1.0, 0.0, 0.0, 1.0, 1.0, 256.0, 1.0, 1.750525948006316E9, 0.0, 2025-06-21 19:12:28.006
178.0, -41966.07076717267, -38478.461024577744, -27877.296850359067, -68719.7677755079, -27542.89240156322, -28365.123673096143, -51267.41394608188, -98220.49417740038, -187500.02235174447, -187500.02235174447, -44188.795291041766, -43190.65579064558, -76788.90398608494, -46280.91857205851, -84990.34017209294, -29358.345789712166, 0.0, 0.0, 0.0, 193.0, 0.0, 1.0, 1.0, 0.0, 0.0, 1.0, 1.0, 256.0, 1.0, 1.750525948014384E9, 0.0, 2025-06-21 19:12:28.014
180.0, -41942.10969711658, -38468.84977446196, -27859.169585605814, -68699.38298456467, -27520.67476757464, -28367.202385330485, -51261.513085545674, -98207.68662782748, -187500.02235174447, -187500.02235174447, -44214.097465765175, -43224.0045933729, -76806.85243688256, -46325.75617143586, -84997.5150820631, -29397.30488029777, 0.0, 0.0, 0.0, 193.0, 0.0, 1.0, 1.0, 0.0, 0.0, 1.0, 1.0, 256.0, 1.0, 1.750525948022375E9, 0.0, 2025-06-21 19:12:28.022
182.0, -41946.55769426319, -38474.03537917559, -27864.913983930826, -68694.82322869578, -27499.842941742296, -28335.395852970585, -51255.098134887, -98203.23863068088, -187500.02235174447, -187500.02235174447, -44186.1801369405, -43185.313723720756, -76788.85928259604, -46270.614417864614, -84991.39070408234, -29348.511022151833, 0.0, 0.0, 0.0, 193.0, 0.0, 1.0, 1.0, 0.0, 0.0, 1.0, 1.0, 256.0, 1.0, 1.750525948030411E9, 0.0, 2025-06-21 19:12:28.030
184.0, -41952.86088619958, -38473.11895765292, -27869.831367710995, -68704.63564451167, -27513.72337504904, -28348.672789177035, -51266.94455944831, -98214.61566860863, -187500.02235174447, -187500.02235174447, -44225.921538582035, -43226.910320152085, -76812.99916660777, -46312.12160731812, -84998.87853847486, -29387.179540059515, 0.0, 0.0, 0.0, 193.0, 0.0, 1.0, 1.0, 0.0, 0.0, 1.0, 1.0, 256.0, 1.0, 1.750525948038427E9, 0.0, 2025-06-21 19:12:28.038
186.0, -41926.35171727559, -38456.75748071164, -27851.45823376873, -68684.34026054625, -27514.68450006062, -28377.059504635276, -51238.937823645814, -98191.86159275314, -187500.02235174447, -187500.02235174447, -44196.26077368984, -43192.533337179826, -76791.83206460859, -46284.49485117136, -84989.06612265899, -29361.452682191455, 0.0, 0.0, 0.0, 193.0, 0.0, 1.0, 1.0, 0.0, 0.0, 1.0, 1.0, 256.0, 1.0, 1.750525948045412E9, 0.0, 2025-06-21 19:12:28.045
188.0, -41975.033816699244, -38494.822501519026, -27889.18797840929, -68723.67933078758, -27531.761232824476, -28343.8895158636, -51282.85900150049, -98233.7934653513, -187500.02235174447, -187500.02235174447, -44204.06153250475, -43198.70241864949, -76800.34807924606, -46279.44335692446, -84996.5092535626, -29360.3797984576, 0.0, 0.0, 0.0, 193.0, 0.0, 1.0, 1.0, 0.0, 0.0, 1.0, 1.0, 256.0, 1.0, 1.750525948054465E9, 0.0, 2025-06-21 19:12:28.054
190.0, -41958.96291243588, -38484.13836766939, -27880.202577138258, -68722.76290926491, -27551.96720981207, -28321.448364430475, -51281.316731133076, -98233.07820952871, -187500.02235174447, -187500.02235174447, -44241.45600097848, -43248.27858785136, -76831.2381900833, -46341.76002046586, -85015.48588460516, -29416.72854622943, 0.0, 0.0, 0.0, 193.0, 0.0, 1.0, 1.0, 0.0, 0.0, 1.0, 1.0, 256.0, 1.0, 1.750525948062445E9, 0.0, 2025-06-21 19:12:28.062
192.0, -41935.8512086691, -38465.94404768277, -27855.235678581677, -68683.46854251249, -27528.31906417836, -28399.299490368307, -51257.266254099166, -98212.71577032993, -187500.02235174447, -187500.02235174447, -44203.94977378247, -43201.36227623967, -76805.48898047078, -46292.0273890528, -85016.87169276139, -29371.57802242971, 0.0, 0.0, 0.0, 193.0, 0.0, 1.0, 1.0, 0.0, 0.0, 1.0, 1.0, 256.0, 1.0, 1.750525948070503E9, 0.0, 2025-06-21 19:12:28.070
194.0, -41956.28070310124, -38478.66219027784, -27864.3775420639, -68708.14486839114, -27509.096563946794, -28336.356977982163, -51277.71810027577, -98227.80319783726, -187500.02235174447, -187500.02235174447, -44196.57369811222, -43197.87540410464, -76784.79126510516, -46297.23534551088, -84976.52679401956, -29373.209699774947, 0.0, 0.0, 0.0, 193.0, 0.0, 1.0, 1.0, 0.0, 0.0, 1.0, 1.0, 256.0, 1.0, 1.750525948078518E9, 0.0, 2025-06-21 19:12:28.078
196.0, -41921.61314745106, -38444.75459393914, -27849.535983745576, -68678.41704826559, -27496.62429054073, -28318.006195784357, -51245.933919660325, -98197.76245328932, -187500.02235174447, -187500.02235174447, -44219.59599490118, -43205.07266581925, -76804.05846882563, -46298.06236005573, -84994.65405877281, -29374.66256316454, 0.0, 0.0, 0.0, 193.0, 0.0, 1.0, 1.0, 0.0, 0.0, 1.0, 1.0, 256.0, 1.0, 1.750525948086492E9, 0.0, 2025-06-21 19:12:28.086
198.0, -41955.051357156204, -38481.254992634655, -27869.965478177724, -68706.714356746, -27507.442534857102, -28344.604771686172, -51260.90958844538, -98217.72256108792, -187500.02235174447, -187500.02235174447, -44185.710750306935, -43197.67423840454, -76795.16247453242, -46279.19748773545, -84993.44706457223, -29359.977467057404, 0.0, 0.0, 0.0, 193.0, 0.0, 1.0, 1.0, 0.0, 0.0, 1.0, 1.0, 256.0, 1.0, 1.750525948093561E9, 0.0, 2025-06-21 19:12:28.093
200.0, -41937.46053426988, -38460.08789063548, -27859.951896661747, -68697.55014151933, -27527.804974055885, -28368.498786508895, -51274.41004209639, -98220.87415705613, -187500.02235174447, -187500.02235174447, -44210.16355874104, -43211.35350601119, -76802.02446008021, -46313.0827323297, -84985.62395401287, -29390.755819172362, 0.0, 0.0, 0.0, 193.0, 0.0, 1.0, 1.0, 0.0, 0.0, 1.0, 1.0, 256.0, 1.0, 1.750525948101603E9, 0.0, 2025-06-21 19:12:28.101
202.0, -41929.43625801042, -38452.64475973186, -27857.493204771665, -68685.34608904672, -27516.293825661403, -28369.28109756483, -51260.48490530073, -98216.53791863179, -187500.02235174447, -187500.02235174447, -44188.95175325296, -43190.5440319233, -76798.80580887865, -46284.07016802671, -85007.26044264561, -29370.706304395953, 0.0, 0.0, 0.0, 193.0, 0.0, 1.0, 1.0, 0.0, 0.0, 1.0, 1.0, 256.0, 1.0, 1.750525948110607E9, 0.0, 2025-06-21 19:12:28.110
204.0, -41939.15926684848, -38457.785660956586, -27858.700198972252, -68697.59484500824, -27482.967374678537, -28294.760381550837, -51281.2049724108, -98228.87608157111, -187500.02235174447, -187500.02235174447, -44195.925497523014, -43193.11448253566, -76785.372410461, -46303.24796476936, -84979.87955568786, -29381.81512139024, 0.0, 0.0, 0.0, 193.0, 0.0, 1.0, 1.0, 0.0, 0.0, 1.0, 1.0, 256.0, 1.0, 1.750525948118608E9, 0.0, 2025-06-21 19:12:28.118
206.0, -41927.2457870538, -38454.969341155214, -27837.108413828424, -68672.33737377374, -27520.183029196625, -28318.22971322891, -51246.96209990527, -98196.3319416442, -187500.02235174447, -187500.02235174447, -44179.58637232619, -43179.859898073664, -76773.30246845513, -46277.02936852329, -84969.39658753831, -29358.010513545338, 0.0, 0.0, 0.0, 193.0, 0.0, 1.0, 1.0, 0.0, 0.0, 1.0, 1.0, 256.0, 1.0, 1.750525948125636E9, 0.0, 2025-06-21 19:12:28.125
208.0, -41966.026063683756, -38489.77100727213, -27875.88869045838, -68713.53163880488, -27511.82347677034, -28340.693216406493, -51279.01450145418, -98230.4854071719, -187500.02235174447, -187500.02235174447, -44201.60284061466, -43207.64311643161, -76802.89617811397, -46285.83595583868, -85000.4655123312, -29368.985220072893, 0.0, 0.0, 0.0, 193.0, 0.0, 1.0, 1.0, 0.0, 0.0, 1.0, 1.0, 256.0, 1.0, 1.750525948133661E9, 0.0, 2025-06-21 19:12:28.133
210.0, -41945.52951401824, -38476.60582978795, -27866.947992676258, -68696.32079557428, -27514.013947726962, -28342.637818174106, -51273.78419325164, -98217.70020934347, -187500.02235174447, -187500.02235174447, -44215.41621868804, -43218.37195377016, -76804.03611708118, -46317.0836945872, -84987.50150054712, -29392.856883151162, 0.0, 0.0, 0.0, 193.0, 0.0, 1.0, 1.0, 0.0, 0.0, 1.0, 1.0, 256.0, 1.0, 1.750525948142664E9, 0.0, 2025-06-21 19:12:28.142
212.0, -41938.30990055918, -38473.85656521995, -27870.725437489207, -68695.38202230717, -27514.90801750517, -28394.516217054872, -51259.79200122262, -98210.07826448421, -187500.02235174447, -187500.02235174447, -44198.093616735176, -43186.721883621445, -76802.22562578031, -46276.93996154547, -85006.6122420564, -29359.418673446024, 0.0, 0.0, 0.0, 193.0, 0.0, 1.0, 1.0, 0.0, 0.0, 1.0, 1.0, 256.0, 1.0, 1.750525948150704E9, 0.0, 2025-06-21 19:12:28.150
214.0, -41995.70918032041, -38517.97890877473, -27884.114132417933, -68714.60452253874, -27524.094584476305, -28315.815724827735, -51286.79290852463, -98231.24536648339, -187500.02235174447, -187500.02235174447, -44221.80881760226, -43218.97545087045, -76815.05552709765, -46315.228499797406, -84999.6608495308, -29394.801484918775, 0.0, 0.0, 0.0, 193.0, 0.0, 1.0, 1.0, 0.0, 0.0, 1.0, 1.0, 256.0, 1.0, 1.750525948157708E9, 0.0, 2025-06-21 19:12:28.157
216.0, -41928.60924346557, -38449.739032952675, -27848.865431411916, -68669.14107431663, -27513.25398841548, -28355.646533447092, -51258.54030353312, -98202.21045043593, -187500.02235174447, -187500.02235174447, -44214.23157623191, -43201.22816577294, -76804.70666941484, -46293.05556929774, -84994.45289307272, -29372.67325790802, 0.0, 0.0, 0.0, 193.0, 0.0, 1.0, 1.0, 0.0, 0.0, 1.0, 1.0, 256.0, 1.0, 1.750525948165761E9, 0.0, 2025-06-21 19:12:28.165
218.0, -41956.5042205458, -38483.981905458204, -27870.32310608901, -68696.34314731874, -27505.29676738939, -28342.88368736311, -51275.013539196676, -98220.7847500783, -187500.02235174447, -187500.02235174447, -44185.7778055403, -43177.93764805051, -76785.68533488338, -46273.54249638826, -84995.10109366193, -29355.3283042107, 0.0, 0.0, 0.0, 193.0, 0.0, 1.0, 1.0, 0.0, 0.0, 1.0, 1.0, 256.0, 1.0, 1.750525948174791E9, 0.0, 2025-06-21 19:12:28.174
220.0, -41928.96687137686, -38451.214248086726, -27855.615658237417, -68686.48602801395, -27516.740860550508, -28300.0800967312, -51265.55875129208, -98209.40771215054, -187500.02235174447, -187500.02235174447, -44212.421084931026, -43211.77818915584, -76796.45887571083, -46315.69788643097, -84985.57925052397, -29388.587699960197, 0.0, 0.0, 0.0, 193.0, 0.0, 1.0, 1.0, 0.0, 0.0, 1.0, 1.0, 256.0, 1.0, 1.750525948181803E9, 0.0, 2025-06-21 19:12:28.181
222.0, -41903.41882746444, -38430.82945714348, -27843.277495298087, -68667.68821092704, -27517.25495067298, -28373.32676331124, -51250.06899238456, -98193.78384277629, -187500.02235174447, -187500.02235174447, -44169.84101174367, -43169.533392135316, -76773.95066904434, -46262.791307305255, -84996.75512275161, -29341.85020230415, 0.0, 0.0, 0.0, 193.0, 0.0, 1.0, 1.0, 0.0, 0.0, 1.0, 1.0, 256.0, 1.0, 1.750525948189844E9, 0.0, 2025-06-21 19:12:28.189
224.0, -41927.022269609246, -38441.64770145985, -27854.051036125547, -68690.15171410462, -27527.2461804445, -28295.58739609568, -51287.91049574739, -98220.74004658939, -187500.02235174447, -187500.02235174447, -44201.04404700328, -43192.8462616022, -76782.1761110039, -46297.41415946653, -84976.63855274183, -29372.785016630296, 0.0, 0.0, 0.0, 193.0, 0.0, 1.0, 1.0, 0.0, 0.0, 1.0, 1.0, 256.0, 1.0, 1.750525948197866E9, 0.0, 2025-06-21 19:12:28.197
226.0, -41862.67159732242, -38391.22216596868, -27834.80618414953, -68665.07305682577, -27528.229657200536, -28349.27628627733, -51258.517951788665, -98200.86934576862, -187500.02235174447, -187500.02235174447, -44170.51156407733, -43177.95999979496, -76766.88751779647, -46284.91953431601, -84983.41113131179, -29362.972600814417, 0.0, 0.0, 0.0, 193.0, 0.0, 1.0, 1.0, 0.0, 0.0, 1.0, 1.0, 256.0, 1.0, 1.750525948205882E9, 0.0, 2025-06-21 19:12:28.205
228.0, -41880.754158586766, -38396.49717766013, -27843.009274364624, -68678.5064552434, -27512.91871224865, -28334.23356225891, -51287.61992306947, -98222.37172393463, -187500.02235174447, -187500.02235174447, -44149.88090394508, -43155.1388687061, -76753.364712401, -46261.763127060316, -84985.31102959049, -29345.225315716903, 0.0, 0.0, 0.0, 193.0, 0.0, 1.0, 1.0, 0.0, 0.0, 1.0, 1.0, 256.0, 1.0, 1.750525948213903E9, 0.0, 2025-06-21 19:12:28.213
230.0, -41862.29161766668, -38380.29216293003, -27846.004408121637, -68677.47827499846, -27537.237410216025, -28315.480448660906, -51295.89006851793, -98223.48931115739, -187500.02235174447, -187500.02235174447, -44196.75251206786, -43195.68493314802, -76774.10713125553, -46307.49479621587, -84971.38589279485, -29385.681973181006, 0.0, 0.0, 0.0, 193.0, 0.0, 1.0, 1.0, 0.0, 0.0, 1.0, 1.0, 256.0, 1.0, 1.750525948221947E9, 0.0, 2025-06-21 19:12:28.221
232.0, -41801.00313437023, -38329.17372336075, -27808.520532670085, -68629.93611454203, -27516.807915783873, -28368.834062675724, -51251.521855774154, -98192.7780142758, -187500.02235174447, -187500.02235174447, -44142.34836606364, -43139.738516776386, -76746.0109884752, -46240.350155872125, -84978.91843067628, -29324.95228349594, 0.0, 0.0, 0.0, 193.0, 0.0, 1.0, 1.0, 0.0, 0.0, 1.0, 1.0, 256.0, 1.0, 1.750525948230976E9, 0.0, 2025-06-21 19:12:28.230
234.0, -41813.18483509837, -38337.600331020396, -27823.47384971069, -68650.81264386329, -27512.315215148355, -28278.845939498657, -51271.034928683635, -98204.06564522572, -187500.02235174447, -187500.02235174447, -44147.55632252173, -43141.705470288456, -76728.33075861106, -46257.270426424795, -84942.44038372522, -29331.90367602154, 0.0, 0.0, 0.0, 193.0, 0.0, 1.0, 1.0, 0.0, 0.0, 1.0, 1.0, 256.0, 1.0, 1.750525948236993E9, 0.0, 2025-06-21 19:12:28.236
236.0, -41757.17136349337, -38285.05137980597, -27796.5623493865, -68618.0002830029, -27507.017851712448, -28346.772890898337, -51232.858149153966, -98162.75962147232, -187500.02235174447, -187500.02235174447, -44125.316336788695, -43130.03785968279, -76717.13253463895, -46250.408440877014, -84951.80576465199, -29324.527600351288, 0.0, 0.0, 0.0, 193.0, 0.0, 1.0, 1.0, 0.0, 0.0, 1.0, 1.0, 256.0, 1.0, 1.750525948246049E9, 0.0, 2025-06-21 19:12:28.246
238.0, -41773.53284043465, -38300.272917780036, -27793.16488422929, -68626.82922206273, -27482.72150548953, -28260.20458462293, -51233.685163698814, -98189.40290086305, -187500.02235174447, -187500.02235174447, -44107.43494122445, -43109.69777222846, -76704.74966821072, -46217.12669338306, -84944.20617153718, -29295.202111625924, 0.0, 0.0, 0.0, 193.0, 0.0, 1.0, 1.0, 0.0, 0.0, 1.0, 1.0, 256.0, 1.0, 1.750525948254059E9, 0.0, 2025-06-21 19:12:28.254
240.0, -41790.900145876425, -38311.96288013016, -27823.3173874995, -68659.32865850076, -27531.761232824476, -28304.50574213335, -51274.36533860747, -98221.09767450068, -187500.02235174447, -187500.02235174447, -44140.426116040486, -43154.7365373059, -76720.7088137518, -46273.006054521335, -84929.67753764124, -29348.19809772946, 0.0, 0.0, 0.0, 193.0, 0.0, 1.0, 1.0, 0.0, 0.0, 1.0, 1.0, 256.0, 1.0, 1.750525948262081E9, 0.0, 2025-06-21 19:12:28.262
242.0, -41750.24232271223, -38284.313772238944, -27794.528340641064, -68614.02167248985, -27511.6446628147, -28355.691236936003, -51255.70163198729, -98197.98597073389, -187500.02235174447, -187500.02235174447, -44124.9140053885, -43122.885301457085, -76727.2578748772, -46235.07514418068, -84973.44225328472, -29318.93966423746, 0.0, 0.0, 0.0, 193.0, 0.0, 1.0, 1.0, 0.0, 0.0, 1.0, 1.0, 256.0, 1.0, 1.750525948270126E9, 0.0, 2025-06-21 19:12:28.270
244.0, -41792.55417496612, -38308.56541497295, -27815.60603566242, -68650.2538502519, -27516.092659961305, -28296.302651918253, -51283.48485034524, -98224.15986349105, -187500.02235174447, -187500.02235174447, -44126.88095890057, -43128.003850937355, -76708.37065081247, -46248.57559783168, -84930.16927601925, -29325.108745707126, 0.0, 0.0, 0.0, 193.0, 0.0, 1.0, 1.0, 0.0, 0.0, 1.0, 1.0, 256.0, 1.0, 1.750525948278167E9, 0.0, 2025-06-21 19:12:28.278
246.0, -41746.107249987996, -38272.19912674417, -27798.21637847619, -68620.86130629317, -27519.26660767396, -28339.218001272442, -51256.43923955432, -98191.0792816972, -187500.02235174447, -187500.02235174447, -44127.10447634512, -43132.608310295145, -76719.6135782735, -46249.24615016534, -84951.87281988536, -29330.249646931847, 0.0, 0.0, 0.0, 193.0, 0.0, 1.0, 1.0, 0.0, 0.0, 1.0, 1.0, 256.0, 1.0, 1.750525948286116E9, 0.0, 2025-06-21 19:12:28.286
248.0, -41779.70192190432, -38304.72091492664, -27814.823724606482, -68643.68243738204, -27511.465848859054, -28269.793482994257, -51281.83082125555, -98219.24247971088, -187500.02235174447, -187500.02235174447, -44111.34649650413, -43120.381906078095, -76715.83613346054, -46230.38127784506, -84972.52583176206, -29311.317719378203, 0.0, 0.0, 0.0, 193.0, 0.0, 1.0, 1.0, 0.0, 0.0, 1.0, 1.0, 256.0, 1.0, 1.750525948293215E9, 0.0, 2025-06-21 19:12:28.293
250.0, -41741.52514237465, -38269.24869647607, -27779.351506155912, -68612.21118118896, -27483.39205782319, -28279.53884357677, -51258.83087621104, -98196.04136896627, -187500.02235174447, -187500.02235174447, -44132.647708970035, -43136.58692080819, -76707.99067115673, -46268.69216784146, -84924.9389678167, -29346.09703375066, 0.0, 0.0, 0.0, 193.0, 0.0, 1.0, 1.0, 0.0, 0.0, 1.0, 1.0, 256.0, 1.0, 1.750525948302233E9, 0.0, 2025-06-21 19:12:28.302
252.0, -41721.54268283161, -38263.57135338442, -27768.041523461525, -68593.34630886868, -27497.808932996864, -28341.162603040055, -51237.21673932276, -98180.7751275033, -187500.02235174447, -187500.02235174447, -44072.65562685199, -43075.94663810094, -76677.7934643976, -46200.161719341486, -84942.57449419195, -29282.573376008677, 0.0, 0.0, 0.0, 193.0, 0.0, 1.0, 1.0, 0.0, 0.0, 1.0, 1.0, 256.0, 1.0, 1.750525948310258E9, 0.0, 2025-06-21 19:12:28.310
254.0, -41765.08388103055, -38292.04747582048, -27786.816988803985, -68632.7971378323, -27495.529055062423, -28227.52633422927, -51270.252617627695, -98205.22793593741, -187500.02235174447, -187500.02235174447, -44093.73332187335, -43106.41206579353, -76678.06168533108, -46235.321013369685, -84912.84667406639, -29311.697699033943, 0.0, 0.0, 0.0, 193.0, 0.0, 1.0, 1.0, 0.0, 0.0, 1.0, 1.0, 256.0, 1.0, 1.750525948317317E9, 0.0, 2025-06-21 19:12:28.317
0.0, -41732.71855505926, -38265.49360340758, -27789.700363838718, -68611.33946315521, -27488.488255559, -28318.74380335138, -51257.35566107699, -98183.1220606711, -187500.02235174447, -187500.02235174447, -44114.92277561698, -43124.87460671361, -76705.37551705547, -46246.60864431961, -84942.90977035878, -29325.891056763063, 0.0, 0.0, 0.0, 193.0, 0.0, 1.0, 1.0, 0.0, 0.0, 1.0, 1.0, 256.0, 1.0, 1.750525948325434E9, 0.0, 2025-06-21 19:12:28.325
2.0, -41771.87881134496, -38304.3409352709, -27804.944253557238, -68641.82724259225, -27503.754497021975, -28307.70204159046, -51269.559713549585, -98195.90725849954, -187500.02235174447, -187500.02235174447, -44095.119130029576, -43103.595745992156, -76700.45813327529, -46221.37352482957, -84959.22654381115, -29303.114629163105, 0.0, 0.0, 0.0, 193.0, 0.0, 1.0, 1.0, 0.0, 0.0, 1.0, 1.0, 256.0, 1.0, 1.750525948334381E9, 0.0, 2025-06-21 19:12:28.334
4.0, -41770.18007876636, -38291.86866186484, -27805.97243380218, -68633.4006349326, -27518.529000106933, -28284.411523868028, -51278.34394912052, -98197.40482537805, -187500.02235174447, -187500.02235174447, -44144.78470620927, -43156.658787329055, -76723.86040972, -46284.65131338255, -84946.48604947163, -29361.13975776908, 0.0, 0.0, 0.0, 193.0, 0.0, 1.0, 1.0, 0.0, 0.0, 1.0, 1.0, 256.0, 1.0, 1.750525948342402E9, 0.0, 2025-06-21 19:12:28.342
6.0, -41726.25890091168, -38258.20693471515, -27770.343753140423, -68588.16070415506, -27490.745781748985, -28331.640759902093, -51257.78034422164, -98172.19205763246, -187500.02235174447, -187500.02235174447, -44087.81010959269, -43083.00978934882, -76693.39498202741, -46205.23556533284, -84960.07591010045, -29286.55198652172, 0.0, 0.0, 0.0, 193.0, 0.0, 1.0, 1.0, 0.0, 0.0, 1.0, 1.0, 256.0, 1.0, 1.750525948349416E9, 0.0, 2025-06-21 19:12:28.349
8.0, -41795.79517791214, -38318.06490636646, -27819.808163620015, -68656.78055963285, -27507.97897672403, -28238.50104075683, -51297.67820807436, -98220.56123263374, -187500.02235174447, -187500.02235174447, -44112.15115930452, -43119.599595022155, -76694.601976228, -46240.68543203896, -84927.37530796234, -29317.978539225882, 0.0, 0.0, 0.0, 193.0, 0.0, 1.0, 1.0, 0.0, 0.0, 1.0, 1.0, 256.0, 1.0, 1.750525948357454E9, 0.0, 2025-06-21 19:12:28.357
10.0, -41741.25692144119, -38280.692789637185, -27787.331078926454, -68617.1509167136, -27508.4930668465, -28319.816687085236, -51287.06112945809, -98198.85768876765, -187500.02235174447, -187500.02235174447, -44126.076296100175, -43137.25747314185, -76717.26664510569, -46248.64265306505, -84951.11286057388, -29328.573266097697, 0.0, 0.0, 0.0, 193.0, 0.0, 1.0, 1.0, 0.0, 0.0, 1.0, 1.0, 256.0, 1.0, 1.75052594836647E9, 0.0, 2025-06-21 19:12:28.366
12.0, -41767.609628154, -38306.01731610505, -27792.27081445108, -68633.89237331062, -27490.566967793344, -28255.287200842766, -51287.26229515819, -98205.16088070403, -187500.02235174447, -187500.02235174447, -44085.21730723588, -43099.460673267924, -76693.46203726078, -46206.24139383333, -84941.23338952463, -29289.345954578635, 0.0, 0.0, 0.0, 193.0, 0.0, 1.0, 1.0, 0.0, 0.0, 1.0, 1.0, 256.0, 1.0, 1.750525948373519E9, 0.0, 2025-06-21 19:12:28.373
