%OpenBCI Raw EXG Data
%Number of channels = 16
%Sample Rate = 125 Hz
%Board = OpenBCI_GUI$BoardCytonSerialDaisy
Sample Index, EXG Channel 0, EXG Channel 1, EXG Channel 2, EXG Channel 3, EXG Channel 4, EXG Channel 5, EXG Channel 6, EXG Channel 7, EXG Channel 8, EXG Channel 9, EXG Channel 10, EXG Channel 11, EXG Channel 12, EXG Channel 13, EXG Channel 14, EXG Channel 15, Accel Channel 0, Accel Channel 1, Accel Channel 2, Not Used, Digital Channel 0 (D11), Digital Channel 1 (D12), Digital Channel 2 (D13), Digital Channel 3 (D17), Not Used, Digital Channel 4 (D18), Analog Channel 0, Analog Channel 1, Analog Channel 2, Timestamp, Marker Channel, Timestamp (Formatted)
0.0, -43995.206832314354, -37660.655398446965, -29913.07138360398, -73195.79400966097, -27709.837580899904, -27492.57862479432, -52659.078259358204, -100990.94819914678, 0.0, 0.0, 0.0, 0.0, 0.0, 0.0, 0.0, 0.0, 0.0, 0.0, 0.0, 193.0, 0.0, 0.5, 0.5, 0.0, 0.0, 0.5, 0.5, 128.0, 0.5, 1.750528942491183E9, 0.0, 2025-06-21 20:02:22.491
74.0, -44008.84139643209, -37634.90618883445, -29936.54071528205, -73200.06319285193, -27735.855011445885, -27533.951703781095, -52671.81875369773, -100988.06482411205, -187500.02235174447, -187500.02235174447, -48425.16612114503, -46914.277602944094, -78290.06949544782, -48951.48264783414, -88680.61318166414, -31709.45873373255, 0.0, 0.0, 0.0, 193.0, 0.0, 1.0, 1.0, 0.0, 0.0, 1.0, 1.0, 256.0, 1.0, 1.750528942491325E9, 0.0, 2025-06-21 20:02:22.491
0.0, -21944.138043420084, -18773.967775579426, -14935.100368869349, -36576.036998753196, -13955.848092537892, -15099.475097593679, -26394.83975110528, -50573.191115044494, -93750.01117587223, -93750.01117587223, -24172.36109642519, -23407.819677331412, -39112.24473860797, -24436.558715886917, -44328.24782469843, -15813.792146896381, 0.0, 0.0, 0.0, 193.0, 0.0, 1.0, 1.0, 0.0, 0.0, 1.0, 1.0, 256.0, 1.0, 1.750528942585874E9, 0.0, 2025-06-21 20:02:22.585
2.0, -43873.099252355016, -37534.52450448567, -29870.223089483155, -73151.9175352952, -27872.35711483444, -30163.187404058863, -52778.92831312756, -101138.60382301854, -187500.02235174447, -187500.02235174447, -48315.79903552521, -46809.067941792964, -78064.24982121585, -48909.908403147274, -88760.02892971384, -31679.373285695707, 0.0, 0.0, 0.0, 193.0, 0.0, 1.0, 1.0, 0.0, 0.0, 1.0, 1.0, 256.0, 1.0, 1.75052894259192E9, 0.0, 2025-06-21 20:02:22.591
4.0, -43830.653289634385, -37494.15725399939, -29860.544784134006, -73107.01288068449, -27856.88970767137, -30251.521498146238, -52737.085847507224, -101101.58933420054, -187500.02235174447, -187500.02235174447, -48267.92159890194, -46765.4373366162, -78043.99914073934, -48859.996957778574, -88781.3524939242, -31625.2150088805, 0.0, 0.0, 0.0, 193.0, 0.0, 1.0, 1.0, 0.0, 0.0, 1.0, 1.0, 256.0, 1.0, 1.750528942598919E9, 0.0, 2025-06-21 20:02:22.598
6.0, -43864.04679585061, -37527.39429800443, -29841.590504835905, -73127.08474720536, -27900.34149889249, -30181.158206600932, -52745.065420277766, -101118.08492160856, -187500.02235174447, -187500.02235174447, -48275.49884027229, -46767.82897327292, -78037.56183833622, -48859.505219400555, -88763.13582219313, -31623.806848979813, 0.0, 0.0, 0.0, 193.0, 0.0, 1.0, 1.0, 0.0, 0.0, 1.0, 1.0, 256.0, 1.0, 1.75052894260691E9, 0.0, 2025-06-21 20:02:22.606
8.0, -43828.060487277566, -37496.52653891165, -29848.05015898349, -73096.73107823504, -27821.193971776247, -30166.54016572716, -52706.77688202583, -101079.93049382335, -187500.02235174447, -187500.02235174447, -48285.758290977275, -46775.31680766545, -78039.86406801511, -48864.57906539191, -88735.97845267993, -31631.22762813898, 0.0, 0.0, 0.0, 193.0, 0.0, 1.0, 1.0, 0.0, 0.0, 1.0, 1.0, 256.0, 1.0, 1.750528942615961E9, 0.0, 2025-06-21 20:02:22.615
10.0, -43810.91669928035, -37476.56643111306, -29802.921986928224, -73079.14025534871, -27872.647687512363, -30171.435197762872, -52687.33086434971, -101053.10840047698, -187500.02235174447, -187500.02235174447, -48229.007211805256, -46725.606527996846, -78006.76113447681, -48809.5714222874, -88757.1008511902, -31567.48045295244, 0.0, 0.0, 0.0, 193.0, 0.0, 1.0, 1.0, 0.0, 0.0, 1.0, 1.0, 256.0, 1.0, 1.750528942623963E9, 0.0, 2025-06-21 20:02:22.623
12.0, -43871.333464543044, -37530.94822537282, -29853.727502075137, -73134.81845078689, -27872.1783008788, -30161.846299391545, -52732.81666431626, -101109.03246510416, -187500.02235174447, -187500.02235174447, -48263.115973844055, -46763.64919705978, -78012.39377407954, -48845.55773086044, -88695.76766440483, -31614.128543630668, 0.0, 0.0, 0.0, 193.0, 0.0, 1.0, 1.0, 0.0, 0.0, 1.0, 1.0, 256.0, 1.0, 1.75052894263098E9, 0.0, 2025-06-21 20:02:22.630
14.0, -43809.597946357484, -37482.06496024907, -29831.174591919735, -73087.03042114145, -27819.94227408675, -30204.784000490192, -52696.070396431736, -101070.9003890634, -187500.02235174447, -187500.02235174447, -48275.767061205755, -46773.79688904249, -78049.92235302, -48860.93573104569, -88783.52061313637, -31621.772840234382, 0.0, 0.0, 0.0, 193.0, 0.0, 1.0, 1.0, 0.0, 0.0, 1.0, 1.0, 256.0, 1.0, 1.750528942639023E9, 0.0, 2025-06-21 20:02:22.639
16.0, -43853.49677246771, -37513.96089958679, -29836.449603611185, -73123.0614332034, -27864.93633567528, -30109.09618247702, -52720.36674265465, -101085.74194738174, -187500.02235174447, -187500.02235174447, -48243.31232825665, -46743.979661939105, -78009.77861997827, -48831.87846325379, -88731.55280727778, -31596.58242423325, 0.0, 0.0, 0.0, 193.0, 0.0, 1.0, 1.0, 0.0, 0.0, 1.0, 1.0, 256.0, 1.0, 1.750528942647074E9, 0.0, 2025-06-21 20:02:22.647
18.0, -43841.896217095404, -37498.404085445894, -29861.595316123407, -73112.33259586485, -27819.36112873091, -30099.216711427776, -52708.632076815615, -101071.79445884163, -187500.02235174447, -187500.02235174447, -48293.49199455881, -46793.71229335217, -78054.1691844665, -48870.39051895029, -88743.10865916118, -31638.715462531505, 0.0, 0.0, 0.0, 193.0, 0.0, 1.0, 1.0, 0.0, 0.0, 1.0, 1.0, 256.0, 1.0, 1.750528942655092E9, 0.0, 2025-06-21 20:02:22.655
20.0, -43839.035193805124, -37504.59551866001, -29843.28923741451, -73107.97400569606, -27848.41839652281, -30210.997785448766, -52695.645713287086, -101065.82654307206, -187500.02235174447, -187500.02235174447, -48239.37842123252, -46735.12837113481, -78022.38500385106, -48814.622916534296, -88767.62852282864, -31573.090740810723, 0.0, 0.0, 0.0, 193.0, 0.0, 1.0, 1.0, 0.0, 0.0, 1.0, 1.0, 256.0, 1.0, 1.750528942662181E9, 0.0, 2025-06-21 20:02:22.662
22.0, -43881.95054315931, -37535.21740856378, -29870.29014471652, -73150.03998876095, -27901.973176237727, -30120.20499947131, -52751.279205236344, -101121.05770362112, -187500.02235174447, -187500.02235174447, -48315.62022156957, -46805.983401058125, -78064.92037354951, -48894.530402962024, -88759.40308086909, -31660.486061630974, 0.0, 0.0, 0.0, 193.0, 0.0, 1.0, 1.0, 0.0, 0.0, 1.0, 1.0, 256.0, 1.0, 1.750528942671235E9, 0.0, 2025-06-21 20:02:22.671
24.0, -43798.17620494082, -37469.74914905419, -29816.84712372388, -73072.97117387905, -27802.373802944876, -30167.858918650025, -52699.15493716657, -101060.66329010288, -187500.02235174447, -187500.02235174447, -48258.08683134161, -46757.033080701, -78035.28196040177, -48841.91439651423, -88770.98128449694, -31602.84091268074, 0.0, 0.0, 0.0, 193.0, 0.0, 1.0, 1.0, 0.0, 0.0, 1.0, 1.0, 256.0, 1.0, 1.750528942679166E9, 0.0, 2025-06-21 20:02:22.679
26.0, -43855.597836446505, -37521.73930665723, -29832.627455309328, -73117.13822092274, -27836.773137661596, -30092.10885669099, -52709.123815193634, -101082.36683396899, -187500.02235174447, -187500.02235174447, -48243.669956167934, -46737.140028135786, -78004.81653270918, -48818.13214041378, -88725.85311244168, -31579.662153680583, 0.0, 0.0, 0.0, 193.0, 0.0, 1.0, 1.0, 0.0, 0.0, 1.0, 1.0, 256.0, 1.0, 1.750528942686229E9, 0.0, 2025-06-21 20:02:22.686
28.0, -43843.01380431817, -37502.09212328102, -29834.90733324377, -73102.22960737105, -27868.602021765953, -30120.763793082693, -52718.2433269314, -101082.07626129106, -187500.02235174447, -187500.02235174447, -48285.758290977275, -46790.15836598377, -78044.60263783963, -48865.11550725884, -88743.443935328, -31629.73006126047, 0.0, 0.0, 0.0, 193.0, 0.0, 1.0, 1.0, 0.0, 0.0, 1.0, 1.0, 256.0, 1.0, 1.750528942696275E9, 0.0, 2025-06-21 20:02:22.696
30.0, -43793.01295197165, -37473.90657352288, -29777.19512906017, -73046.73022588852, -27797.434067420254, -30114.125324979464, -52651.41161101003, -101021.52538556163, -187500.02235174447, -187500.02235174447, -48211.32698194111, -46713.55893773543, -77992.18779709194, -48783.866916163795, -88735.68788000202, -31542.80412707378, 0.0, 0.0, 0.0, 193.0, 0.0, 1.0, 1.0, 0.0, 0.0, 1.0, 1.0, 256.0, 1.0, 1.750528942704318E9, 0.0, 2025-06-21 20:02:22.704
32.0, -43846.81360087557, -37514.676155409354, -29827.464202340154, -73094.51825553397, -27800.004518032616, -30059.38590280842, -52703.35706512417, -101074.72253736528, -187500.02235174447, -187500.02235174447, -48245.36868874654, -46735.41894381272, -77993.8641779261, -48815.09230316786, -88682.9824665764, -31580.846796136713, 0.0, 0.0, 0.0, 193.0, 0.0, 1.0, 1.0, 0.0, 0.0, 1.0, 1.0, 256.0, 1.0, 1.750528942710337E9, 0.0, 2025-06-21 20:02:22.710
34.0, -43822.07021976355, -37484.7471695837, -29828.291216884998, -73074.15581633519, -27837.66720743981, -30160.169918557396, -52687.2861608608, -101042.91600500536, -187500.02235174447, -187500.02235174447, -48252.81181965015, -46741.67743226021, -78024.08373642966, -48813.48297756708, -88754.01631045536, -31572.129615799146, 0.0, 0.0, 0.0, 193.0, 0.0, 1.0, 1.0, 0.0, 0.0, 1.0, 1.0, 256.0, 1.0, 1.750528942718392E9, 0.0, 2025-06-21 20:02:22.718
36.0, -43845.271330508156, -37509.35644022899, -29806.31945208543, -73094.69706948962, -27829.732338158174, -30042.93501888931, -52698.439681343996, -101068.82167682907, -187500.02235174447, -187500.02235174447, -48243.87112186803, -46737.87763570281, -78006.80583796572, -48810.37608508779, -88723.14855136258, -31573.403665233098, 0.0, 0.0, 0.0, 193.0, 0.0, 1.0, 1.0, 0.0, 0.0, 1.0, 1.0, 256.0, 1.0, 1.750528942727369E9, 0.0, 2025-06-21 20:02:22.727
38.0, -43821.73494359672, -37481.41675965986, -29814.81311497845, -73072.3453250343, -27816.88008509637, -30095.32750789255, -52677.58550376719, -101039.8985195039, -187500.02235174447, -187500.02235174447, -48263.674767455435, -46755.60256905587, -78018.00406193783, -48825.75408527304, -88708.39640002209, -31591.955613131002, 0.0, 0.0, 0.0, 193.0, 0.0, 1.0, 1.0, 0.0, 0.0, 1.0, 1.0, 256.0, 1.0, 1.750528942735386E9, 0.0, 2025-06-21 20:02:22.735
40.0, -43816.3928766719, -37484.88128005043, -29794.361268801844, -73060.05186558388, -27803.714907612197, -30076.86496697247, -52672.60106475366, -101034.69056304582, -187500.02235174447, -187500.02235174447, -48209.94117378488, -46707.836891154875, -77987.96331738989, -48781.832907418364, -88746.21555164046, -31537.819688060248, 0.0, 0.0, 0.0, 193.0, 0.0, 1.0, 1.0, 0.0, 0.0, 1.0, 1.0, 256.0, 1.0, 1.750528942742487E9, 0.0, 2025-06-21 20:02:22.742
42.0, -43855.463725979775, -37530.32237652807, -29825.47489708363, -73096.50756079049, -27822.713890399205, -30071.72406574775, -52681.00532066886, -101073.22497048676, -187500.02235174447, -187500.02235174447, -48255.136401073505, -46757.65892954575, -78007.07405889918, -48828.70451554114, -88698.09224582819, -31593.76610443188, 0.0, 0.0, 0.0, 193.0, 0.0, 1.0, 1.0, 0.0, 0.0, 1.0, 1.0, 256.0, 1.0, 1.750528942750531E9, 0.0, 2025-06-21 20:02:22.750
44.0, -43820.77381858514, -37479.65097184789, -29810.14160038729, -73069.57370872184, -27833.93446611577, -30117.925121536868, -52687.21910562743, -101047.2522434297, -187500.02235174447, -187500.02235174447, -48235.19864501937, -46737.36354558034, -78012.84080896864, -48807.11273039731, -88756.78792676782, -31563.032455805835, 0.0, 0.0, 0.0, 193.0, 0.0, 1.0, 1.0, 0.0, 0.0, 1.0, 1.0, 256.0, 1.0, 1.750528942759546E9, 0.0, 2025-06-21 20:02:22.759
46.0, -43854.45789747929, -37515.34670774302, -29801.022088649523, -73092.41719155517, -27818.668224652796, -29991.660117108837, -52704.18407966901, -101072.88969431994, -187500.02235174447, -187500.02235174447, -48229.74481937228, -46730.72507747711, -77996.94871866092, -48798.976695415586, -88710.60922272316, -31562.853641850194, 0.0, 0.0, 0.0, 193.0, 0.0, 1.0, 1.0, 0.0, 0.0, 1.0, 1.0, 256.0, 1.0, 1.75052894276763E9, 0.0, 2025-06-21 20:02:22.767
48.0, -43812.123693480935, -37474.912402023365, -29806.878245696815, -73068.29965928789, -27792.002593517616, -30063.185699365822, -52701.05483544527, -101044.99471723971, -187500.02235174447, -187500.02235174447, -48262.28895929921, -46759.53647608, -78019.34516660514, -48832.28079465399, -88718.45468502697, -31600.002241134913, 0.0, 0.0, 0.0, 193.0, 0.0, 1.0, 1.0, 0.0, 0.0, 1.0, 1.0, 256.0, 1.0, 1.750528942774564E9, 0.0, 2025-06-21 20:02:22.774
50.0, -43822.874882563934, -37496.235966233726, -29800.32918457141, -73070.55718547788, -27822.199800276736, -30086.677382788348, -52661.26873031482, -101056.17058946737, -187500.02235174447, -187500.02235174447, -48203.5262231262, -46701.86897538531, -77983.13534058754, -48773.294541036434, -88739.53238004833, -31534.265760691855, 0.0, 0.0, 0.0, 193.0, 0.0, 1.0, 1.0, 0.0, 0.0, 1.0, 1.0, 256.0, 1.0, 1.750528942783647E9, 0.0, 2025-06-21 20:02:22.783
52.0, -43849.36169974348, -37508.61883266197, -29814.544894044986, -73088.99737465351, -27799.110448254403, -30016.112925542944, -52696.91976272104, -101080.42223220137, -187500.02235174447, -187500.02235174447, -48265.50761050077, -46755.89314173379, -78014.13721014705, -48839.05337322395, -88716.01834488135, -31606.841874938236, 0.0, 0.0, 0.0, 193.0, 0.0, 1.0, 1.0, 0.0, 0.0, 1.0, 1.0, 256.0, 1.0, 1.750528942791627E9, 0.0, 2025-06-21 20:02:22.791
54.0, -43777.47848957521, -37446.14570690939, -29785.264108808533, -73038.14715601769, -27786.50406438161, -30071.366437836463, -52653.758544177836, -101028.90146123189, -187500.02235174447, -187500.02235174447, -48217.00432503275, -46710.29558304496, -77990.28789881324, -48791.57826800088, -88739.73354574843, -31550.940162055515, 0.0, 0.0, 0.0, 193.0, 0.0, 1.0, 1.0, 0.0, 0.0, 1.0, 1.0, 256.0, 1.0, 1.750528942798695E9, 0.0, 2025-06-21 20:02:22.798
56.0, -43815.09647549349, -37480.12035848145, -29771.495434224064, -73063.22581329654, -27794.528340641064, -29969.755407542638, -52670.45529728595, -101045.53115910664, -187500.02235174447, -187500.02235174447, -48199.5252608687, -46699.54439396196, -77962.9517153444, -48787.68906446565, -88711.12331284564, -31548.704987609985, 0.0, 0.0, 0.0, 193.0, 0.0, 1.0, 1.0, 0.0, 0.0, 1.0, 1.0, 256.0, 1.0, 1.750528942806734E9, 0.0, 2025-06-21 20:02:22.806
58.0, -43810.91669928035, -37471.29141942161, -29803.369021817332, -73068.07614184334, -27779.284450922543, -30030.105117571966, -52680.692396246486, -101047.83338878554, -187500.02235174447, -187500.02235174447, -48229.94598507237, -46727.908757675745, -77986.57750923366, -48821.08257068188, -88708.6422692111, -31587.284098539843, 0.0, 0.0, 0.0, 193.0, 0.0, 1.0, 1.0, 0.0, 0.0, 1.0, 1.0, 256.0, 1.0, 1.750528942815762E9, 0.0, 2025-06-21 20:02:22.815
60.0, -43780.07129193202, -37442.86000047446, -29777.284536037987, -73047.11020554426, -27779.127988711356, -29998.94678580127, -52653.22210231091, -101038.06567645857, -187500.02235174447, -187500.02235174447, -48196.7759963007, -46699.85731838433, -77975.04400909472, -48786.05738712042, -88753.59162731071, -31544.72637709694, 0.0, 0.0, 0.0, 193.0, 0.0, 1.0, 1.0, 0.0, 0.0, 1.0, 1.0, 256.0, 1.0, 1.750528942822744E9, 0.0, 2025-06-21 20:02:22.822
62.0, -43812.48132139222, -37467.4916228642, -29776.301059281956, -73051.06646431285, -27767.080398449947, -29965.26270690712, -52685.498021304375, -101042.55837709409, -187500.02235174447, -187500.02235174447, -48202.699208581354, -46689.4190537237, -77949.51831692675, -48791.42180578969, -88665.99514079037, -31558.80797610378, 0.0, 0.0, 0.0, 193.0, 0.0, 1.0, 1.0, 0.0, 0.0, 1.0, 1.0, 256.0, 1.0, 1.750528942830824E9, 0.0, 2025-06-21 20:02:22.830
64.0, -43781.770024510624, -37452.7394715237, -29789.823864677415, -73032.20159199258, -27767.72859903915, -30004.959405059744, -52667.97425365142, -101026.15219666388, -187500.02235174447, -187500.02235174447, -48219.59712738957, -46702.07014108541, -77988.2538900678, -48793.20994534611, -88746.95315920749, -31551.67776962254, 0.0, 0.0, 0.0, 193.0, 0.0, 1.0, 1.0, 0.0, 0.0, 1.0, 1.0, 256.0, 1.0, 1.750528942838879E9, 0.0, 2025-06-21 20:02:22.838
66.0, -43811.31903068054, -37494.71604761077, -29780.346725028365, -73075.76514193596, -27803.469038423187, -30005.831123093503, -52689.81190798425, -101064.53014189364, -187500.02235174447, -187500.02235174447, -48194.92080151091, -46698.873841628294, -77961.0518170657, -48783.55399174142, -88712.57617623522, -31546.134536997622, 0.0, 0.0, 0.0, 193.0, 0.0, 1.0, 1.0, 0.0, 0.0, 1.0, 1.0, 256.0, 1.0, 1.75052894284792E9, 0.0, 2025-06-21 20:02:22.847
68.0, -43759.44063179978, -37440.870695217935, -29768.79087314497, -73034.48146992702, -27747.25440111809, -30000.153780001856, -52657.111305846134, -101026.08514143052, -187500.02235174447, -187500.02235174447, -48218.54659540017, -46719.660963971735, -77977.94973587392, -48814.824082234394, -88709.5363389893, -31580.86914788117, 0.0, 0.0, 0.0, 193.0, 0.0, 1.0, 1.0, 0.0, 0.0, 1.0, 1.0, 256.0, 1.0, 1.75052894285491E9, 0.0, 2025-06-21 20:02:22.854
70.0, -43732.75264892014, -37430.49948579067, -29737.677244863185, -73020.35516743126, -27693.00671732506, -29992.93416654279, -52629.171625277, -101008.9413534333, -187500.02235174447, -187500.02235174447, -48151.42430680088, -46670.53182965897, -77936.55430514268, -48753.44619196012, -88724.82493219673, -31512.785734270306, 0.0, 0.0, 0.0, 193.0, 0.0, 1.0, 1.0, 0.0, 0.0, 1.0, 1.0, 256.0, 1.0, 1.750528942862978E9, 0.0, 2025-06-21 20:02:22.862
72.0, -43736.46303849972, -37428.778401467614, -29753.524631681998, -73033.65445538217, -27717.526580992533, -29954.265648635108, -52650.13756157608, -101042.2007491828, -187500.02235174447, -187500.02235174447, -48160.65557726092, -46675.672730883685, -77914.18020894293, -48771.88638113575, -88650.61714060511, -31539.92075203905, 0.0, 0.0, 0.0, 193.0, 0.0, 1.0, 1.0, 0.0, 0.0, 1.0, 1.0, 256.0, 1.0, 1.750528942871013E9, 0.0, 2025-06-21 20:02:22.871
74.0, -43681.56715411749, -37375.782415364076, -29718.11946846479, -72991.74493452847, -27729.77533695404, -29946.35313109793, -52627.539947931764, -100994.01038813716, -187500.02235174447, -187500.02235174447, -48146.05988813161, -46666.463812168106, -77928.41827016095, -48759.83879087434, -88713.47024601344, -31520.85471401867, 0.0, 0.0, 0.0, 193.0, 0.0, 1.0, 1.0, 0.0, 0.0, 1.0, 1.0, 256.0, 1.0, 1.750528942879998E9, 0.0, 2025-06-21 20:02:22.879
76.0, -43727.097657572944, -37430.1865613683, -29740.381805942277, -73045.70204564359, -27727.227238086136, -29959.428901604286, -52657.51363724633, -101030.30962113258, -187500.02235174447, -187500.02235174447, -48141.85776017401, -46673.929294816175, -77916.92947351093, -48762.31983450888, -88686.80461487826, -31529.68365307852, 0.0, 0.0, 0.0, 193.0, 0.0, 1.0, 1.0, 0.0, 0.0, 1.0, 1.0, 256.0, 1.0, 1.750528942886991E9, 0.0, 2025-06-21 20:02:22.886
78.0, -43689.83729956595, -37387.62883992539, -29743.421643188198, -73003.2337311785, -27698.14761854978, -29981.713590826228, -52611.42434017949, -100999.12893761742, -187500.02235174447, -187500.02235174447, -48158.040423159655, -46670.509477914515, -77922.83033404712, -48771.81932590238, -88669.75023385885, -31540.39013867261, 0.0, 0.0, 0.0, 193.0, 0.0, 1.0, 1.0, 0.0, 0.0, 1.0, 1.0, 256.0, 1.0, 1.750528942895061E9, 0.0, 2025-06-21 20:02:22.895
80.0, -43700.72259911568, -37400.16816856482, -29733.631579116773, -73016.51066738495, -27696.359478993356, -29962.40168361684, -52649.31054703124, -101017.56912679305, -187500.02235174447, -187500.02235174447, -48130.48072224626, -46647.97891950356, -77916.5941973441, -48739.20813074209, -88715.81717918125, -31501.118123664633, 0.0, 0.0, 0.0, 193.0, 0.0, 1.0, 1.0, 0.0, 0.0, 1.0, 1.0, 256.0, 1.0, 1.750528942904107E9, 0.0, 2025-06-21 20:02:22.904
82.0, -43710.02092480909, -37406.02432561211, -29726.97075926909, -73019.2375802085, -27708.563531465952, -29924.53782850955, -52647.76827666382, -101030.17551066584, -187500.02235174447, -187500.02235174447, -48169.28335062067, -46682.91469608721, -77927.32303468265, -48778.88247715026, -88652.96407377292, -31550.113147510667, 0.0, 0.0, 0.0, 193.0, 0.0, 1.0, 1.0, 0.0, 0.0, 1.0, 1.0, 256.0, 1.0, 1.750528942910149E9, 0.0, 2025-06-21 20:02:22.910
84.0, -43661.78586027454, -37367.15464200433, -29720.578160354875, -72993.68953629608, -27700.941586606692, -29930.371633812385, -52613.45834892492, -100986.76842293363, -187500.02235174447, -187500.02235174447, -48125.183358810355, -46641.8098380339, -77911.31918565264, -48735.2518719735, -88687.96690558993, -31496.55836779575, 0.0, 0.0, 0.0, 193.0, 0.0, 1.0, 1.0, 0.0, 0.0, 1.0, 1.0, 256.0, 1.0, 1.750528942919226E9, 0.0, 2025-06-21 20:02:22.919
86.0, -43693.50298565662, -37400.70461043175, -29716.644253330738, -73020.22105696452, -27670.163234491734, -29917.698194706227, -52633.55256719024, -101026.88980423092, -187500.02235174447, -187500.02235174447, -48129.96663212379, -46660.63000686526, -77907.1394094395, -48743.36555521078, -88665.88338206809, -31509.969414468935, 0.0, 0.0, 0.0, 193.0, 0.0, 1.0, 1.0, 0.0, 0.0, 1.0, 1.0, 256.0, 1.0, 1.750528942927252E9, 0.0, 2025-06-21 20:02:22.927
88.0, -43659.081299195444, -37363.4666041692, -29718.298282420434, -72995.18710317458, -27700.427496484223, -29955.696160280248, -52609.65855236752, -100991.26112356916, -187500.02235174447, -187500.02235174447, -48144.137638108456, -46665.390928434244, -77914.24726417629, -48759.61527342979, -88650.14775397156, -31529.81776354525, 0.0, 0.0, 0.0, 193.0, 0.0, 1.0, 1.0, 0.0, 0.0, 1.0, 1.0, 256.0, 1.0, 1.750528942935286E9, 0.0, 2025-06-21 20:02:22.935
90.0, -43646.31845311147, -37352.9165807863, -29698.964023466593, -72990.62734730571, -27662.34012393238, -29913.563121981995, -52598.97441851788, -100986.81312642255, -187500.02235174447, -187500.02235174447, -48088.30298045909, -46609.89154695172, -77879.60206027055, -48709.904993761185, -88680.00968456385, -31471.74793145036, 0.0, 0.0, 0.0, 193.0, 0.0, 1.0, 1.0, 0.0, 0.0, 1.0, 1.0, 256.0, 1.0, 1.750528942943196E9, 0.0, 2025-06-21 20:02:22.943
92.0, -43699.18032874827, -37397.26244178563, -29746.32736996739, -73040.58349616331, -27690.86094985735, -29854.599220108896, -52657.33482329069, -101043.13952244991, -187500.02235174447, -187500.02235174447, -48159.82856271608, -46678.35494021833, -77918.96348225635, -48787.82317493238, -88661.97182678842, -31557.95860981448, 0.0, 0.0, 0.0, 193.0, 0.0, 1.0, 1.0, 0.0, 0.0, 1.0, 1.0, 256.0, 1.0, 1.750528942951298E9, 0.0, 2025-06-21 20:02:22.951
94.0, -43641.4010693313, -37344.534676615556, -29708.48586660455, -72983.81006524683, -27691.799723124474, -29945.72728225318, -52616.65464838203, -100995.99969339368, -187500.02235174447, -187500.02235174447, -48127.552643722614, -46649.811762548896, -77916.46008687736, -48763.14684905372, -88713.26908031334, -31526.912036766058, 0.0, 0.0, 0.0, 193.0, 0.0, 1.0, 1.0, 0.0, 0.0, 1.0, 1.0, 256.0, 1.0, 1.750528942959304E9, 0.0, 2025-06-21 20:02:22.959
96.0, -43685.90339254182, -37390.57927019349, -29710.318709649888, -73015.95187377356, -27683.641336398287, -29854.8450892979, -52632.9714218344, -101023.64880128489, -187500.02235174447, -187500.02235174447, -48110.02887606966, -46632.51151234049, -77888.3862958415, -48750.83103785885, -88673.57238216071, -31517.636062817106, 0.0, 0.0, 0.0, 193.0, 0.0, 1.0, 1.0, 0.0, 0.0, 1.0, 1.0, 256.0, 1.0, 1.750528942966307E9, 0.0, 2025-06-21 20:02:22.966
98.0, -43673.25230518011, -37371.803804851035, -29741.61115188732, -73008.6875568256, -27668.46450191313, -29933.098546635934, -52621.43792169546, -100997.7878329501, -187500.02235174447, -187500.02235174447, -48150.64199574495, -46668.274303468985, -77919.56697935665, -48772.24400904703, -88669.05732978074, -31541.10539449518, 0.0, 0.0, 0.0, 193.0, 0.0, 1.0, 1.0, 0.0, 0.0, 1.0, 1.0, 256.0, 1.0, 1.750528942975308E9, 0.0, 2025-06-21 20:02:22.975
100.0, -43660.93649398524, -37361.20907797922, -29698.02525019947, -72984.4806175805, -27656.595725607363, -29884.707019890193, -52601.74603483034, -100989.24946656817, -187500.02235174447, -187500.02235174447, -48109.738303391736, -46625.71658202608, -77896.9917174568, -48721.61730785576, -88702.56259471925, -31481.448588543964, 0.0, 0.0, 0.0, 193.0, 0.0, 1.0, 1.0, 0.0, 0.0, 1.0, 1.0, 256.0, 1.0, 1.750528942983495E9, 0.0, 2025-06-21 20:02:22.983
102.0, -43706.60110790743, -37394.6249359399, -29733.206895972122, -73018.87995229721, -27665.42466466721, -29786.292289053476, -52642.33680276118, -101023.4476355848, -187500.02235174447, -187500.02235174447, -48151.536065523156, -46668.274303468985, -77908.72638329583, -48755.70371815011, -88636.75905904283, -31523.179295442023, 0.0, 0.0, 0.0, 193.0, 0.0, 1.0, 1.0, 0.0, 0.0, 1.0, 1.0, 256.0, 1.0, 1.750528942990384E9, 0.0, 2025-06-21 20:02:22.990
104.0, -43640.52935129754, -37349.63087435137, -29707.278872403967, -72972.25421336344, -27664.843519311373, -29926.39302329934, -52576.42150836247, -100958.24759700867, -187500.02235174447, -187500.02235174447, -48116.9579168508, -46629.15875067219, -77901.10443843657, -48721.013810755474, -88684.4800334549, -31478.09582687567, 0.0, 0.0, 0.0, 193.0, 0.0, 1.0, 1.0, 0.0, 0.0, 1.0, 1.0, 256.0, 1.0, 1.750528942998476E9, 0.0, 2025-06-21 20:02:22.998
106.0, -43677.342674415435, -37378.218755509704, -29702.83087525736, -73004.01604223443, -27668.799778079963, -29805.537141029497, -52621.01323855081, -100994.59153349299, -187500.02235174447, -187500.02235174447, -48119.0589808296, -46642.90507351221, -77896.94701396787, -48729.41806667067, -88662.93295179999, -31490.456341559453, 0.0, 0.0, 0.0, 193.0, 0.0, 1.0, 1.0, 0.0, 0.0, 1.0, 1.0, 256.0, 1.0, 1.750528943007456E9, 0.0, 2025-06-21 20:02:23.007
108.0, -43664.28925565354, -37371.26736298411, -29724.892047034748, -72992.59430081777, -27663.74828383306, -29876.05689478599, -52621.12499727309, -100995.75382420467, -187500.02235174447, -187500.02235174447, -48137.119190349484, -46657.52311438598, -77910.11219145205, -48745.757191867495, -88648.33726267067, -31512.18223717001, 0.0, 0.0, 0.0, 193.0, 0.0, 1.0, 1.0, 0.0, 0.0, 1.0, 1.0, 256.0, 1.0, 1.750528943015454E9, 0.0, 2025-06-21 20:02:23.015
110.0, -43675.64394183683, -37384.67840965729, -29714.386727140754, -73000.21624567703, -27700.695717417686, -29892.932461849745, -52623.18135776298, -100981.40400426436, -187500.02235174447, -187500.02235174447, -48114.4545214718, -46634.97020423057, -77911.5874065861, -48722.466674145064, -88701.60146970768, -31481.023905399314, 0.0, 0.0, 0.0, 193.0, 0.0, 1.0, 1.0, 0.0, 0.0, 1.0, 1.0, 256.0, 1.0, 1.750528943022529E9, 0.0, 2025-06-21 20:02:23.022
112.0, -43705.8187968515, -37407.05250585706, -29739.063053019414, -73032.24629548148, -27679.886243329795, -29801.826751449917, -52631.65266891154, -101018.41849308235, -187500.02235174447, -187500.02235174447, -48155.738193480756, -46675.248047739035, -77918.9411305119, -48764.46560197659, -88648.33726267067, -31531.650606590585, 0.0, 0.0, 0.0, 193.0, 0.0, 1.0, 1.0, 0.0, 0.0, 1.0, 1.0, 256.0, 1.0, 1.750528943030558E9, 0.0, 2025-06-21 20:02:23.030
114.0, -43640.95403444219, -37352.089566241455, -29709.73756429405, -72976.14341689866, -27637.507335842532, -29891.323136248964, -52580.5118775978, -100957.75585863064, -187500.02235174447, -187500.02235174447, -48131.10657109101, -46648.71652707059, -77921.31041542416, -48737.53174990795, -88695.87942312712, -31498.748838752374, 0.0, 0.0, 0.0, 193.0, 0.0, 1.0, 1.0, 0.0, 0.0, 1.0, 1.0, 256.0, 1.0, 1.750528943039547E9, 0.0, 2025-06-21 20:02:23.039
116.0, -43682.6623895958, -37384.097264301454, -29712.710346306605, -73019.14817323067, -27657.33333317439, -29772.098931324355, -52592.20183994792, -100990.50116425767, -187500.02235174447, -187500.02235174447, -48116.309716261596, -46639.75347754401, -77893.32603136612, -48726.825264313855, -88653.70168133995, -31491.775094482316, 0.0, 0.0, 0.0, 193.0, 0.0, 1.0, 1.0, 0.0, 0.0, 1.0, 1.0, 256.0, 1.0, 1.7505289430466E9, 0.0, 2025-06-21 20:02:23.046
118.0, -43655.97440671616, -37365.41120593682, -29743.93573331067, -73010.229827193, -27640.3236556439, -29842.976312992134, -52594.191145204444, -100993.36218754796, -187500.02235174447, -187500.02235174447, -48146.41751604289, -46667.11201275731, -77916.884770022, -48759.59292168533, -88653.43346040648, -31527.783754799817, 0.0, 0.0, 0.0, 193.0, 0.0, 1.0, 1.0, 0.0, 0.0, 1.0, 1.0, 256.0, 1.0, 1.750528943054613E9, 0.0, 2025-06-21 20:02:23.054
120.0, -43696.31930545799, -37402.53745347708, -29728.736547081062, -73009.87219928172, -27661.42370240971, -29855.47093814265, -52591.53128761426, -100974.8325913945, -187500.02235174447, -187500.02235174447, -48129.54194897914, -46646.79427704743, -77919.63403459001, -48741.89034007673, -88718.7899611938, -31498.41356258554, 0.0, 0.0, 0.0, 193.0, 0.0, 1.0, 1.0, 0.0, 0.0, 1.0, 1.0, 256.0, 1.0, 1.750528943062649E9, 0.0, 2025-06-21 20:02:23.062
122.0, -43698.97916304817, -37402.828026155, -29738.906590808227, -73034.74969086048, -27682.72491487562, -29789.84621642187, -52620.23092749488, -100998.81601319504, -187500.02235174447, -187500.02235174447, -48149.12207712199, -46670.934161059165, -77911.76622054174, -48767.68425317815, -88648.40431790405, -31535.472754892442, 0.0, 0.0, 0.0, 193.0, 0.0, 1.0, 1.0, 0.0, 0.0, 1.0, 1.0, 256.0, 1.0, 1.750528943071672E9, 0.0, 2025-06-21 20:02:23.071
124.0, -43685.031674508056, -37386.757121891635, -29756.27389625, -73015.21426620655, -27682.590804408886, -29883.030639056047, -52600.18141271847, -100985.9861118777, -187500.02235174447, -187500.02235174447, -48151.7148794788, -46671.73882385955, -77941.31522671167, -48772.266360791495, -88734.86086545717, -31532.254103690877, 0.0, 0.0, 0.0, 193.0, 0.0, 1.0, 1.0, 0.0, 0.0, 1.0, 1.0, 256.0, 1.0, 1.750528943078695E9, 0.0, 2025-06-21 20:02:23.078
126.0, -43720.43683772527, -37430.879465446415, -29747.489660679064, -73052.80990038037, -27658.2274029526, -29797.669326981228, -52655.725497689906, -101047.40870564089, -187500.02235174447, -187500.02235174447, -48158.95684468232, -46675.113937272305, -77934.27442720823, -48775.10503233731, -88702.76376041934, -31539.183144472023, 0.0, 0.0, 0.0, 193.0, 0.0, 1.0, 1.0, 0.0, 0.0, 1.0, 1.0, 256.0, 1.0, 1.750528943086721E9, 0.0, 2025-06-21 20:02:23.086
128.0, -43664.892752753825, -37373.614296151914, -29730.859962804316, -73007.36880390273, -27650.784272048986, -29809.381641075808, -52606.39519767704, -100979.59351296349, -187500.02235174447, -187500.02235174447, -48159.42623131588, -46685.731015888574, -77935.07909000863, -48783.28577080796, -88678.28860024079, -31553.018874289857, 0.0, 0.0, 0.0, 193.0, 0.0, 1.0, 1.0, 0.0, 0.0, 1.0, 1.0, 256.0, 1.0, 1.750528943094756E9, 0.0, 2025-06-21 20:02:23.094
130.0, -43674.347540658426, -37390.98160159369, -29729.429451159176, -73013.20260920556, -27654.561716861932, -29837.455432111674, -52614.531232658774, -101000.91707717384, -187500.02235174447, -187500.02235174447, -48105.22325101176, -46627.996459960515, -77895.7400197673, -48728.16636898117, -88709.96102213395, -31487.595318269174, 0.0, 0.0, 0.0, 193.0, 0.0, 1.0, 1.0, 0.0, 0.0, 1.0, 1.0, 256.0, 1.0, 1.750528943102765E9, 0.0, 2025-06-21 20:02:23.102
132.0, -43714.08894229996, -37421.91641591983, -29753.07759679289, -73040.0917577853, -27631.606475306333, -29786.89578615377, -52645.46604698492, -101024.38640885192, -187500.02235174447, -187500.02235174447, -48163.33778659556, -46680.85833559732, -77924.28319743671, -48785.543296997945, -88663.71526285593, -31553.465909178965, 0.0, 0.0, 0.0, 193.0, 0.0, 1.0, 1.0, 0.0, 0.0, 1.0, 1.0, 256.0, 1.0, 1.750528943110815E9, 0.0, 2025-06-21 20:02:23.110
134.0, -43699.40384619282, -37396.70364817425, -29755.245716005054, -73022.32212094332, -27728.702453220187, -29852.60991485237, -52621.92966007348, -100994.03273988162, -187500.02235174447, -187500.02235174447, -48158.48745804876, -46671.93998955965, -77945.96438955837, -48775.10503233731, -88744.11448766166, -31531.024757745836, 0.0, 0.0, 0.0, 193.0, 0.0, 1.0, 1.0, 0.0, 0.0, 1.0, 1.0, 256.0, 1.0, 1.750528943118868E9, 0.0, 2025-06-21 20:02:23.118
136.0, -43717.30759350152, -37422.631671742405, -29734.54800063944, -73032.15688850367, -27646.380978391287, -29748.18256475718, -52634.89367185756, -101012.85290871299, -187500.02235174447, -187500.02235174447, -48142.505960763214, -46665.94972204563, -77920.70691832386, -48758.43063097366, -88690.06796956873, -31519.938292496005, 0.0, 0.0, 0.0, 193.0, 0.0, 1.0, 1.0, 0.0, 0.0, 1.0, 1.0, 256.0, 1.0, 1.750528943127962E9, 0.0, 2025-06-21 20:02:23.127
138.0, -43690.776072833076, -37396.748351663155, -29752.02706480349, -73019.41639416413, -27635.294513141456, -29832.962731476156, -52615.112378014615, -100993.42924278132, -187500.02235174447, -187500.02235174447, -48159.20271387133, -46678.109071029314, -77932.64274986301, -48775.30619803741, -88678.22154500741, -31542.58060962923, 0.0, 0.0, 0.0, 193.0, 0.0, 1.0, 1.0, 0.0, 0.0, 1.0, 1.0, 256.0, 1.0, 1.750528943134913E9, 0.0, 2025-06-21 20:02:23.134
140.0, -43753.78564045258, -37447.82208774353, -29794.160103101745, -73073.06058085688, -27705.456638986667, -29790.427361777707, -52636.346535247154, -101031.51661533317, -187500.02235174447, -187500.02235174447, -48169.8197924876, -46682.93704783166, -77960.31420949867, -48783.53163999697, -88769.72958680744, -31542.737071840416, 0.0, 0.0, 0.0, 193.0, 0.0, 1.0, 1.0, 0.0, 0.0, 1.0, 1.0, 256.0, 1.0, 1.750528943142966E9, 0.0, 2025-06-21 20:02:23.142
142.0, -43744.93434964828, -37439.93192195081, -29773.90942262524, -73062.75642666298, -27667.168100734725, -29786.828730920402, -52647.120076074614, -101035.74109503522, -187500.02235174447, -187500.02235174447, -48206.85663305005, -46728.06521988693, -77967.93615435793, -48821.64136429327, -88706.22828080991, -31593.363773031688, 0.0, 0.0, 0.0, 193.0, 0.0, 1.0, 1.0, 0.0, 0.0, 1.0, 1.0, 256.0, 1.0, 1.750528943150942E9, 0.0, 2025-06-21 20:02:23.150
144.0, -43652.97927295915, -37378.241107254165, -29710.430468372164, -72985.55350131435, -27569.200404787112, -29856.38735966532, -52564.19510414542, -100954.04546905107, -187500.02235174447, -187500.02235174447, -48148.3621178105, -46658.75246033102, -77935.25790396427, -48756.75425013951, -88719.68403097201, -31518.19485642849, 0.0, 0.0, 0.0, 193.0, 0.0, 1.0, 1.0, 0.0, 0.0, 1.0, 1.0, 256.0, 1.0, 1.750528943158993E9, 0.0, 2025-06-21 20:02:23.158
146.0, -43777.54554480858, -37474.04068398961, -29778.916213383225, -73074.75931343548, -27715.872551902838, -29741.45468967613, -52645.95778536294, -101047.81103704107, -187500.02235174447, -187500.02235174447, -48144.85289393102, -46668.5648761469, -77920.21517994585, -48749.64639540272, -88682.91541134303, -31515.534998838306, 0.0, 0.0, 0.0, 193.0, 0.0, 1.0, 1.0, 0.0, 0.0, 1.0, 1.0, 256.0, 1.0, 1.75052894316702E9, 0.0, 2025-06-21 20:02:23.167
148.0, -43722.60495693743, -37424.509218276646, -29758.576125928896, -73036.22490599453, -27662.071902998916, -29778.290364538476, -52636.19007303597, -101014.52928954712, -187500.02235174447, -187500.02235174447, -48206.342542927574, -46725.315955318925, -77975.33458177264, -48804.832852462874, -88710.7880366788, -31572.53194719934, 0.0, 0.0, 0.0, 193.0, 0.0, 1.0, 1.0, 0.0, 0.0, 1.0, 1.0, 256.0, 1.0, 1.750528943175052E9, 0.0, 2025-06-21 20:02:23.175
150.0, -43764.737995235686, -37470.576163599035, -29767.98621034458, -73067.0479615984, -27701.410973240254, -29826.27955988402, -52650.405782509544, -101040.01027822618, -187500.02235174447, -187500.02235174447, -48165.84118197455, -46691.7212834026, -77961.87883161055, -48761.783392641955, -88740.96289169346, -31524.85567627617, 0.0, 0.0, 0.0, 193.0, 0.0, 1.0, 1.0, 0.0, 0.0, 1.0, 1.0, 256.0, 1.0, 1.750528943183089E9, 0.0, 2025-06-21 20:02:23.183
152.0, -43757.29486433206, -37470.06207347656, -29773.820015647416, -73059.13544406122, -27640.837745766374, -29785.085294852892, -52628.14344503206, -101020.22898438323, -187500.02235174447, -187500.02235174447, -48202.78861555918, -46719.59390873837, -77963.01877057776, -48793.05348313493, -88677.10395778465, -31566.63108666314, 0.0, 0.0, 0.0, 193.0, 0.0, 1.0, 1.0, 0.0, 0.0, 1.0, 1.0, 256.0, 1.0, 1.750528943190104E9, 0.0, 2025-06-21 20:02:23.190
154.0, -43723.409619737824, -37427.81727645604, -29757.36913172831, -73020.31046394235, -27653.75705406154, -29811.795629476983, -52600.60609586312, -100987.41662352283, -187500.02235174447, -187500.02235174447, -48183.74492928325, -46696.795129393955, -77971.49008172633, -48768.354805511815, -88736.62665326914, -31530.600074601185, 0.0, 0.0, 0.0, 193.0, 0.0, 1.0, 1.0, 0.0, 0.0, 1.0, 1.0, 256.0, 1.0, 1.750528943199076E9, 0.0, 2025-06-21 20:02:23.199
156.0, -43786.463890846244, -37488.45755916328, -29784.481797752596, -73075.42986576914, -27675.818225838928, -29773.372980758308, -52641.91211961653, -101029.81788275456, -187500.02235174447, -187500.02235174447, -48173.35136811154, -46684.345207732345, -77945.45029943589, -48757.424802473164, -88695.03005683782, -31521.122934952135, 0.0, 0.0, 0.0, 193.0, 0.0, 1.0, 1.0, 0.0, 0.0, 1.0, 1.0, 256.0, 1.0, 1.750528943207109E9, 0.0, 2025-06-21 20:02:23.207
158.0, -43768.023701670616, -37463.8929920069, -29792.70723971215, -73057.63787718271, -27679.595670651874, -29803.391373561786, -52610.75378784583, -101006.72853073223, -187500.02235174447, -187500.02235174447, -48241.65829916696, -46752.04864168747, -78009.33158508917, -48816.81338749092, -88728.06593514276, -31583.618412449174, 0.0, 0.0, 0.0, 193.0, 0.0, 1.0, 1.0, 0.0, 0.0, 1.0, 1.0, 256.0, 1.0, 1.750528943214263E9, 0.0, 2025-06-21 20:02:23.214
160.0, -43759.5300387776, -37480.96972477075, -29762.711198653127, -73050.7982433794, -27643.51995510101, -29806.85589395236, -52601.63427610806, -101004.62746675343, -187500.02235174447, -187500.02235174447, -48183.67787404989, -46702.65128644124, -77977.74857017382, -48766.07492757737, -88751.53526682082, -31525.883856521115, 0.0, 0.0, 0.0, 193.0, 0.0, 1.0, 1.0, 0.0, 0.0, 1.0, 1.0, 256.0, 1.0, 1.750528943222235E9, 0.0, 2025-06-21 20:02:23.222
162.0, -43793.77291128313, -37495.87833832244, -29787.61104197634, -73083.52119726196, -27680.601499152363, -29769.304963267445, -52631.83148286719, -101029.48260658773, -187500.02235174447, -187500.02235174447, -48204.42029290442, -46728.668716987224, -77968.65141018051, -48790.6171429893, -88670.86782108163, -31563.881822095136, 0.0, 0.0, 0.0, 193.0, 0.0, 1.0, 1.0, 0.0, 0.0, 1.0, 1.0, 256.0, 1.0, 1.750528943231256E9, 0.0, 2025-06-21 20:02:23.231
164.0, -43762.12284113441, -37465.70348330778, -29798.630451992805, -73066.69033368712, -27675.66176362774, -29774.13294006979, -52605.41172092101, -101001.27470508513, -187500.02235174447, -187500.02235174447, -48216.9819732883, -46731.37327806631, -78002.02256465227, -48797.501480281535, -88760.72183379196, -31561.66899939406, 0.0, 0.0, 0.0, 193.0, 0.0, 1.0, 1.0, 0.0, 0.0, 1.0, 1.0, 256.0, 1.0, 1.750528943239235E9, 0.0, 2025-06-21 20:02:23.239
166.0, -43830.943862312306, -37533.69748994082, -29818.56820804694, -73115.6630057887, -27720.901694405282, -29756.251544505543, -52660.48641925889, -101058.852798802, -187500.02235174447, -187500.02235174447, -48225.274470481214, -46742.32563284942, -77998.5580442617, -48810.6219542768, -88744.80739173979, -31577.650496679606, 0.0, 0.0, 0.0, 193.0, 0.0, 1.0, 1.0, 0.0, 0.0, 1.0, 1.0, 256.0, 1.0, 1.750528943246293E9, 0.0, 2025-06-21 20:02:23.246
168.0, -43783.49110883369, -37491.631506875936, -29799.81509444894, -73075.38516228023, -27678.47808342911, -29822.636225537804, -52660.821695425715, -101036.43399911333, -187500.02235174447, -187500.02235174447, -48241.05480206666, -46760.005862713566, -78014.58424503617, -48829.799751019455, -88736.33608059122, -31600.650441724116, 0.0, 0.0, 0.0, 193.0, 0.0, 1.0, 1.0, 0.0, 0.0, 1.0, 1.0, 256.0, 1.0, 1.750528943255353E9, 0.0, 2025-06-21 20:02:23.255
170.0, -43782.217059399736, -37498.71700986827, -29785.42057101972, -73071.76417967847, -27645.08457721288, -29821.76450750405, -52659.346480291664, -101036.12107469095, -187500.02235174447, -187500.02235174447, -48199.413502146424, -46715.324725547405, -77994.13239885955, -48788.35961679931, -88770.28838041883, -31550.4484236775, 0.0, 0.0, 0.0, 193.0, 0.0, 1.0, 1.0, 0.0, 0.0, 1.0, 1.0, 256.0, 1.0, 1.750528943263367E9, 0.0, 2025-06-21 20:02:23.263
172.0, -43846.05364156409, -37549.72369071528, -29841.47874611363, -73130.59397108483, -27729.97650265414, -29779.83263490589, -52684.04515791478, -101071.81681058608, -187500.02235174447, -187500.02235174447, -48254.19762780638, -46770.35472039637, -78018.20522763793, -48847.16705646123, -88735.28554860182, -31616.296662842833, 0.0, 0.0, 0.0, 193.0, 0.0, 1.0, 1.0, 0.0, 0.0, 1.0, 1.0, 256.0, 1.0, 1.750528943270407E9, 0.0, 2025-06-21 20:02:23.270
174.0, -43778.66313203134, -37494.80545458859, -29817.65178652427, -73080.5037117605, -27661.781330320995, -29834.974388477134, -52627.00350606484, -101019.06669367156, -187500.02235174447, -187500.02235174447, -48237.389115975995, -46760.02821445802, -78030.09635568815, -48828.324535885404, -88799.6585726331, -31589.25105205191, 0.0, 0.0, 0.0, 193.0, 0.0, 1.0, 1.0, 0.0, 0.0, 1.0, 1.0, 256.0, 1.0, 1.750528943278379E9, 0.0, 2025-06-21 20:02:23.278
176.0, -43835.43656294782, -37530.74705967272, -29803.190207861688, -73106.38703183974, -27702.48385697411, -29692.951404208114, -52665.1802855945, -101061.06562150308, -187500.02235174447, -187500.02235174447, -48228.38136296051, -46737.00591766905, -78000.10031462912, -48808.45383506463, -88739.57708353724, -31574.409493733587, 0.0, 0.0, 0.0, 193.0, 0.0, 1.0, 1.0, 0.0, 0.0, 1.0, 1.0, 256.0, 1.0, 1.750528943286442E9, 0.0, 2025-06-21 20:02:23.286
178.0, -43767.599018525965, -37491.631506875936, -29774.982306359092, -73063.02464759644, -27667.793949579474, -29823.61970229384, -52621.393218206555, -101015.55746979207, -187500.02235174447, -187500.02235174447, -48234.39398221898, -46754.57438881092, -78009.55510253372, -48817.81921599141, -88713.76081869136, -31591.955613131002, 0.0, 0.0, 0.0, 193.0, 0.0, 1.0, 1.0, 0.0, 0.0, 1.0, 1.0, 256.0, 1.0, 1.750528943295521E9, 0.0, 2025-06-21 20:02:23.295
180.0, -43792.968248482735, -37504.12613202645, -29781.061980850936, -73076.77097043645, -27671.169062992223, -29779.743227928073, -52625.95297407544, -101020.63131578342, -187500.02235174447, -187500.02235174447, -48190.31634215311, -46717.895176159764, -77988.49975925681, -48776.35673002681, -88753.21164765497, -31540.926580539537, 0.0, 0.0, 0.0, 193.0, 0.0, 1.0, 1.0, 0.0, 0.0, 1.0, 1.0, 256.0, 1.0, 1.750528943302494E9, 0.0, 2025-06-21 20:02:23.302
182.0, -43825.825312832036, -37529.38360326095, -29804.866588695837, -73090.80786595438, -27652.751225561053, -29741.052358275934, -52647.32124177471, -101036.9480892358, -187500.02235174447, -187500.02235174447, -48235.89154909749, -46750.43931608669, -77999.85444544011, -48816.9698497021, -88701.35560051867, -31589.653383452107, 0.0, 0.0, 0.0, 193.0, 0.0, 1.0, 1.0, 0.0, 0.0, 1.0, 1.0, 256.0, 1.0, 1.75052894331055E9, 0.0, 2025-06-21 20:02:23.310
184.0, -43816.50463539417, -37519.928815356354, -29828.313568629455, -73092.32778457736, -27718.510057748565, -29826.436022095208, -52637.330012003185, -101017.56912679305, -187500.02235174447, -187500.02235174447, -48234.55044443017, -46742.25857761605, -78024.39666085204, -48809.92905019868, -88783.02887475835, -31570.944973343012, 0.0, 0.0, 0.0, 193.0, 0.0, 1.0, 1.0, 0.0, 0.0, 1.0, 1.0, 256.0, 1.0, 1.750528943319565E9, 0.0, 2025-06-21 20:02:23.319
186.0, -43820.14796974039, -37530.076507339065, -29795.99294614708, -73093.04304039992, -27651.43247263819, -29692.63847978574, -52625.304773486234, -101039.83146427054, -187500.02235174447, -187500.02235174447, -48232.002345562265, -46752.69684227668, -78010.78444847876, -48810.30902985443, -88744.53917080631, -31576.3540955012, 0.0, 0.0, 0.0, 193.0, 0.0, 1.0, 1.0, 0.0, 0.0, 1.0, 1.0, 256.0, 1.0, 1.750528943326622E9, 0.0, 2025-06-21 20:02:23.326
188.0, -43810.648478346884, -37507.94828032831, -29813.58376903341, -73082.2024443391, -27687.15056027777, -29792.32726005641, -52643.476741728395, -101029.7955310101, -187500.02235174447, -187500.02235174447, -48233.611671163046, -46745.946615451176, -78004.99534666483, -48820.501425326045, -88729.42939155453, -31586.34532527272, 0.0, 0.0, 0.0, 193.0, 0.0, 1.0, 1.0, 0.0, 0.0, 1.0, 1.0, 256.0, 1.0, 1.750528943334758E9, 0.0, 2025-06-21 20:02:23.334
190.0, -43817.39870517239, -37518.34184150003, -29793.936585657193, -73081.93422340564, -27709.614063455352, -29782.55954772944, -52645.75661966284, -101039.60794682598, -187500.02235174447, -187500.02235174447, -48223.35222045806, -46729.89806293226, -78012.95256769093, -48811.02428567699, -88792.39425568513, -31570.72145589846, 0.0, 0.0, 0.0, 193.0, 0.0, 1.0, 1.0, 0.0, 0.0, 1.0, 1.0, 256.0, 1.0, 1.750528943342639E9, 0.0, 2025-06-21 20:02:23.342
192.0, -43823.56778664205, -37534.50215274122, -29802.877283439313, -73101.29083410393, -27662.429530910198, -29694.627785042263, -52654.31733778922, -101051.63318534294, -187500.02235174447, -187500.02235174447, -48234.46103745235, -46750.886350975794, -77997.0157738943, -48827.54222482946, -88708.99989712238, -31601.298642313322, 0.0, 0.0, 0.0, 193.0, 0.0, 1.0, 1.0, 0.0, 0.0, 1.0, 1.0, 256.0, 1.0, 1.75052894335173E9, 0.0, 2025-06-21 20:02:23.351
194.0, -43810.179091713326, -37513.357402486494, -29811.415649821243, -73072.70295294559, -27678.120455517826, -29825.787821506005, -52629.931584588485, -101015.6915802588, -187500.02235174447, -187500.02235174447, -48235.578624675116, -46745.99131894008, -78020.30629161673, -48814.26528862301, -88782.85006080271, -31577.11405481268, 0.0, 0.0, 0.0, 193.0, 0.0, 1.0, 1.0, 0.0, 0.0, 1.0, 1.0, 256.0, 1.0, 1.750528943358736E9, 0.0, 2025-06-21 20:02:23.358
196.0, -43833.89429258041, -37537.85491440951, -29796.439981036187, -73096.01582241248, -27669.246812969068, -29710.274006160977, -52658.742983191376, -101053.5554353661, -187500.02235174447, -187500.02235174447, -48218.81481633363, -46718.811597682434, -77987.3598202896, -48794.59575350234, -88729.02706015433, -31560.014970304368, 0.0, 0.0, 0.0, 193.0, 0.0, 1.0, 1.0, 0.0, 0.0, 1.0, 1.0, 256.0, 1.0, 1.750528943366737E9, 0.0, 2025-06-21 20:02:23.366
198.0, -43813.88948129291, -37518.92298685587, -29804.352498573364, -73080.28019431594, -27708.228255299124, -29752.51880318151, -52647.00831735234, -101030.80135951059, -187500.02235174447, -187500.02235174447, -48251.090735327096, -46766.912551750254, -78023.52494281829, -48828.59275681886, -88731.82102821124, -31599.599909734716, 0.0, 0.0, 0.0, 193.0, 0.0, 1.0, 1.0, 0.0, 0.0, 1.0, 1.0, 256.0, 1.0, 1.75052894337475E9, 0.0, 2025-06-21 20:02:23.374
200.0, -43818.02455401714, -37511.88218735244, -29800.731515971605, -73086.49397927451, -27701.52273196253, -29747.087329278867, -52637.01708758081, -101032.9471269783, -187500.02235174447, -187500.02235174447, -48214.29976395366, -46718.38691453778, -78002.22373035237, -48796.67446573669, -88781.97834276895, -31557.600981903197, 0.0, 0.0, 0.0, 193.0, 0.0, 1.0, 1.0, 0.0, 0.0, 1.0, 1.0, 256.0, 1.0, 1.7505289433828E9, 0.0, 2025-06-21 20:02:23.382
202.0, -43836.12946702594, -37549.790745948645, -29812.287367855, -73107.43756382914, -27659.09912098636, -29722.589817355853, -52651.32220403221, -101050.71676382027, -187500.02235174447, -187500.02235174447, -48247.112124814055, -46758.39653711278, -78005.64354725403, -48826.06700969541, -88711.14566459009, -31598.12469460067, 0.0, 0.0, 0.0, 193.0, 0.0, 1.0, 1.0, 0.0, 0.0, 1.0, 1.0, 256.0, 1.0, 1.750528943390804E9, 0.0, 2025-06-21 20:02:23.390
204.0, -43800.031399730615, -37509.82582686256, -29806.833542207904, -73075.78749368041, -27660.23905995358, -29783.90065239676, -52628.36696247661, -101019.06669367156, -187500.02235174447, -187500.02235174447, -48235.64567990848, -46752.24980738757, -78027.45884984241, -48819.00385844754, -88783.29709569181, -31581.58440370374, 0.0, 0.0, 0.0, 193.0, 0.0, 1.0, 1.0, 0.0, 0.0, 1.0, 1.0, 256.0, 1.0, 1.750528943398821E9, 0.0, 2025-06-21 20:02:23.398
206.0, -43879.804775691606, -37580.7702637637, -29849.27950492853, -73155.53851789696, -27707.311833776457, -29672.879537687248, -52691.0859574182, -101083.73029038076, -187500.02235174447, -187500.02235174447, -48243.40173523447, -46760.3858423693, -78015.74653574784, -48825.1729399172, -88753.43516509952, -31593.229662564954, 0.0, 0.0, 0.0, 193.0, 0.0, 1.0, 1.0, 0.0, 0.0, 1.0, 1.0, 256.0, 1.0, 1.750528943407865E9, 0.0, 2025-06-21 20:02:23.407
208.0, -43813.12952198143, -37526.52257997067, -29814.00845217806, -73086.8516071858, -27677.53931016199, -29796.32822231391, -52652.573901721706, -101043.63126082794, -187500.02235174447, -187500.02235174447, -48283.90309618749, -46792.862927062866, -78049.40826289753, -48863.61794038033, -88766.04154897232, -31634.759203762915, 0.0, 0.0, 0.0, 193.0, 0.0, 1.0, 1.0, 0.0, 0.0, 1.0, 1.0, 256.0, 1.0, 1.750528943413916E9, 0.0, 2025-06-21 20:02:23.413
210.0, -43829.69216462281, -37538.48076325426, -29806.967652674637, -73090.80786595438, -27692.693792902686, -29739.197163486144, -52643.99083185087, -101045.37469689545, -187500.02235174447, -187500.02235174447, -48217.49606341077, -46719.795074438465, -78007.14111413254, -48801.59184951685, -88781.1066247352, -31562.071330794257, 0.0, 0.0, 0.0, 193.0, 0.0, 1.0, 1.0, 0.0, 0.0, 1.0, 1.0, 256.0, 1.0, 1.750528943422918E9, 0.0, 2025-06-21 20:02:23.422
212.0, -43840.845685106004, -37546.795612191636, -29822.971501704636, -73108.19752314061, -27646.04570222446, -29676.20994761109, -52660.35230879216, -101057.51169413468, -187500.02235174447, -187500.02235174447, -48253.75059291728, -46761.99516797008, -78013.89134095804, -48836.28175691149, -88720.71221121696, -31607.892406927636, 0.0, 0.0, 0.0, 193.0, 0.0, 1.0, 1.0, 0.0, 0.0, 1.0, 1.0, 256.0, 1.0, 1.750528943430984E9, 0.0, 2025-06-21 20:02:23.430
214.0, -43816.61639411645, -37533.71984168528, -29823.4408883382, -73101.38024108174, -27683.753095120563, -29762.59943993085, -52653.177398822, -101033.55062407859, -187500.02235174447, -187500.02235174447, -48250.19666554889, -46762.79983077048, -78040.0205302263, -48827.25165215155, -88795.85877607571, -31588.289927040332, 0.0, 0.0, 0.0, 193.0, 0.0, 1.0, 1.0, 0.0, 0.0, 1.0, 1.0, 256.0, 1.0, 1.75052894343899E9, 0.0, 2025-06-21 20:02:23.438
216.0, -43866.72900518525, -37564.677007755876, -29824.2902546275, -73125.18484892666, -27733.508078278075, -29708.73173579356, -52666.677852473, -101064.19486572682, -187500.02235174447, -187500.02235174447, -48238.90903459895, -46762.375147625826, -78019.83690498315, -48823.429503849686, -88754.5527523223, -31590.703915441507, 0.0, 0.0, 0.0, 193.0, 0.0, 1.0, 1.0, 0.0, 0.0, 1.0, 1.0, 256.0, 1.0, 1.750528943446017E9, 0.0, 2025-06-21 20:02:23.446
218.0, -43847.48415320923, -37554.84224019555, -29838.081280956423, -73116.06533718889, -27695.085429559404, -29750.440090947162, -52682.972274180924, -101069.42517392937, -187500.02235174447, -187500.02235174447, -48290.6980265019, -46801.02131378905, -78060.96411478092, -48862.70151885766, -88769.08138621824, -31631.697014772537, 0.0, 0.0, 0.0, 193.0, 0.0, 1.0, 1.0, 0.0, 0.0, 1.0, 1.0, 256.0, 1.0, 1.750528943455033E9, 0.0, 2025-06-21 20:02:23.455
220.0, -43839.43752520532, -37539.799516177125, -29816.735365001605, -73105.98470043954, -27665.089388500382, -29724.199142956633, -52652.88682614408, -101044.9053102619, -187500.02235174447, -187500.02235174447, -48236.5844531756, -46745.812504984446, -78027.3694428646, -48814.75702700103, -88791.67899986256, -31576.510557712387, 0.0, 0.0, 0.0, 193.0, 0.0, 1.0, 1.0, 0.0, 0.0, 1.0, 1.0, 256.0, 1.0, 1.75052894346307E9, 0.0, 2025-06-21 20:02:23.463
222.0, -43863.219781305765, -37570.980199692276, -29835.66729255525, -73132.67268331918, -27658.18269946369, -29661.48014801504, -52691.98002719641, -101081.09278453504, -187500.02235174447, -187500.02235174447, -48264.39002327801, -46778.446051889194, -78024.84369574115, -48841.690879069676, -88717.85118792667, -31614.39676456413, 0.0, 0.0, 0.0, 193.0, 0.0, 1.0, 1.0, 0.0, 0.0, 1.0, 1.0, 256.0, 1.0, 1.750528943470161E9, 0.0, 2025-06-21 20:02:23.470
224.0, -43835.21304550327, -37542.101745856016, -29828.447679096185, -73101.2014271261, -27710.910464633762, -29751.535326425474, -52657.51363724633, -101041.95487999379, -187500.02235174447, -187500.02235174447, -48268.1898198354, -46779.31776992295, -78056.9184490345, -48842.89787327026, -88803.23485174595, -31605.210197592998, 0.0, 0.0, 0.0, 193.0, 0.0, 1.0, 1.0, 0.0, 0.0, 1.0, 1.0, 256.0, 1.0, 1.750528943479138E9, 0.0, 2025-06-21 20:02:23.479
226.0, -43849.98754858822, -37561.01132166521, -29809.158123631256, -73115.39478485522, -27661.71427508763, -29679.763874979482, -52664.62149198312, -101060.86445580298, -187500.02235174447, -187500.02235174447, -48247.26858702524, -46767.94073199519, -78024.19549515194, -48824.59179456136, -88750.1494586646, -31592.20148232001, 0.0, 0.0, 0.0, 193.0, 0.0, 1.0, 1.0, 0.0, 0.0, 1.0, 1.0, 256.0, 1.0, 1.750528943487246E9, 0.0, 2025-06-21 20:02:23.487
228.0, -43863.06331909458, -37562.933571688365, -29854.53216487553, -73122.10030819182, -27691.218577768635, -29719.013538243, -52682.90521894756, -101068.79932508462, -187500.02235174447, -187500.02235174447, -48269.754441947276, -46775.585028598915, -78041.18282093797, -48844.7307163156, -88744.33800510621, -31616.34136633174, 0.0, 0.0, 0.0, 193.0, 0.0, 1.0, 1.0, 0.0, 0.0, 1.0, 1.0, 256.0, 1.0, 1.75052894349523E9, 0.0, 2025-06-21 20:02:23.495
230.0, -43854.63671143493, -37559.17847861988, -29829.028824452023, -73117.78642151195, -27711.759830923063, -29746.997922301045, -52674.18803860999, -101063.9042930489, -187500.02235174447, -187500.02235174447, -48273.30836931567, -46773.2380954311, -78060.36061768064, -48837.66756506772, -88817.18234028606, -31598.10234285621, 0.0, 0.0, 0.0, 193.0, 0.0, 1.0, 1.0, 0.0, 0.0, 1.0, 1.0, 256.0, 1.0, 1.750528943502294E9, 0.0, 2025-06-21 20:02:23.502
232.0, -43863.845630150514, -37570.73433050327, -29840.85289726888, -73134.57258159788, -27666.05051351196, -29679.607412768295, -52694.61753304214, -101088.46886020528, -187500.02235174447, -187500.02235174447, -48268.45804076887, -46778.937790267206, -78031.9739022224, -48848.64227159527, -88722.96973740695, -31624.63386352466, 0.0, 0.0, 0.0, 193.0, 0.0, 1.0, 1.0, 0.0, 0.0, 1.0, 1.0, 256.0, 1.0, 1.750528943511178E9, 0.0, 2025-06-21 20:02:23.511
234.0, -43816.303469694074, -37528.17660906036, -29821.540990059497, -73092.37248806626, -27676.91346131724, -29702.607357812805, -52638.715820159414, -101041.91017650488, -187500.02235174447, -187500.02235174447, -48260.947854631886, -46773.30515066447, -78051.6210855986, -48838.69574531267, -88799.94914531102, -31601.63391848015, 0.0, 0.0, 0.0, 193.0, 0.0, 1.0, 1.0, 0.0, 0.0, 1.0, 1.0, 256.0, 1.0, 1.750528943519209E9, 0.0, 2025-06-21 20:02:23.519
236.0, -43880.02829313616, -37577.417502095406, -29845.680874071226, -73147.35777942631, -27693.699621403175, -29644.96220886257, -52685.8332974712, -101083.61853165847, -187500.02235174447, -187500.02235174447, -48256.45515399637, -46771.06997621894, -78028.77760276527, -48832.034925464985, -88760.72183379196, -31597.789418433837, 0.0, 0.0, 0.0, 193.0, 0.0, 1.0, 1.0, 0.0, 0.0, 1.0, 1.0, 256.0, 1.0, 1.750528943526291E9, 0.0, 2025-06-21 20:02:23.526
238.0, -43853.161496300876, -37564.09586240004, -29844.228010681632, -73122.8602675033, -27687.217615511134, -29714.230264929567, -52690.79538474028, -101066.54179889463, -187500.02235174447, -187500.02235174447, -48288.060520656174, -46799.36728469936, -78058.59482986866, -48862.589760135386, -88759.82776401374, -31633.2169333955, 0.0, 0.0, 0.0, 193.0, 0.0, 1.0, 1.0, 0.0, 0.0, 1.0, 1.0, 256.0, 1.0, 1.750528943534365E9, 0.0, 2025-06-21 20:02:23.534
240.0, -43829.91568206736, -37549.12019361499, -29819.797553991983, -73098.83214221384, -27657.914478530227, -29726.41196565771, -52662.498076259864, -101048.68275507484, -187500.02235174447, -187500.02235174447, -48254.46584873985, -46763.3362726374, -78042.23335292737, -48824.18946316117, -88803.32425872378, -31584.557185716294, 0.0, 0.0, 0.0, 193.0, 0.0, 1.0, 1.0, 0.0, 0.0, 1.0, 1.0, 256.0, 1.0, 1.750528943543337E9, 0.0, 2025-06-21 20:02:23.543
242.0, -43895.182775876856, -37588.63807781197, -29850.10651947338, -73148.60947711581, -27720.991101383104, -29639.91071461567, -52716.76811179735, -101095.80023238662, -187500.02235174447, -187500.02235174447, -48268.45804076887, -46785.82212755944, -78034.05261445673, -48847.52468437251, -88724.51200777436, -31621.146991389633, 0.0, 0.0, 0.0, 193.0, 0.0, 1.0, 1.0, 0.0, 0.0, 1.0, 1.0, 256.0, 1.0, 1.750528943550322E9, 0.0, 2025-06-21 20:02:23.550
244.0, -43820.505597651674, -37526.12024857048, -29825.363138361354, -73088.66209848667, -27662.675400099208, -29714.789058540948, -52658.47476225791, -101042.15604569389, -187500.02235174447, -187500.02235174447, -48259.629101709026, -46765.929074994216, -78051.48697513188, -48836.14764644476, -88798.76450285489, -31599.018764378878, 0.0, 0.0, 0.0, 193.0, 0.0, 1.0, 1.0, 0.0, 0.0, 1.0, 1.0, 256.0, 1.0, 1.750528943558393E9, 0.0, 2025-06-21 20:02:23.558
246.0, -43884.72215947177, -37587.69930454485, -29849.48067062863, -73148.69888409364, -27671.77256009252, -29636.088566313814, -52699.15493716657, -101093.56505794109, -187500.02235174447, -187500.02235174447, -48267.13928784601, -46772.90281926427, -78040.44521337096, -48841.33325115839, -88768.14261295112, -31607.199502849522, 0.0, 0.0, 0.0, 193.0, 0.0, 1.0, 1.0, 0.0, 0.0, 1.0, 1.0, 256.0, 1.0, 1.750528943566436E9, 0.0, 2025-06-21 20:02:23.566
248.0, -43863.510353983685, -37573.32713286008, -29872.748836606603, -73134.19260194214, -27679.036877040493, -29734.88327680627, -52686.36973933813, -101075.7060141213, -187500.02235174447, -187500.02235174447, -48299.63872428402, -46803.480005679136, -78069.16720499602, -48869.16117300525, -88772.2553339309, -31636.34617761924, 0.0, 0.0, 0.0, 193.0, 0.0, 1.0, 1.0, 0.0, 0.0, 1.0, 1.0, 256.0, 1.0, 1.750528943575474E9, 0.0, 2025-06-21 20:02:23.575
250.0, -43855.1508015574, -37568.119176402, -29840.495269357598, -73135.44429963164, -27721.594598483396, -29684.01070642599, -52670.611759497144, -101070.4086506854, -187500.02235174447, -187500.02235174447, -48261.19372382089, -46782.73758682461, -78059.19832696895, -48838.114599956825, -88815.70712515201, -31596.649479466618, 0.0, 0.0, 0.0, 193.0, 0.0, 1.0, 1.0, 0.0, 0.0, 1.0, 1.0, 256.0, 1.0, 1.750528943582488E9, 0.0, 2025-06-21 20:02:23.582
252.0, -43876.228496578755, -37580.971429463796, -29842.506926358576, -73136.78540429895, -27688.37990622281, -29624.935045830614, -52703.93821048, -101091.7098631513, -187500.02235174447, -187500.02235174447, -48275.32002631665, -46794.092273007904, -78042.12159420509, -48859.19229497818, -88732.55863577827, -31630.914703716604, 0.0, 0.0, 0.0, 193.0, 0.0, 1.0, 1.0, 0.0, 0.0, 1.0, 1.0, 256.0, 1.0, 1.750528943590493E9, 0.0, 2025-06-21 20:02:23.590
254.0, -43833.69312688031, -37549.38841454845, -29843.57981009243, -73117.83112500086, -27649.823147037405, -29705.423677614177, -52672.936340920496, -101061.98204302574, -187500.02235174447, -187500.02235174447, -48274.023625138245, -46791.812395073466, -78068.80957708473, -48851.03390825199, -88804.97828781347, -31613.703860486017, 0.0, 0.0, 0.0, 193.0, 0.0, 1.0, 1.0, 0.0, 0.0, 1.0, 1.0, 256.0, 1.0, 1.750528943599522E9, 0.0, 2025-06-21 20:02:23.599
0.0, -43891.606496764005, -37591.43204586888, -29850.978237507134, -73153.9738957851, -27701.14275230679, -29637.228505281033, -52712.45422511748, -101114.48629075126, -187500.02235174447, -187500.02235174447, -48275.78941295021, -46791.812395073466, -78054.05742574423, -48854.118448986825, -88774.71402582098, -31620.521142544883, 0.0, 0.0, 0.0, 193.0, 0.0, 1.0, 1.0, 0.0, 0.0, 1.0, 1.0, 256.0, 1.0, 1.750528943606732E9, 0.0, 2025-06-21 20:02:23.606
2.0, -43877.4578425238, -37577.08222592858, -29873.32998196244, -73141.38986365675, -27702.77442965203, -29656.62981946824, -52706.37455062563, -101089.3629299835, -187500.02235174447, -187500.02235174447, -48293.33553234763, -46804.19526150171, -78069.16720499602, -48869.16117300525, -88768.85786877369, -31638.514296831407, 0.0, 0.0, 0.0, 193.0, 0.0, 1.0, 1.0, 0.0, 0.0, 1.0, 1.0, 256.0, 1.0, 1.750528943614552E9, 0.0, 2025-06-21 20:02:23.614
4.0, -43852.53564745613, -37563.60412402202, -29832.403937864776, -73123.15084018122, -27659.90378378675, -29669.616182996775, -52685.90035270457, -101075.54955191011, -187500.02235174447, -187500.02235174447, -48273.12955536003, -46784.14574672529, -78064.09335900466, -48842.07085872541, -88819.55162519832, -31600.605738235205, 0.0, 0.0, 0.0, 193.0, 0.0, 1.0, 1.0, 0.0, 0.0, 1.0, 1.0, 256.0, 1.0, 1.750528943622562E9, 0.0, 2025-06-21 20:02:23.622
6.0, -43880.698845469815, -37587.22991791128, -29858.443720155206, -73150.4646719056, -27672.95720254865, -29665.704627717096, -52713.01301872886, -101099.17534579938, -187500.02235174447, -187500.02235174447, -48282.07025314215, -46804.61994464636, -78050.79407105375, -48868.602379393866, -88742.46045857196, -31642.336445133264, 0.0, 0.0, 0.0, 193.0, 0.0, 1.0, 1.0, 0.0, 0.0, 1.0, 1.0, 256.0, 1.0, 1.750528943631639E9, 0.0, 2025-06-21 20:02:23.631
8.0, -43835.10128678099, -37535.99971961972, -29825.340786616896, -73098.87684570275, -27693.05142081397, -29686.648212271717, -52676.24439909988, -101057.55639762359, -187500.02235174447, -187500.02235174447, -48266.71460470136, -46777.57433385543, -78060.0253415138, -48847.256463439044, -88802.25137498992, -31610.552264517817, 0.0, 0.0, 0.0, 193.0, 0.0, 1.0, 1.0, 0.0, 0.0, 1.0, 1.0, 256.0, 1.0, 1.75052894363865E9, 0.0, 2025-06-21 20:02:23.638
10.0, -43885.817394950085, -37596.841168027066, -29852.922839274746, -73156.87962256427, -27672.353705448357, -29594.782542560406, -52696.76330050985, -101100.42704348887, -187500.02235174447, -187500.02235174447, -48264.05474711117, -46785.017464759054, -78044.44617562844, -48845.84830353836, -88760.34185413622, -31613.994433163934, 0.0, 0.0, 0.0, 193.0, 0.0, 1.0, 1.0, 0.0, 0.0, 1.0, 1.0, 256.0, 1.0, 1.75052894364671E9, 0.0, 2025-06-21 20:02:23.646
12.0, -43861.23047604925, -37568.119176402, -29858.935458533226, -73137.14303221024, -27673.00190603756, -29670.197328352613, -52700.76426276735, -101083.77499386967, -187500.02235174447, -187500.02235174447, -48294.67663701494, -46807.86094759237, -78065.99325728336, -48875.285550986, -88772.18827869753, -31644.92924749008, 0.0, 0.0, 0.0, 193.0, 0.0, 1.0, 1.0, 0.0, 0.0, 1.0, 1.0, 256.0, 1.0, 1.750528943654695E9, 0.0, 2025-06-21 20:02:23.654
14.0, -43864.58323771754, -37576.702246272835, -29842.90925775877, -73134.72904380907, -27676.645240383776, -29682.893119203225, -52724.3453531677, -101108.87600289298, -187500.02235174447, -187500.02235174447, -48259.7408604313, -46775.60738034337, -78053.63274259958, -48849.96102451814, -88812.44377046154, -31613.413287808096, 0.0, 0.0, 0.0, 193.0, 0.0, 1.0, 1.0, 0.0, 0.0, 1.0, 1.0, 256.0, 1.0, 1.750528943662732E9, 0.0, 2025-06-21 20:02:23.662
16.0, -43911.41014235141, -37605.53599662018, -29874.514624418574, -73169.10602678133, -27716.744269936597, -29579.069266208324, -52729.93328928153, -101121.7729594437, -187500.02235174447, -187500.02235174447, -48311.30633488969, -46816.332258740935, -78068.13902475107, -48892.58580119441, -88760.74418553642, -31665.93988727807, 0.0, 0.0, 0.0, 193.0, 0.0, 1.0, 1.0, 0.0, 0.0, 1.0, 1.0, 256.0, 1.0, 1.750528943671773E9, 0.0, 2025-06-21 20:02:23.671
18.0, -43868.53949648613, -37572.88009797098, -29861.90824054578, -73134.90785776472, -27703.646147685784, -29682.02140116947, -52703.55823082427, -101098.862421377, -187500.02235174447, -187500.02235174447, -48280.25976184127, -46799.12141551035, -78075.11276902113, -48870.05524278346, -88826.32420376828, -31632.479325828474, 0.0, 0.0, 0.0, 193.0, 0.0, 1.0, 1.0, 0.0, 0.0, 1.0, 1.0, 256.0, 1.0, 1.750528943677744E9, 0.0, 2025-06-21 20:02:23.677
20.0, -43910.67253478438, -37608.28526118818, -29866.043313270013, -73167.04966629144, -27700.829827884416, -29646.146851318703, -52717.99745774239, -101119.73895069826, -187500.02235174447, -187500.02235174447, -48293.447291069904, -46804.61994464636, -78068.429597429, -48875.77728936402, -88791.209613229, -31643.632846311673, 0.0, 0.0, 0.0, 193.0, 0.0, 1.0, 1.0, 0.0, 0.0, 1.0, 1.0, 256.0, 1.0, 1.750528943686743E9, 0.0, 2025-06-21 20:02:23.686
22.0, -43856.648368435905, -37564.78876647816, -29849.05598748398, -73121.3627006248, -27649.018484237014, -29628.980711577027, -52698.640847044095, -101084.87022934797, -187500.02235174447, -187500.02235174447, -48299.392855095015, -46808.48679643712, -78071.84941433066, -48883.53334469001, -88775.16106071009, -31654.74166330596, 0.0, 0.0, 0.0, 193.0, 0.0, 1.0, 1.0, 0.0, 0.0, 1.0, 1.0, 256.0, 1.0, 1.750528943694765E9, 0.0, 2025-06-21 20:02:23.694
24.0, -43878.73189195775, -37585.307667888126, -29847.42431013874, -73141.47927063458, -27695.286595259502, -29643.062310583868, -52711.73896929491, -101105.99262785824, -187500.02235174447, -187500.02235174447, -48250.59899694908, -46762.844534259384, -78043.61916108361, -48830.93968998667, -88794.20474698601, -31593.229662564954, 0.0, 0.0, 0.0, 193.0, 0.0, 1.0, 1.0, 0.0, 0.0, 1.0, 1.0, 256.0, 1.0, 1.7505289437029E9, 0.0, 2025-06-21 20:02:23.702
26.0, -43909.35378186152, -37607.83822629908, -29876.81685409747, -73170.84946284884, -27703.690851174695, -29601.599824619276, -52733.24134746091, -101126.39977054593, -187500.02235174447, -187500.02235174447, -48316.69310530342, -46824.8035698895, -78075.87272833262, -48899.04545534199, -88763.62756057114, -31673.18185248159, 0.0, 0.0, 0.0, 193.0, 0.0, 1.0, 1.0, 0.0, 0.0, 1.0, 1.0, 256.0, 1.0, 1.750528943710813E9, 0.0, 2025-06-21 20:02:23.710
28.0, -43868.405386019396, -37574.84705148304, -29869.351371449397, -73140.98753225655, -27679.32744971841, -29685.93295644915, -52702.32888487922, -101095.77788064217, -187500.02235174447, -187500.02235174447, -48294.18489863693, -46809.17970051524, -78087.49563544938, -48881.00759756656, -88831.59921545973, -31644.21399166751, 0.0, 0.0, 0.0, 193.0, 0.0, 1.0, 1.0, 0.0, 0.0, 1.0, 1.0, 256.0, 1.0, 1.750528943718852E9, 0.0, 2025-06-21 20:02:23.718
30.0, -43903.89995621442, -37609.40284841095, -29863.405807424286, -73166.31205872442, -27653.533536616986, -29580.14214994218, -52718.93623100952, -101114.57569772909, -187500.02235174447, -187500.02235174447, -48281.153831619486, -46797.06505502046, -78057.00785601234, -48870.18935325019, -88780.0560927458, -31638.670759042594, 0.0, 0.0, 0.0, 193.0, 0.0, 1.0, 1.0, 0.0, 0.0, 1.0, 1.0, 256.0, 1.0, 1.750528943726882E9, 0.0, 2025-06-21 20:02:23.726
32.0, -43899.384903834456, -37600.86448202902, -29895.63702292884, -73170.08950353737, -27708.898807632784, -29663.044770126915, -52738.18108298553, -101128.27731708018, -187500.02235174447, -187500.02235174447, -48329.746524065326, -46842.1038200979, -78104.0359263463, -48916.703333461686, -88806.09587503623, -31687.732838121992, 0.0, 0.0, 0.0, 193.0, 0.0, 1.0, 1.0, 0.0, 0.0, 1.0, 1.0, 256.0, 1.0, 1.750528943733957E9, 0.0, 2025-06-21 20:02:23.733
34.0, -43886.97968566176, -37601.53503436268, -29868.792577838016, -73160.72412261058, -27685.071848043426, -29613.178028247123, -52716.00815248587, -101112.94402038385, -187500.02235174447, -187500.02235174447, -48284.439538054416, -46794.15932824127, -78078.91256557853, -48874.34677771888, -88839.0199946189, -31636.614398552705, 0.0, 0.0, 0.0, 193.0, 0.0, 1.0, 1.0, 0.0, 0.0, 1.0, 1.0, 256.0, 1.0, 1.750528943742958E9, 0.0, 2025-06-21 20:02:23.742
36.0, -43924.64237506895, -37622.2327497283, -29901.314366020488, -73196.06223059443, -27696.71710690464, -29599.52111238493, -52739.63394637513, -101136.61451776202, -187500.02235174447, -187500.02235174447, -48323.48803561783, -46846.97650038916, -78092.70359190746, -48920.65959223027, -88784.2582207034, -31697.835826615792, 0.0, 0.0, 0.0, 193.0, 0.0, 1.0, 1.0, 0.0, 0.0, 1.0, 1.0, 256.0, 1.0, 1.750528943751036E9, 0.0, 2025-06-21 20:02:23.751
38.0, -43858.72708067025, -37569.28146711367, -29871.653601128295, -73140.5628491119, -27682.635507897798, -29655.48988050102, -52701.926553479025, -101104.13743306845, -187500.02235174447, -187500.02235174447, -48315.10613144709, -46811.1466540273, -78096.6822024205, -48885.83557436891, -88840.38345103068, -31648.058491713822, 0.0, 0.0, 0.0, 193.0, 0.0, 1.0, 1.0, 0.0, 0.0, 1.0, 1.0, 256.0, 1.0, 1.750528943758028E9, 0.0, 2025-06-21 20:02:23.758
40.0, -43932.59959609504, -37641.522305193226, -29869.463130171673, -73183.522901955, -27712.117458834346, -29587.04883897887, -52736.750571340395, -101127.29384032416, -187500.02235174447, -187500.02235174447, -48282.51728803126, -46805.02227604655, -78064.20511772695, -48868.602379393866, -88776.56922061076, -31637.77668926438, 0.0, 0.0, 0.0, 193.0, 0.0, 1.0, 1.0, 0.0, 0.0, 1.0, 1.0, 256.0, 1.0, 1.75052894376617E9, 0.0, 2025-06-21 20:02:23.766
42.0, -43887.58318276205, -37591.40969412443, -29872.48061567314, -73147.29072419295, -27643.408196378732, -29644.939857118115, -52712.67774256203, -101111.37939827198, -187500.02235174447, -187500.02235174447, -48332.98752701134, -46854.06200338149, -78109.33328978221, -48908.5449467355, -88796.70814236501, -31678.74743685096, 0.0, 0.0, 0.0, 193.0, 0.0, 1.0, 1.0, 0.0, 0.0, 1.0, 1.0, 256.0, 1.0, 1.75052894377511E9, 0.0, 2025-06-21 20:02:23.775
44.0, -43891.91942118638, -37611.34745017856, -29868.77022609356, -73161.52878541098, -27698.393487738787, -29610.875798568228, -52715.51641410785, -101111.2676395497, -187500.02235174447, -187500.02235174447, -48283.41135780947, -46792.12531949584, -78073.70460912045, -48856.979472277104, -88820.28923276535, -31619.82823846677, 0.0, 0.0, 0.0, 193.0, 0.0, 1.0, 1.0, 0.0, 0.0, 1.0, 1.0, 256.0, 1.0, 1.750528943783172E9, 0.0, 2025-06-21 20:02:23.783
46.0, -43913.80177900813, -37616.890682803474, -29882.561252422485, -73173.48696869457, -27683.70839163165, -29553.923553696106, -52741.17621674255, -101122.75643619972, -187500.02235174447, -187500.02235174447, -48315.86609075857, -46830.79383740352, -78081.61712665763, -48900.87829838733, -88767.94144725103, -31673.56183213733, 0.0, 0.0, 0.0, 193.0, 0.0, 1.0, 1.0, 0.0, 0.0, 1.0, 1.0, 256.0, 1.0, 1.750528943790231E9, 0.0, 2025-06-21 20:02:23.790
48.0, -43905.68809577085, -37612.420333912414, -29887.121008291368, -73160.63471563277, -27716.923083892238, -29668.67740972965, -52726.17819621303, -101109.50185173773, -187500.02235174447, -187500.02235174447, -48311.01576221178, -46821.33904949892, -78103.81240890175, -48884.85209761287, -88836.44954400654, -31647.231477168978, 0.0, 0.0, 0.0, 193.0, 0.0, 1.0, 1.0, 0.0, 0.0, 1.0, 1.0, 256.0, 1.0, 1.750528943798246E9, 0.0, 2025-06-21 20:02:23.798
50.0, -43929.40329663793, -37640.15884878145, -29885.62344141286, -73194.34114627137, -27696.29242375999, -29581.46090286504, -52735.67768760654, -101139.67670675239, -187500.02235174447, -187500.02235174447, -48320.023515227265, -46833.61015720489, -78099.56557745524, -48897.86081288586, -88808.19693901503, -31667.79508206786, 0.0, 0.0, 0.0, 193.0, 0.0, 1.0, 1.0, 0.0, 0.0, 1.0, 1.0, 256.0, 1.0, 1.75052894380727E9, 0.0, 2025-06-21 20:02:23.807
52.0, -43893.39463632043, -37607.2794326877, -29877.800330853504, -73160.07592202138, -27659.501452386554, -29622.990444063, -52727.89928053609, -101105.90322088043, -187500.02235174447, -187500.02235174447, -48319.308259404694, -46840.89682589732, -78099.72203966642, -48906.77915892353, -88798.22806098797, -31680.870852574215, 0.0, 0.0, 0.0, 193.0, 0.0, 1.0, 1.0, 0.0, 0.0, 1.0, 1.0, 256.0, 1.0, 1.750528943814255E9, 0.0, 2025-06-21 20:02:23.814
54.0, -43930.766753049706, -37635.80025861267, -29905.49414223363, -73185.75807640054, -27694.4372289702, -29615.592016648297, -52735.32005969525, -101129.21609034731, -187500.02235174447, -187500.02235174447, -48293.46964281436, -46806.832767347434, -78086.93684183799, -48866.635425881796, -88825.36307875671, -31632.054642683823, 0.0, 0.0, 0.0, 193.0, 0.0, 1.0, 1.0, 0.0, 0.0, 1.0, 1.0, 256.0, 1.0, 1.750528943822234E9, 0.0, 2025-06-21 20:02:23.822
56.0, -43951.531523648686, -37647.78079364071, -29911.81968591448, -73205.36055628784, -27741.331188837434, -29553.074187406804, -52762.52213269736, -101157.02166044971, -187500.02235174447, -187500.02235174447, -48367.63273091707, -46868.054195410514, -78124.30895856726, -48944.33008960845, -88810.92385183858, -31717.70652743656, 0.0, 0.0, 0.0, 193.0, 0.0, 1.0, 1.0, 0.0, 0.0, 1.0, 1.0, 256.0, 1.0, 1.75052894383027E9, 0.0, 2025-06-21 20:02:23.830
58.0, -43888.29843858462, -37608.46407514383, -29874.62638314085, -73150.95641028362, -27656.059283740437, -29637.38496749222, -52715.58346934122, -101110.48532849376, -187500.02235174447, -187500.02235174447, -48308.04298019922, -46821.584918687935, -78103.76770541283, -48891.8928971163, -88839.42232601909, -31657.625038340695, 0.0, 0.0, 0.0, 193.0, 0.0, 1.0, 1.0, 0.0, 0.0, 1.0, 1.0, 256.0, 1.0, 1.750528943839274E9, 0.0, 2025-06-21 20:02:23.839
60.0, -43927.21282568131, -37634.45915394535, -29867.071493514955, -73175.16334952872, -27695.979499337616, -29572.766074271927, -52747.70292612349, -101141.77777073119, -187500.02235174447, -187500.02235174447, -48298.834061483634, -46816.84634886341, -78075.87272833262, -48881.23111501111, -88786.78396782685, -31653.132337705178, 0.0, 0.0, 0.0, 193.0, 0.0, 1.0, 1.0, 0.0, 0.0, 1.0, 1.0, 256.0, 1.0, 1.750528943846308E9, 0.0, 2025-06-21 20:02:23.846
62.0, -43889.2595635962, -37596.88587151597, -29868.25613597109, -73148.20714571561, -27685.317717232432, -29604.95258628757, -52720.590260099205, -101106.43966274735, -187500.02235174447, -187500.02235174447, -48318.25772741529, -46832.17964555975, -78093.37414424111, -48899.76071116456, -88787.52157539387, -31673.94181179307, 0.0, 0.0, 0.0, 193.0, 0.0, 1.0, 1.0, 0.0, 0.0, 1.0, 1.0, 256.0, 1.0, 1.750528943854339E9, 0.0, 2025-06-21 20:02:23.854
64.0, -43926.36345939201, -37635.37557546802, -29887.00924956909, -73178.38200073029, -27680.82501659692, -29592.972051259527, -52748.68640287953, -101141.48719805328, -187500.02235174447, -187500.02235174447, -48275.141212361006, -46798.4955666656, -78073.25757423133, -48855.034870509495, -88815.64006991865, -31621.281101856366, 0.0, 0.0, 0.0, 193.0, 0.0, 1.0, 1.0, 0.0, 0.0, 1.0, 1.0, 256.0, 1.0, 1.750528943863358E9, 0.0, 2025-06-21 20:02:23.863
66.0, -43946.41297416842, -37653.99457859929, -29910.120953335878, -73195.79400966097, -27671.39258043678, -29510.896445619637, -52743.41139118808, -101136.21218636182, -187500.02235174447, -187500.02235174447, -48361.62011165859, -46875.81025073651, -78124.17484810053, -48932.774237725054, -88800.79851160033, -31709.615195943737, 0.0, 0.0, 0.0, 193.0, 0.0, 1.0, 1.0, 0.0, 0.0, 1.0, 1.0, 256.0, 1.0, 1.750528943870379E9, 0.0, 2025-06-21 20:02:23.870
68.0, -43885.99620890572, -37610.878063545, -29873.95583080719, -73146.68722709265, -27697.030031327016, -29643.375235006242, -52710.86725126115, -101100.7623196557, -187500.02235174447, -187500.02235174447, -48308.490015088326, -46823.23894777762, -78104.10298157966, -48883.421585967735, -88835.89075039515, -31647.946732991546, 0.0, 0.0, 0.0, 193.0, 0.0, 1.0, 1.0, 0.0, 0.0, 1.0, 1.0, 256.0, 1.0, 1.750528943878418E9, 0.0, 2025-06-21 20:02:23.878
70.0, -43952.31383470462, -37661.16948856944, -29893.558310694494, -73204.55589348744, -27695.599519681877, -29545.09461463626, -52778.973016616466, -101171.3267769011, -187500.02235174447, -187500.02235174447, -48306.858337743084, -46827.44107573522, -78087.31682149373, -48890.52944070452, -88799.39035169964, -31661.246020942453, 0.0, 0.0, 0.0, 193.0, 0.0, 1.0, 1.0, 0.0, 0.0, 1.0, 1.0, 256.0, 1.0, 1.750528943886432E9, 0.0, 2025-06-21 20:02:23.886
72.0, -43901.08363641306, -37611.369801923014, -29903.884816632846, -73178.13613154128, -27670.453807169655, -29555.443472319064, -52744.372516199655, -101134.78167471668, -187500.02235174447, -187500.02235174447, -48345.8621318176, -46862.17568661877, -78122.00672888836, -48926.96278416667, -88814.7683518849, -31700.249815016967, 0.0, 0.0, 0.0, 193.0, 0.0, 1.0, 1.0, 0.0, 0.0, 1.0, 1.0, 256.0, 1.0, 1.750528943895487E9, 0.0, 2025-06-21 20:02:23.895
74.0, -43895.85332821051, -37606.85474954305, -29868.524356904552, -73155.69498010815, -27685.96591782164, -29599.074077495825, -52721.28316417732, -101118.44254951985, -187500.02235174447, -187500.02235174447, -48282.36082582007, -46799.23317423263, -78076.09624577717, -48857.49356239958, -88819.37281124268, -31622.666910012595, 0.0, 0.0, 0.0, 193.0, 0.0, 1.0, 1.0, 0.0, 0.0, 1.0, 1.0, 256.0, 1.0, 1.750528943902527E9, 0.0, 2025-06-21 20:02:23.902
76.0, -43963.199134254355, -37657.74967166778, -29931.265703590598, -73221.31970182892, -27704.316700019444, -29538.724367466497, -52766.9030746106, -101159.32389012861, -187500.02235174447, -187500.02235174447, -48357.70855637891, -46862.55566627451, -78117.40226953058, -48927.029839400035, -88792.32720045176, -31704.36253599674, 0.0, 0.0, 0.0, 193.0, 0.0, 1.0, 1.0, 0.0, 0.0, 1.0, 1.0, 256.0, 1.0, 1.75052894391053E9, 0.0, 2025-06-21 20:02:23.910
78.0, -43886.82322345057, -37604.35135416405, -29883.500025689606, -73155.38205568577, -27692.447923713677, -29638.43549948162, -52715.91874550805, -101102.19283130084, -187500.02235174447, -187500.02235174447, -48332.09345723313, -46842.617910220375, -78122.185542844, -48901.83942339891, -88856.34259657176, -31668.331523934787, 0.0, 0.0, 0.0, 193.0, 0.0, 1.0, 1.0, 0.0, 0.0, 1.0, 1.0, 256.0, 1.0, 1.750528943918665E9, 0.0, 2025-06-21 20:02:23.918
80.0, -43938.61221535352, -37645.67972966191, -29902.834284643446, -73205.15939058774, -27698.05821157196, -29500.726401892472, -52761.24808326341, -101155.6805557824, -187500.02235174447, -187500.02235174447, -48311.23927965633, -46824.580052444944, -78087.74150463838, -48895.223307040134, -88806.94524132553, -31666.901012289647, 0.0, 0.0, 0.0, 193.0, 0.0, 1.0, 1.0, 0.0, 0.0, 1.0, 1.0, 256.0, 1.0, 1.750528943926637E9, 0.0, 2025-06-21 20:02:23.926
82.0, -43913.01946795219, -37620.28814796068, -29912.222017314678, -73185.4228002337, -27671.57139439242, -29582.846711021273, -52755.43662970503, -101142.0236399202, -187500.02235174447, -187500.02235174447, -48346.935015551455, -46864.03088140856, -78125.62771149013, -48930.82963595744, -88818.5681484423, -31706.03891683089, 0.0, 0.0, 0.0, 193.0, 0.0, 1.0, 1.0, 0.0, 0.0, 1.0, 1.0, 256.0, 1.0, 1.750528943934734E9, 0.0, 2025-06-21 20:02:23.934
84.0, -43903.38586609195, -37614.20847346884, -29875.81102559698, -73171.65412564923, -27693.230234769613, -29563.355989856245, -52738.62811787464, -101136.79333171765, -187500.02235174447, -187500.02235174447, -48282.15966011997, -46803.815281845964, -78083.00293481385, -48879.845306854884, -88840.36109928622, -31645.17511667909, 0.0, 0.0, 0.0, 193.0, 0.0, 1.0, 1.0, 0.0, 0.0, 1.0, 1.0, 256.0, 1.0, 1.750528943942705E9, 0.0, 2025-06-21 20:02:23.942
86.0, -43942.61317761102, -37652.83228788761, -29911.14913358082, -73201.87368415282, -27701.1874557957, -29545.876925692195, -52762.052746063804, -101159.45800059533, -187500.02235174447, -187500.02235174447, -48344.543378894734, -46858.53235227256, -78109.51210373786, -48935.97053718216, -88797.7586743544, -31712.31975702283, 0.0, 0.0, 0.0, 193.0, 0.0, 1.0, 1.0, 0.0, 0.0, 1.0, 1.0, 256.0, 1.0, 1.750528943951632E9, 0.0, 2025-06-21 20:02:23.951
88.0, -43896.03214216616, -37606.58652860958, -29885.981069324145, -73164.32275346789, -27690.4362667127, -29556.494004308464, -52738.29284170781, -101122.04118037716, -187500.02235174447, -187500.02235174447, -48320.2023291829, -46834.14659907181, -78111.99314737238, -48901.01240885406, -88848.00539588994, -31666.69984658955, 0.0, 0.0, 0.0, 193.0, 0.0, 1.0, 1.0, 0.0, 0.0, 1.0, 1.0, 256.0, 1.0, 1.750528943958695E9, 0.0, 2025-06-21 20:02:23.958
90.0, -43952.31383470462, -37656.40856700046, -29906.410563756297, -73205.80759117694, -27695.465409215143, -29540.288989578366, -52765.51726645437, -101160.44147735137, -187500.02235174447, -187500.02235174447, -48310.81459651168, -46833.543101971525, -78093.97764134141, -48897.816109396954, -88801.13378776715, -31669.78438732438, 0.0, 0.0, 0.0, 193.0, 0.0, 1.0, 1.0, 0.0, 0.0, 1.0, 1.0, 256.0, 1.0, 1.750528943966702E9, 0.0, 2025-06-21 20:02:23.966
92.0, -43921.468427356296, -37629.765287609735, -29921.63210173036, -73187.8814921238, -27690.65978415725, -29567.71458002503, -52777.94483637153, -101151.2772621247, -187500.02235174447, -187500.02235174447, -48354.825181344175, -46861.505134285115, -78130.12041212565, -48932.59542376941, -88826.68183167957, -31700.65214641716, 0.0, 0.0, 0.0, 193.0, 0.0, 1.0, 1.0, 0.0, 0.0, 1.0, 1.0, 256.0, 1.0, 1.750528943974737E9, 0.0, 2025-06-21 20:02:23.974
94.0, -43934.812418796115, -37645.47856396181, -29915.597130727427, -73203.14773358677, -27722.19809558369, -29551.80013797285, -52794.708644713006, -101166.99053847678, -187500.02235174447, -187500.02235174447, -48319.7552942938, -46830.16798855877, -78113.78128692882, -48895.75974890706, -88855.470878538, -31658.630866841184, 0.0, 0.0, 0.0, 193.0, 0.0, 1.0, 1.0, 0.0, 0.0, 1.0, 1.0, 256.0, 1.0, 1.750528943982707E9, 0.0, 2025-06-21 20:02:23.982
96.0, -43961.18747725338, -37658.911962379454, -29941.97218918469, -73225.67829199771, -27695.554816192966, -29537.22680058799, -52813.148833888634, -101189.54344863218, -187500.02235174447, -187500.02235174447, -48381.98255085738, -46895.09980620144, -78144.47023206596, -48963.57494158446, -88826.90534912412, -31738.359539313264, 0.0, 0.0, 0.0, 193.0, 0.0, 1.0, 1.0, 0.0, 0.0, 1.0, 1.0, 256.0, 1.0, 1.750528943990707E9, 0.0, 2025-06-21 20:02:23.990
98.0, -43913.17593016338, -37620.93634854988, -29914.188970826744, -73189.8260938914, -27718.62181647084, -29588.233481435, -52767.52892345535, -101154.29474762616, -187500.02235174447, -187500.02235174447, -48340.11773349258, -46854.777259204064, -78135.82010696175, -48929.265013845565, -88879.45430033855, -31694.12543703621, 0.0, 0.0, 0.0, 193.0, 0.0, 1.0, 1.0, 0.0, 0.0, 1.0, 1.0, 256.0, 1.0, 1.750528943998769E9, 0.0, 2025-06-21 20:02:23.998
100.0, -43934.968881007306, -37645.23269477281, -29900.73322066465, -73210.12147785681, -27665.938754789684, -29470.328029433254, -52786.34909228672, -101181.5862276061, -187500.02235174447, -187500.02235174447, -48314.97202098036, -46842.059116608994, -78095.98929834239, -48907.047379856995, -88807.61579365919, -31679.239175228977, 0.0, 0.0, 0.0, 193.0, 0.0, 1.0, 1.0, 0.0, 0.0, 1.0, 1.0, 256.0, 1.0, 1.750528944006746E9, 0.0, 2025-06-21 20:02:24.006
102.0, -43928.64333732645, -37634.32504347862, -29916.15592433881, -73194.85523639384, -27721.572246738942, -29595.52015012743, -52781.87874339566, -101159.65916629543, -187500.02235174447, -187500.02235174447, -48348.879617319064, -46868.99296867764, -78127.41585104655, -48939.79268548402, -88821.98796534396, -31713.83967564579, 0.0, 0.0, 0.0, 193.0, 0.0, 1.0, 1.0, 0.0, 0.0, 1.0, 1.0, 256.0, 1.0, 1.75052894401382E9, 0.0, 2025-06-21 20:02:24.013
104.0, -43920.37319187799, -37627.194836997376, -29895.122932806367, -73183.14292229926, -27681.652031141763, -29494.55732042281, -52762.276263508356, -101154.27239588171, -187500.02235174447, -187500.02235174447, -48322.102227461604, -46833.72191592716, -78114.38478402911, -48900.72183617614, -88857.05785239433, -31664.867003544216, 0.0, 0.0, 0.0, 193.0, 0.0, 1.0, 1.0, 0.0, 0.0, 1.0, 1.0, 256.0, 1.0, 1.750528944022859E9, 0.0, 2025-06-21 20:02:24.022
106.0, -43930.92321526089, -37636.42610745742, -29907.818723656983, -73189.24494853556, -27653.108853472335, -29506.44844847303, -52775.48614448144, -101162.98957621928, -187500.02235174447, -187500.02235174447, -48336.38499216855, -46852.13975335834, -78099.27500477732, -48918.938507907216, -88779.38554041214, -31693.119608535722, 0.0, 0.0, 0.0, 193.0, 0.0, 1.0, 1.0, 0.0, 0.0, 1.0, 1.0, 256.0, 1.0, 1.750528944030851E9, 0.0, 2025-06-21 20:02:24.030
108.0, -43872.78632793264, -37591.49910110225, -29874.693438374215, -73141.18869795665, -27647.409158636234, -29550.70490249454, -52735.565928884265, -101118.19668033085, -187500.02235174447, -187500.02235174447, -48306.2995441317, -46808.419741203754, -78092.70359190746, -48877.94540857618, -88827.03945959086, -31643.856363756226, 0.0, 0.0, 0.0, 193.0, 0.0, 1.0, 1.0, 0.0, 0.0, 1.0, 1.0, 256.0, 1.0, 1.750528944038911E9, 0.0, 2025-06-21 20:02:24.038
110.0, -43965.926047077905, -37671.22777357433, -29921.185066841255, -73229.6345507663, -27736.212639357167, -29471.78089282285, -52811.137176887656, -101199.55703014816, -187500.02235174447, -187500.02235174447, -48312.37921862355, -46841.4556195087, -78096.74925765386, -48908.924926391235, -88808.86749134869, -31683.061323530834, 0.0, 0.0, 0.0, 193.0, 0.0, 1.0, 1.0, 0.0, 0.0, 1.0, 1.0, 256.0, 1.0, 1.750528944045963E9, 0.0, 2025-06-21 20:02:24.045
112.0, -43901.620078279986, -37612.75561007924, -29908.15399982381, -73181.8241693764, -27691.419743468734, -29508.50480896292, -52748.909920324084, -101134.40169506094, -187500.02235174447, -187500.02235174447, -48353.68524237695, -46871.11638440089, -78128.22051384694, -48937.669269760765, -88822.47970372197, -31713.303233778865, 0.0, 0.0, 0.0, 193.0, 0.0, 1.0, 1.0, 0.0, 0.0, 1.0, 1.0, 256.0, 1.0, 1.750528944054978E9, 0.0, 2025-06-21 20:02:24.054
114.0, -43914.673497041884, -37629.16179050944, -29896.709906662694, -73193.76000091553, -27681.897900330772, -29541.89831517915, -52765.36080424319, -101152.41720109191, -187500.02235174447, -187500.02235174447, -48297.18003239394, -46823.820093133465, -78098.20212104346, -48890.57414419343, -88844.65263422164, -31658.832032541282, 0.0, 0.0, 0.0, 193.0, 0.0, 1.0, 1.0, 0.0, 0.0, 1.0, 1.0, 256.0, 1.0, 1.750528944062978E9, 0.0, 2025-06-21 20:02:24.062
116.0, -43947.64232011346, -37653.10050882107, -29923.10731686441, -73218.25751283855, -27668.10687400185, -29495.585500667752, -52783.59982771872, -101169.22571292231, -187500.02235174447, -187500.02235174447, -48349.036079530255, -46871.16108788981, -78116.70936545245, -48938.8986157058, -88789.93556379505, -31718.75705942596, 0.0, 0.0, 0.0, 193.0, 0.0, 1.0, 1.0, 0.0, 0.0, 1.0, 1.0, 256.0, 1.0, 1.75052894407101E9, 0.0, 2025-06-21 20:02:24.071
118.0, -43897.08267415556, -37608.88875828848, -29905.20356955571, -73177.4208757187, -27676.064095027938, -29521.22295155799, -52741.44443767601, -101127.62911649098, -187500.02235174447, -187500.02235174447, -48324.11388446258, -46841.94735788672, -78119.190409087, -48906.91326939026, -88852.09576512525, -31673.025390270403, 0.0, 0.0, 0.0, 193.0, 0.0, 1.0, 1.0, 0.0, 0.0, 1.0, 1.0, 256.0, 1.0, 1.750528944078032E9, 0.0, 2025-06-21 20:02:24.078
120.0, -43960.673387130904, -37669.819613673644, -29918.368747039887, -73227.82405946542, -27708.76469716605, -29479.961631293492, -52800.14011861564, -101188.31410268715, -187500.02235174447, -187500.02235174447, -48322.86218677309, -46847.28942481153, -78102.87363563462, -48914.177586338235, -88812.33201173926, -31688.492797433475, 0.0, 0.0, 0.0, 193.0, 0.0, 1.0, 1.0, 0.0, 0.0, 1.0, 1.0, 256.0, 1.0, 1.750528944087088E9, 0.0, 2025-06-21 20:02:24.087
122.0, -43900.52484280167, -37607.748819321256, -29904.331851521954, -73176.90678559623, -27668.263336213036, -29533.739928452964, -52758.074135550756, -101139.90022419694, -187500.02235174447, -187500.02235174447, -48365.06228030471, -46879.85591648292, -78137.67530175153, -48942.98898494113, -88825.72070666798, -31720.098164093277, 0.0, 0.0, 0.0, 193.0, 0.0, 1.0, 1.0, 0.0, 0.0, 1.0, 1.0, 256.0, 1.0, 1.750528944094097E9, 0.0, 2025-06-21 20:02:24.094
124.0, -43919.34501163304, -37629.407659698445, -29901.403772998307, -73198.29740503996, -27693.274938258524, -29482.68854411704, -52769.6523391786, -101157.75926801673, -187500.02235174447, -187500.02235174447, -48286.518250288755, -46800.99896204459, -78081.70653363544, -48869.31763521644, -88828.24645379143, -31638.760166020416, 0.0, 0.0, 0.0, 193.0, 0.0, 1.0, 1.0, 0.0, 0.0, 1.0, 1.0, 256.0, 1.0, 1.750528944102168E9, 0.0, 2025-06-21 20:02:24.102
126.0, -43951.88915155997, -37656.743843167285, -29932.651511746826, -73228.15933563226, -27691.4867987021, -29466.684695087042, -52810.04194140935, -101195.31019870166, -187500.02235174447, -187500.02235174447, -48362.62594015908, -46888.975428220685, -78129.71808072545, -48954.81305775799, -88805.38061921365, -31737.48782127951, 0.0, 0.0, 0.0, 193.0, 0.0, 1.0, 1.0, 0.0, 0.0, 1.0, 1.0, 256.0, 1.0, 1.750528944110237E9, 0.0, 2025-06-21 20:02:24.110
128.0, -43902.69296201384, -37615.840150814074, -29910.813857413992, -73184.84165487786, -27672.465464170633, -29559.444434576566, -52764.220865275965, -101144.50468355474, -187500.02235174447, -187500.02235174447, -48332.96517526689, -46842.37204103137, -78124.86775217864, -48920.77135095255, -88864.52333504241, -31691.957317824046, 0.0, 0.0, 0.0, 193.0, 0.0, 1.0, 1.0, 0.0, 0.0, 1.0, 1.0, 256.0, 1.0, 1.750528944119258E9, 0.0, 2025-06-21 20:02:24.119
130.0, -43956.203038239844, -37659.5378112242, -29918.25698831761, -73232.62968452332, -27696.940624349194, -29445.00350296539, -52795.625066235676, -101186.6824253419, -187500.02235174447, -187500.02235174447, -48335.20034971242, -46858.353538316915, -78112.90956889506, -48929.622641756854, -88822.45735197751, -31706.955338353557, 0.0, 0.0, 0.0, 193.0, 0.0, 1.0, 1.0, 0.0, 0.0, 1.0, 1.0, 256.0, 1.0, 1.750528944126235E9, 0.0, 2025-06-21 20:02:24.126
132.0, -43909.33143011707, -37613.09088624607, -29915.01598537159, -73191.97186135911, -27676.75699910605, -29501.575768181774, -52762.745650141915, -101144.28116611019, -187500.02235174447, -187500.02235174447, -48362.022443058784, -46870.66934951179, -78131.66268249306, -48942.54195005202, -88816.24356701894, -31721.349861782775, 0.0, 0.0, 0.0, 193.0, 0.0, 1.0, 1.0, 0.0, 0.0, 1.0, 1.0, 256.0, 1.0, 1.750528944134264E9, 0.0, 2025-06-21 20:02:24.134
134.0, -43946.1224014905, -37657.30263677867, -29943.670921763292, -73236.85416422537, -27693.699621403175, -29494.423209956076, -52788.1595835876, -101181.74268981729, -187500.02235174447, -187500.02235174447, -48333.166340966985, -46848.18349458975, -78127.92994116902, -48911.450673514686, -88864.43392806458, -31680.200300240554, 0.0, 0.0, 0.0, 193.0, 0.0, 1.0, 1.0, 0.0, 0.0, 1.0, 1.0, 256.0, 1.0, 1.750528944143265E9, 0.0, 2025-06-21 20:02:24.143
136.0, -43960.91925631992, -37659.35899726856, -29943.805032230026, -73242.35269336138, -27690.2351010126, -29463.331933418744, -52817.753293246424, -101204.72028311733, -187500.02235174447, -187500.02235174447, -48383.01073110232, -46900.26305917061, -78146.72775825593, -48962.99379622863, -88804.73241862445, -31746.361463828263, 0.0, 0.0, 0.0, 193.0, 0.0, 1.0, 1.0, 0.0, 0.0, 1.0, 1.0, 256.0, 1.0, 1.750528944150354E9, 0.0, 2025-06-21 20:02:24.150
138.0, -43905.59868879303, -37615.638985113976, -29913.07138360398, -73190.74251541407, -27687.552891677966, -29518.764259667907, -52764.53378969834, -101148.01390743422, -187500.02235174447, -187500.02235174447, -48345.30333820621, -46856.27482608257, -78141.72096749795, -48924.83936844342, -88872.61466653523, -31695.421838214617, 0.0, 0.0, 0.0, 193.0, 0.0, 1.0, 1.0, 0.0, 0.0, 1.0, 1.0, 256.0, 1.0, 1.75052894415838E9, 0.0, 2025-06-21 20:02:24.158
140.0, -43972.83273611459, -37682.35894231307, -29927.287093077553, -73239.35755960435, -27676.935813061693, -29439.549677318297, -52806.0633308963, -101197.34420744708, -187500.02235174447, -187500.02235174447, -48327.80192229771, -46848.96580564568, -78108.32746128172, -48907.0920833459, -88798.76450285489, -31686.168216010123, 0.0, 0.0, 0.0, 193.0, 0.0, 1.0, 1.0, 0.0, 0.0, 1.0, 1.0, 256.0, 1.0, 1.750528944166418E9, 0.0, 2025-06-21 20:02:24.166
142.0, -43929.33624140456, -37641.05291855966, -29944.900267708337, -73222.72786172961, -27685.071848043426, -29517.646672445142, -52796.519136013885, -101178.36757640453, -187500.02235174447, -187500.02235174447, -48399.03693187678, -46907.39326565186, -78168.6548195666, -48962.32324389496, -88839.82465741929, -31740.214734103054, 0.0, 0.0, 0.0, 193.0, 0.0, 1.0, 1.0, 0.0, 0.0, 1.0, 1.0, 256.0, 1.0, 1.750528944175419E9, 0.0, 2025-06-21 20:02:24.175
144.0, -43935.95235776334, -37643.35514823856, -29915.664185960795, -73211.9766726466, -27689.899824845772, -29515.545608466342, -52781.61052246219, -101170.18683793388, -187500.02235174447, -187500.02235174447, -48323.19746293992, -46842.908482898296, -78124.71128996745, -48904.543984478, -88859.47184079551, -31674.455901915542, 0.0, 0.0, 0.0, 193.0, 0.0, 1.0, 1.0, 0.0, 0.0, 1.0, 1.0, 256.0, 1.0, 1.750528944182488E9, 0.0, 2025-06-21 20:02:24.182
146.0, -43993.17282356892, -37686.85164294859, -29971.61060233243, -73270.94057451971, -27748.64020927432, -29424.551656788786, -52843.81542728131, -101229.1954432959, -187500.02235174447, -187500.02235174447, -48395.10302485264, -46908.10852147442, -78155.10966242668, -48980.13758422585, -88822.83733163326, -31760.152490157187, 0.0, 0.0, 0.0, 193.0, 0.0, 1.0, 1.0, 0.0, 0.0, 1.0, 1.0, 256.0, 1.0, 1.750528944190447E9, 0.0, 2025-06-21 20:02:24.190
148.0, -43911.03016269567, -37621.629252628, -29918.033470873055, -73192.1283235703, -27673.42658918221, -29527.526143494386, -52789.657150466104, -101166.8787797545, -187500.02235174447, -187500.02235174447, -48352.411192943, -46866.824849465476, -78150.3934443466, -48942.18432214073, -88888.0820736983, -31710.33045176631, 0.0, 0.0, 0.0, 193.0, 0.0, 1.0, 1.0, 0.0, 0.0, 1.0, 1.0, 256.0, 1.0, 1.750528944198523E9, 0.0, 2025-06-21 20:02:24.198
150.0, -43975.33613149359, -37680.01200914526, -29942.173354884788, -73252.96977197764, -27701.366269751343, -29395.449685507978, -52835.232357410474, -101224.88155661602, -187500.02235174447, -187500.02235174447, -48349.95250105292, -46869.50705880011, -78127.48290627991, -48938.228063372146, -88824.11138106721, -31714.979614613014, 0.0, 0.0, 0.0, 193.0, 0.0, 1.0, 1.0, 0.0, 0.0, 1.0, 1.0, 256.0, 1.0, 1.750528944206478E9, 0.0, 2025-06-21 20:02:24.206
152.0, -43937.78520080867, -37639.51064819225, -29957.529003325584, -73221.67732974021, -27703.713202919153, -29546.234553603477, -52802.93408667256, -101190.99631202177, -187500.02235174447, -187500.02235174447, -48388.665722449514, -46895.85976551292, -78159.8929357401, -48975.9578080127, -88850.35232905774, -31751.41295807516, 0.0, 0.0, 0.0, 193.0, 0.0, 1.0, 1.0, 0.0, 0.0, 1.0, 1.0, 256.0, 1.0, 1.750528944214543E9, 0.0, 2025-06-21 20:02:24.214
154.0, -43962.1262505205, -37662.8905728925, -29951.359921855917, -73239.46931832664, -27731.027034643535, -29478.374657437165, -52832.75131377594, -101208.54243141919, -187500.02235174447, -187500.02235174447, -48344.25280621681, -46841.47797125316, -78133.36141507166, -48920.547833508, -88885.51162308594, -31684.26831773142, 0.0, 0.0, 0.0, 193.0, 0.0, 1.0, 1.0, 0.0, 0.0, 1.0, 1.0, 256.0, 1.0, 1.7505289442225E9, 0.0, 2025-06-21 20:02:24.222
156.0, -43996.14560558148, -37699.79330298821, -29975.32099191201, -73282.27290895855, -27724.880304918326, -29440.01906395186, -52862.099154245756, -101248.10501910509, -187500.02235174447, -187500.02235174447, -48415.510167540335, -46936.517588677125, -78181.41766565057, -49007.67493339479, -88843.8703231657, -31789.38857190473, 0.0, 0.0, 0.0, 193.0, 0.0, 1.0, 1.0, 0.0, 0.0, 1.0, 1.0, 256.0, 1.0, 1.750528944231599E9, 0.0, 2025-06-21 20:02:24.231
158.0, -43899.74253174574, -37616.555406636646, -29914.63600571585, -73194.31879452692, -27673.068961270925, -29507.968367095993, -52786.12557484217, -101165.00123322026, -187500.02235174447, -187500.02235174447, -48347.15853299601, -46868.56828553299, -78150.92988621353, -48947.34757510991, -88896.59808833577, -31716.767754169436, 0.0, 0.0, 0.0, 193.0, 0.0, 1.0, 1.0, 0.0, 0.0, 1.0, 1.0, 256.0, 1.0, 1.750528944237601E9, 0.0, 2025-06-21 20:02:24.237
160.0, -43991.56349796814, -37696.954631442386, -29954.869145735403, -73273.86865304335, -27696.940624349194, -29436.174563905548, -52846.0729534713, -101237.42088525544, -187500.02235174447, -187500.02235174447, -48340.02832651477, -46861.61689300739, -78117.96106314195, -48944.106572163895, -88828.02293634688, -31723.18270482811, 0.0, 0.0, 0.0, 193.0, 0.0, 1.0, 1.0, 0.0, 0.0, 1.0, 1.0, 256.0, 1.0, 1.750528944246643E9, 0.0, 2025-06-21 20:02:24.246
162.0, -43941.65205259944, -37649.144250052486, -29955.852622491435, -73244.49846082908, -27700.62866218432, -29479.648706871118, -52807.06915939679, -101196.89717255798, -187500.02235174447, -187500.02235174447, -48405.228365090894, -46932.33781246398, -78182.75877031789, -49003.76337811511, -88869.50777405594, -31783.420656135164, 0.0, 0.0, 0.0, 193.0, 0.0, 1.0, 1.0, 0.0, 0.0, 1.0, 1.0, 256.0, 1.0, 1.750528944256685E9, 0.0, 2025-06-21 20:02:24.256
164.0, -43962.79680285416, -37677.68742772191, -29953.148061412343, -73250.66754229875, -27717.504229248076, -29498.5135791914, -52818.401493835634, -101201.38987319349, -187500.02235174447, -187500.02235174447, -48335.870902046074, -46859.69464298423, -78138.21174361846, -48935.94818543771, -88893.96058249005, -31704.161370296642, 0.0, 0.0, 0.0, 193.0, 0.0, 1.0, 1.0, 0.0, 0.0, 1.0, 1.0, 256.0, 1.0, 1.750528944262702E9, 0.0, 2025-06-21 20:02:24.262
166.0, -43988.27779153321, -37691.23258486183, -29970.336552898476, -73277.31082168948, -27715.24670305809, -29440.510802329878, -52860.44512515606, -101244.55109173669, -187500.02235174447, -187500.02235174447, -48406.23419359138, -46926.727524605696, -78171.35938064568, -49006.22207000519, -88836.33778528427, -31788.494502126516, 0.0, 0.0, 0.0, 193.0, 0.0, 1.0, 1.0, 0.0, 0.0, 1.0, 1.0, 256.0, 1.0, 1.750528944270751E9, 0.0, 2025-06-21 20:02:24.270
168.0, -43912.863005741005, -37623.484447417795, -29923.35318605342, -73205.67348071022, -27686.234138755102, -29516.484381733466, -52781.31994978428, -101160.48618084028, -187500.02235174447, -187500.02235174447, -48341.481189904356, -46864.38850931985, -78147.82299373424, -48942.631357029844, -88891.05485571086, -31711.224521544522, 0.0, 0.0, 0.0, 193.0, 0.0, 1.0, 1.0, 0.0, 0.0, 1.0, 1.0, 256.0, 1.0, 1.750528944278801E9, 0.0, 2025-06-21 20:02:24.278
170.0, -44036.66931827895, -37730.571655103166, -30000.89138756888, -73315.5993599414, -27757.290334378522, -29434.699348771497, -52848.039906983366, -101252.1506848515, -187500.02235174447, -187500.02235174447, -48375.63465543207, -46897.98318123617, -78153.12035717015, -48966.72653755266, -88858.89069543967, -31744.014530660457, 0.0, 0.0, 0.0, 193.0, 0.0, 1.0, 1.0, 0.0, 0.0, 1.0, 1.0, 256.0, 1.0, 1.750528944286808E9, 0.0, 2025-06-21 20:02:24.286
172.0, -43955.48778241727, -37661.95179962538, -29955.40558760233, -73236.67535026972, -27673.85127232686, -29484.63314588465, -52816.07691241228, -101187.4870881423, -187500.02235174447, -187500.02235174447, -48423.91442345553, -46943.46898120272, -78200.1037240152, -49004.09865428194, -88876.63798053718, -31784.180615446643, 0.0, 0.0, 0.0, 193.0, 0.0, 1.0, 1.0, 0.0, 0.0, 1.0, 1.0, 256.0, 1.0, 1.750528944293833E9, 0.0, 2025-06-21 20:02:24.293
174.0, -43972.497459947765, -37684.32589582514, -29940.184049628268, -73246.26424864105, -27712.63154895682, -29446.92575298855, -52816.47924381247, -101194.32672194562, -187500.02235174447, -187500.02235174447, -48336.49675089082, -46856.99008190514, -78137.27297035135, -48909.64018221381, -88871.18415489008, -31679.015657784425, 0.0, 0.0, 0.0, 193.0, 0.0, 1.0, 1.0, 0.0, 0.0, 1.0, 1.0, 256.0, 1.0, 1.750528944302889E9, 0.0, 2025-06-21 20:02:24.302
176.0, -44019.816102959645, -37722.56973058817, -29981.154797214844, -73294.96869980916, -27722.73453745062, -29461.70025607351, -52864.91547404713, -101244.95342313689, -187500.02235174447, -187500.02235174447, -48416.6277547631, -46945.391231225876, -78184.56926161877, -49001.17057575829, -88826.27950027937, -31787.82394979286, 0.0, 0.0, 0.0, 193.0, 0.0, 1.0, 1.0, 0.0, 0.0, 1.0, 1.0, 256.0, 1.0, 1.750528944310882E9, 0.0, 2025-06-21 20:02:24.310
178.0, -43945.80947706813, -37661.34830252508, -29950.756424755626, -73227.89111469878, -27679.19333925168, -29514.785649154863, -52798.84371743724, -101184.7825270632, -187500.02235174447, -187500.02235174447, -48376.88635312156, -46896.66442831331, -78180.45654063899, -48957.31645313698, -88907.0363529964, -31723.070946105832, 0.0, 0.0, 0.0, 193.0, 0.0, 1.0, 1.0, 0.0, 0.0, 1.0, 1.0, 256.0, 1.0, 1.750528944317893E9, 0.0, 2025-06-21 20:02:24.317
180.0, -44024.35350708407, -37731.28691092574, -29980.59600360346, -73296.71213587667, -27698.72876390562, -29381.34573475668, -52849.11279071722, -101243.63467021403, -187500.02235174447, -187500.02235174447, -48381.80373690173, -46907.66148658532, -78163.2456974084, -48958.702261293205, -88845.03261387738, -31734.04565263339, 0.0, 0.0, 0.0, 193.0, 0.0, 1.0, 1.0, 0.0, 0.0, 1.0, 1.0, 256.0, 1.0, 1.750528944325928E9, 0.0, 2025-06-21 20:02:24.325
182.0, -43984.74621590927, -37684.12473012504, -29979.612526847428, -73255.31670514545, -27744.52748829454, -29477.74880859242, -52809.12551988668, -101192.04684401117, -187500.02235174447, -187500.02235174447, -48409.855176193145, -46930.59437639647, -78188.97255527647, -48991.26875296459, -88863.85278270874, -31763.974638459047, 0.0, 0.0, 0.0, 193.0, 0.0, 1.0, 1.0, 0.0, 0.0, 1.0, 1.0, 256.0, 1.0, 1.750528944335006E9, 0.0, 2025-06-21 20:02:24.335
184.0, -44005.17571034142, -37713.49492233931, -29969.889518009368, -73260.21173718116, -27700.67336567323, -29491.361020965698, -52830.985525963966, -101221.66290541446, -187500.02235174447, -187500.02235174447, -48378.00394034433, -46893.53518408957, -78178.04255223782, -48957.98700547064, -88926.01298403896, -31720.455792004563, 0.0, 0.0, 0.0, 193.0, 0.0, 1.0, 1.0, 0.0, 0.0, 1.0, 1.0, 256.0, 1.0, 1.750528944343016E9, 0.0, 2025-06-21 20:02:24.343
186.0, -44017.62563200303, -37722.882655010544, -29968.25784066413, -73277.66844960075, -27710.709298933663, -29410.335947315212, -52870.212837483035, -101245.66867895945, -187500.02235174447, -187500.02235174447, -48426.976612445906, -46938.64100440038, -78184.3010406853, -48999.20362224623, -88825.05015433433, -31781.85603402329, 0.0, 0.0, 0.0, 193.0, 0.0, 1.0, 1.0, 0.0, 0.0, 1.0, 1.0, 256.0, 1.0, 1.750528944350047E9, 0.0, 2025-06-21 20:02:24.350
188.0, -43955.39837543945, -37668.18793632841, -29933.433822802763, -73217.00581514905, -27690.391563223788, -29480.006334782403, -52799.82719419327, -101171.59499783457, -187500.02235174447, -187500.02235174447, -48353.349966210124, -46879.14066066035, -78155.48964208242, -48932.88599644733, -88880.46012883904, -31701.926195851112, 0.0, 0.0, 0.0, 193.0, 0.0, 1.0, 1.0, 0.0, 0.0, 1.0, 1.0, 256.0, 1.0, 1.750528944358E9, 0.0, 2025-06-21 20:02:24.358
190.0, -44056.96470224437, -37759.53951591725, -29980.394837903365, -73299.19317951122, -27712.92212163474, -29404.01040363436, -52867.24005547048, -101259.1020773771, -187500.02235174447, -187500.02235174447, -48392.53257424028, -46912.243594198655, -78165.86085150967, -48967.732366053155, -88848.96652090151, -31745.579152772327, 0.0, 0.0, 0.0, 193.0, 0.0, 1.0, 1.0, 0.0, 0.0, 1.0, 1.0, 256.0, 1.0, 1.750528944367096E9, 0.0, 2025-06-21 20:02:24.367
192.0, -44002.1358730955, -37713.89725373951, -29985.55809087254, -73261.61989708185, -27707.468295987645, -29491.115151776692, -52824.749389260935, -101203.35682670557, -187500.02235174447, -187500.02235174447, -48430.97757470341, -46943.62544341391, -78204.23879673945, -49009.2172037622, -88880.5271840724, -31785.655830580694, 0.0, 0.0, 0.0, 193.0, 0.0, 1.0, 1.0, 0.0, 0.0, 1.0, 1.0, 256.0, 1.0, 1.750528944374116E9, 0.0, 2025-06-21 20:02:24.374
194.0, -44025.202873373375, -37734.68437608294, -29978.137311713377, -73273.93570827672, -27706.10483957587, -29454.88297401464, -52853.560787863826, -101238.56082422267, -187500.02235174447, -187500.02235174447, -48373.488887964355, -46887.94724797574, -78170.84529052321, -48952.1532001678, -88911.6855158431, -31719.338204781798, 0.0, 0.0, 0.0, 193.0, 0.0, 1.0, 1.0, 0.0, 0.0, 1.0, 1.0, 256.0, 1.0, 1.750528944382148E9, 0.0, 2025-06-21 20:02:24.382
196.0, -44061.52445811325, -37758.28781822775, -29997.382163689395, -73302.41183071278, -27747.075587162446, -29434.699348771497, -52875.08551777429, -101259.43735354392, -187500.02235174447, -187500.02235174447, -48450.06596446824, -46965.55250472457, -78210.60904390921, -49034.72054418571, -88861.61760826322, -31820.390441464242, 0.0, 0.0, 0.0, 193.0, 0.0, 1.0, 1.0, 0.0, 0.0, 1.0, 1.0, 256.0, 1.0, 1.750528944390217E9, 0.0, 2025-06-21 20:02:24.390
198.0, -43974.19619252637, -37686.62812550404, -29941.122822895388, -73219.86683843932, -27682.747266620074, -29477.50293940341, -52808.186746619554, -101187.37532942001, -187500.02235174447, -187500.02235174447, -48375.79111764325, -46887.83548925346, -78176.58968884822, -48949.269825133066, -88901.40371339367, -31717.08067859181, 0.0, 0.0, 0.0, 193.0, 0.0, 1.0, 1.0, 0.0, 0.0, 1.0, 1.0, 256.0, 1.0, 1.750528944399266E9, 0.0, 2025-06-21 20:02:24.399
200.0, -44067.492373882815, -37768.23434451036, -29983.30056468255, -73303.32825223544, -27720.074679860438, -29402.714002455952, -52877.052471286355, -101254.6987837194, -187500.02235174447, -187500.02235174447, -48388.37514977159, -46909.89666103085, -78165.01148522037, -48962.99379622863, -88842.64097722065, -31743.65690274917, 0.0, 0.0, 0.0, 193.0, 0.0, 1.0, 1.0, 0.0, 0.0, 1.0, 1.0, 256.0, 1.0, 1.750528944406247E9, 0.0, 2025-06-21 20:02:24.406
202.0, -44017.2903558362, -37722.43562012144, -29982.36179141543, -73268.66069658527, -27725.081470618425, -29436.19691565, -52834.71826728801, -101222.10994030356, -187500.02235174447, -187500.02235174447, -48435.00088870536, -46952.40967898485, -78209.17853226406, -49012.7711311306, -88880.63894279469, -31792.070781239367, 0.0, 0.0, 0.0, 193.0, 0.0, 1.0, 1.0, 0.0, 0.0, 1.0, 1.0, 256.0, 1.0, 1.750528944414302E9, 0.0, 2025-06-21 20:02:24.414
204.0, -44033.22714963283, -37742.75335583131, -29973.354038399943, -73276.41675191125, -27700.3380895064, -29484.476683673467, -52853.80665705284, -101233.82225439814, -187500.02235174447, -187500.02235174447, -48368.392690228546, -46892.99874222264, -78168.9006887556, -48954.54483682452, -88908.37745766372, -31725.239065317997, 0.0, 0.0, 0.0, 193.0, 0.0, 1.0, 1.0, 0.0, 0.0, 1.0, 1.0, 256.0, 1.0, 1.750528944422284E9, 0.0, 2025-06-21 20:02:24.422
206.0, -44067.93940877193, -37769.03900731075, -30000.958442802246, -73305.13874353633, -27716.00666236957, -29412.839342694206, -52876.89600907517, -101268.19923737041, -187500.02235174447, -187500.02235174447, -48452.837580780695, -46964.50197273517, -78208.66444214158, -49030.65252669484, -88856.63316924968, -31816.478886184563, 0.0, 0.0, 0.0, 193.0, 0.0, 1.0, 1.0, 0.0, 0.0, 1.0, 1.0, 256.0, 1.0, 1.750528944430254E9, 0.0, 2025-06-21 20:02:24.430
208.0, -44003.36521904054, -37705.35888735758, -29969.80011103155, -73248.03003645301, -27713.92795013523, -29470.97623002246, -52831.477264341986, -101207.2907337297, -187500.02235174447, -187500.02235174447, -48399.05928362123, -46913.718809332706, -78194.69460185703, -48971.62156958837, -88922.12378050372, -31742.293446337397, 0.0, 0.0, 0.0, 193.0, 0.0, 1.0, 1.0, 0.0, 0.0, 1.0, 1.0, 256.0, 1.0, 1.750528944438339E9, 0.0, 2025-06-21 20:02:24.438
210.0, -44089.57589740466, -37781.93596386146, -30005.249977737665, -73313.99003434063, -27740.727691737142, -29380.3846097451, -52886.79783186887, -101264.46649604637, -187500.02235174447, -187500.02235174447, -48404.6248679906, -46913.0706087435, -78172.0522847238, -48977.32126442448, -88862.89165769717, -31754.296333109898, 0.0, 0.0, 0.0, 193.0, 0.0, 1.0, 1.0, 0.0, 0.0, 1.0, 1.0, 256.0, 1.0, 1.750528944446344E9, 0.0, 2025-06-21 20:02:24.446
212.0, -44023.99587917279, -37721.698012554414, -29992.93416654279, -73266.06789422846, -27711.87158964534, -29479.380485937654, -52844.79890403735, -101222.91460310396, -187500.02235174447, -187500.02235174447, -48460.21365645095, -46965.12782157992, -78226.74700340594, -49028.43970399377, -88899.70498081506, -31806.800580835414, 0.0, 0.0, 0.0, 193.0, 0.0, 1.0, 1.0, 0.0, 0.0, 1.0, 1.0, 256.0, 1.0, 1.750528944455311E9, 0.0, 2025-06-21 20:02:24.455
214.0, -44052.31553939766, -37756.723196115876, -29986.586271117485, -73284.46337991516, -27731.675235232742, -29464.605982852696, -52864.13316299119, -101245.28869930372, -187500.02235174447, -187500.02235174447, -48370.7172716519, -46879.9676752052, -78165.52557534285, -48950.029784444545, -88910.94790827608, -31716.499533235972, 0.0, 0.0, 0.0, 193.0, 0.0, 1.0, 1.0, 0.0, 0.0, 1.0, 1.0, 256.0, 1.0, 1.750528944462338E9, 0.0, 2025-06-21 20:02:24.462
216.0, -44096.2590689968, -37787.23332729737, -30022.61728317944, -73328.54101998103, -27764.621706559865, -29397.10371459767, -52893.6374656722, -101270.00972867128, -187500.02235174447, -187500.02235174447, -48471.14365948959, -46985.26674333415, -78227.70812841751, -49047.95277690325, -88874.53691655838, -31831.83453462536, 0.0, 0.0, 0.0, 193.0, 0.0, 1.0, 1.0, 0.0, 0.0, 1.0, 1.0, 256.0, 1.0, 1.750528944470413E9, 0.0, 2025-06-21 20:02:24.470
218.0, -44018.1397221255, -37725.16253294498, -29981.579480359494, -73258.55770809147, -27686.256490499556, -29494.69143088954, -52829.242089896456, -101212.29752448769, -187500.02235174447, -187500.02235174447, -48409.18462385948, -46920.60314662494, -78204.0152792949, -48982.93155228276, -88933.29965273138, -31751.345902841796, 0.0, 0.0, 0.0, 193.0, 0.0, 1.0, 1.0, 0.0, 0.0, 1.0, 1.0, 256.0, 1.0, 1.750528944478443E9, 0.0, 2025-06-21 20:02:24.478
220.0, -44123.52819723227, -37813.89895843255, -30035.33542577451, -73346.98120915666, -27749.62368603035, -29380.831644634207, -52908.031989101415, -101293.54611558272, -187500.02235174447, -187500.02235174447, -48432.27397588181, -46944.49716144767, -78199.4108199371, -49006.84791884994, -88886.71861728652, -31784.605298591294, 0.0, 0.0, 0.0, 193.0, 0.0, 1.0, 1.0, 0.0, 0.0, 1.0, 1.0, 256.0, 1.0, 1.750528944486467E9, 0.0, 2025-06-21 20:02:24.486
222.0, -44038.770382257746, -37743.580370376156, -29997.762143345135, -73280.21654846866, -27732.032863144024, -29480.632183627153, -52855.68420358708, -101233.68814393142, -187500.02235174447, -187500.02235174447, -48468.014415265854, -46981.802222943574, -78236.60412271072, -49047.349279802955, -88914.92651878911, -31826.514819444994, 0.0, 0.0, 0.0, 193.0, 0.0, 1.0, 1.0, 0.0, 0.0, 1.0, 1.0, 256.0, 1.0, 1.750528944495487E9, 0.0, 2025-06-21 20:02:24.495
224.0, -44071.24746695131, -37776.012751580805, -29993.828236321002, -73299.86373184487, -27733.083395133424, -29430.988959191916, -52874.258503229445, -101245.646327215, -187500.02235174447, -187500.02235174447, -48382.00490260183, -46898.81019578102, -78178.13195921564, -48964.446659618225, -88919.39686768019, -31733.665672977648, 0.0, 0.0, 0.0, 193.0, 0.0, 1.0, 1.0, 0.0, 0.0, 1.0, 1.0, 256.0, 1.0, 1.750528944502559E9, 0.0, 2025-06-21 20:02:24.502
226.0, -44116.75561866231, -37811.19439735346, -30041.795079922093, -73343.33787481044, -27751.3000668645, -29405.306804812768, -52892.11754704923, -101277.63167353054, -187500.02235174447, -187500.02235174447, -48483.07949102873, -46996.62142951744, -78235.93357037706, -49058.59220726397, -88881.93534397309, -31844.59738070934, 0.0, 0.0, 0.0, 193.0, 0.0, 1.0, 1.0, 0.0, 0.0, 1.0, 1.0, 256.0, 1.0, 1.750528944511566E9, 0.0, 2025-06-21 20:02:24.511
228.0, -44039.50798982477, -37744.78736457675, -29979.36665765842, -73257.37306563534, -27717.124249592336, -29469.478663143953, -52835.61233706622, -101199.84760282608, -187500.02235174447, -187500.02235174447, -48421.99217343237, -46933.790675853576, -78215.74994513392, -48993.2133547322, -88948.63294942773, -31760.48776632402, 0.0, 0.0, 0.0, 193.0, 0.0, 1.0, 1.0, 0.0, 0.0, 1.0, 1.0, 256.0, 1.0, 1.750528944517606E9, 0.0, 2025-06-21 20:02:24.517
230.0, -44151.669043501504, -37841.928045979505, -30045.99720787969, -73358.00061917312, -27750.607162786386, -29422.20472362098, -52928.10385562228, -101311.24869719133, -187500.02235174447, -187500.02235174447, -48442.01933646433, -46954.35428075246, -78211.32429973177, -49007.69728513924, -88886.2268789085, -31789.522682371462, 0.0, 0.0, 0.0, 193.0, 0.0, 1.0, 1.0, 0.0, 0.0, 1.0, 1.0, 256.0, 1.0, 1.750528944526655E9, 0.0, 2025-06-21 20:02:24.526
232.0, -44072.72268208536, -37767.630847410066, -30006.70284112726, -73286.87736831635, -27760.911316980284, -29454.3018286588, -52878.97472130951, -101248.32853654964, -187500.02235174447, -187500.02235174447, -48477.245685725895, -46983.29978982208, -78246.05891061532, -49044.93529140178, -88915.4406089116, -31823.899665343724, 0.0, 0.0, 0.0, 193.0, 0.0, 1.0, 1.0, 0.0, 0.0, 1.0, 1.0, 256.0, 1.0, 1.750528944534672E9, 0.0, 2025-06-21 20:02:24.534
234.0, -44084.0550165242, -37783.43353073997, -29990.408419419342, -73291.3030137185, -27730.91527592126, -29437.761537761875, -52868.13412524869, -101249.15555109449, -187500.02235174447, -187500.02235174447, -48393.91838239651, -46909.248460441646, -78189.62075586568, -48967.97823524216, -88924.6942311161, -31737.197248601587, 0.0, 0.0, 0.0, 193.0, 0.0, 1.0, 1.0, 0.0, 0.0, 1.0, 1.0, 256.0, 1.0, 1.750528944542653E9, 0.0, 2025-06-21 20:02:24.542
236.0, -44132.2677293143, -37830.126324907105, -30037.28002754212, -73337.16879334078, -27731.474069532644, -29429.334930102224, -52899.27010527493, -101286.0582811902, -187500.02235174447, -187500.02235174447, -48481.17959275003, -46990.25118234768, -78233.00549185342, -49054.345375817466, -88881.19773640606, -31839.098851573333, 0.0, 0.0, 0.0, 193.0, 0.0, 1.0, 1.0, 0.0, 0.0, 1.0, 1.0, 256.0, 1.0, 1.750528944549703E9, 0.0, 2025-06-21 20:02:24.549
238.0, -44071.31452218468, -37769.28487649976, -30003.819466092526, -73280.5965281244, -27735.743252723605, -29479.514596404388, -52854.52191287541, -101221.72996064782, -187500.02235174447, -187500.02235174447, -48429.65882178055, -46935.042373543074, -78219.30387250232, -48993.32511345448, -88942.73208889153, -31761.91827796916, 0.0, 0.0, 0.0, 193.0, 0.0, 1.0, 1.0, 0.0, 0.0, 1.0, 1.0, 256.0, 1.0, 1.750528944558719E9, 0.0, 2025-06-21 20:02:24.558
240.0, -44187.83416603019, -37878.3390376972, -30036.296550786086, -73350.80335745851, -27771.81896827447, -29376.00366783186, -52925.846329432294, -101300.65397031952, -187500.02235174447, -187500.02235174447, -48451.11649645764, -46958.601112198965, -78215.39231722264, -49015.85567186543, -88895.25698366846, -31795.49059814103, 0.0, 0.0, 0.0, 193.0, 0.0, 1.0, 1.0, 0.0, 0.0, 1.0, 1.0, 256.0, 1.0, 1.75052894456676E9, 0.0, 2025-06-21 20:02:24.566
242.0, -44124.28815654376, -37816.60351951164, -30008.46862893923, -73283.23403397013, -27724.612083984863, -29452.983075735938, -52854.186636708575, -101228.9942775958, -187500.02235174447, -187500.02235174447, -48485.560534663266, -46989.93825792531, -78251.13275660668, -49045.6281954799, -88916.58054787881, -31825.330176988864, 0.0, 0.0, 0.0, 193.0, 0.0, 1.0, 1.0, 0.0, 0.0, 1.0, 1.0, 256.0, 1.0, 1.750528944573811E9, 0.0, 2025-06-21 20:02:24.573
244.0, -44208.867157562636, -37902.88125310913, -30023.42194597983, -73324.83063040145, -27743.700473749697, -29440.91313373007, -52893.19043078309, -101270.94850193842, -187500.02235174447, -187500.02235174447, -48419.555833286744, -46922.167768736814, -78208.57503516377, -48974.95197951222, -88937.97116732254, -31742.47226029304, 0.0, 0.0, 0.0, 193.0, 0.0, 1.0, 1.0, 0.0, 0.0, 1.0, 1.0, 256.0, 1.0, 1.750528944582833E9, 0.0, 2025-06-21 20:02:24.582
246.0, -44274.514231027875, -37950.62457926566, -30053.03800738311, -73358.80528197352, -27742.269962104558, -29436.21926739446, -52930.80841670137, -101308.23121168987, -187500.02235174447, -187500.02235174447, -48523.22322407046, -47029.411438633375, -78276.77020749691, -49075.601884794465, -88897.08982671378, -31863.30579081843, 0.0, 0.0, 0.0, 193.0, 0.0, 1.0, 1.0, 0.0, 0.0, 1.0, 1.0, 256.0, 1.0, 1.75052894459085E9, 0.0, 2025-06-21 20:02:24.590
248.0, -44238.25970152136, -37923.534264985836, -30021.410288978852, -73301.80833361248, -27724.96971189615, -29499.11707629169, -52868.60351188225, -101245.71338244838, -187500.02235174447, -187500.02235174447, -48466.71801408744, -46969.19583907078, -78258.79940495484, -49012.70407589723, -88961.03816760042, -31782.48188286804, 0.0, 0.0, 0.0, 193.0, 0.0, 1.0, 1.0, 0.0, 0.0, 1.0, 1.0, 256.0, 1.0, 1.750528944597872E9, 0.0, 2025-06-21 20:02:24.597
250.0, -44365.84345887226, -38032.05198431635, -30061.71048423177, -73381.53700608457, -27767.25921240559, -29389.28060403831, -52930.00375390098, -101300.43045287496, -187500.02235174447, -187500.02235174447, -48490.12029053215, -46998.029589418125, -78257.45830028753, -49032.08303833998, -88910.65733559815, -31810.91330181519, 0.0, 0.0, 0.0, 193.0, 0.0, 1.0, 1.0, 0.0, 0.0, 1.0, 1.0, 256.0, 1.0, 1.750528944605862E9, 0.0, 2025-06-21 20:02:24.605
252.0, -44319.97767924997, -37996.98209726597, -30046.533649746616, -73331.53615373805, -27733.64218874481, -29501.195788526034, -52878.170058509124, -101253.76001045227, -187500.02235174447, -187500.02235174447, -48535.963718409985, -47041.21315970578, -78304.50872236595, -49077.59119005099, -88945.54840869289, -31857.36022679332, 0.0, 0.0, 0.0, 193.0, 0.0, 1.0, 1.0, 0.0, 0.0, 1.0, 1.0, 256.0, 1.0, 1.750528944614915E9, 0.0, 2025-06-21 20:02:24.614
254.0, -44374.06890083181, -38048.39110951318, -30056.413120795864, -73353.28440109306, -27741.64411325981, -29458.861584527684, -52877.70067187556, -101269.56269378218, -187500.02235174447, -187500.02235174447, -48472.66357811256, -46974.739071695694, -78264.05206490184, -49003.65161939283, -88958.8476966438, -31773.42942636364, 0.0, 0.0, 0.0, 193.0, 0.0, 1.0, 1.0, 0.0, 0.0, 1.0, 1.0, 256.0, 1.0, 1.750528944622932E9, 0.0, 2025-06-21 20:02:24.622
0.0, -44426.617852046234, -38093.38517110171, -30084.151635664897, -73397.80907604803, -27757.044465189516, -29370.505138695855, -52962.682004294635, -101329.19714798895, -187500.02235174447, -187500.02235174447, -48567.12205018068, -47072.95263683231, -78320.02083301793, -49100.74759730668, -88929.5892631518, -31887.13275040779, 0.0, 0.0, 0.0, 193.0, 0.0, 1.0, 1.0, 0.0, 0.0, 1.0, 1.0, 256.0, 1.0, 1.750528944629939E9, 0.0, 2025-06-21 20:02:24.629
2.0, -44358.73560413547, -38044.85953388924, -30036.56477171955, -73320.58379895495, -27731.742290466107, -29513.802172398828, -52881.07578528831, -101256.01753664226, -187500.02235174447, -187500.02235174447, -48496.13290979063, -47006.18797614431, -78293.89164374968, -49030.451360994746, -88972.90694390619, -31804.34188894533, 0.0, 0.0, 0.0, 193.0, 0.0, 1.0, 1.0, 0.0, 0.0, 1.0, 1.0, 256.0, 1.0, 1.750528944637977E9, 0.0, 2025-06-21 20:02:24.637
4.0, -44464.168782731154, -38137.932197801136, -30077.066132672568, -73397.31733767001, -27748.081415662935, -29409.48658102591, -52942.23015811803, -101313.61798210359, -187500.02235174447, -187500.02235174447, -48524.787846182335, -47033.121828212956, -78296.46209436204, -49059.84390495347, -88935.11014403227, -31842.20574405262, 0.0, 0.0, 0.0, 193.0, 0.0, 1.0, 1.0, 0.0, 0.0, 1.0, 1.0, 256.0, 1.0, 1.750528944646989E9, 0.0, 2025-06-21 20:02:24.646
6.0, -44399.147558110664, -38090.613554789255, -30061.688132487314, -73346.04243588954, -27747.96965694066, -29490.869282587682, -52888.65302665866, -101268.19923737041, -187500.02235174447, -187500.02235174447, -48541.68576499054, -47047.22577896426, -78315.19285621558, -49073.41141383784, -88941.01100456847, -31855.59443898135, 0.0, 0.0, 0.0, 193.0, 0.0, 1.0, 1.0, 0.0, 0.0, 1.0, 1.0, 256.0, 1.0, 1.750528944654022E9, 0.0, 2025-06-21 20:02:24.654
8.0, -44444.83452377731, -38139.183895490634, -30056.726045218238, -73369.35530535642, -27731.921104421748, -29431.368938847656, -52912.792910670396, -101290.75214752581, -187500.02235174447, -187500.02235174447, -48480.68785437201, -46992.46400504876, -78281.03939068787, -49014.04518056455, -88964.70385369108, -31785.96875500307, 0.0, 0.0, 0.0, 193.0, 0.0, 1.0, 1.0, 0.0, 0.0, 1.0, 1.0, 256.0, 1.0, 1.750528944662036E9, 0.0, 2025-06-21 20:02:24.662
10.0, -44497.003495336, -38191.64343972724, -30097.450923615805, -73405.38631741838, -27753.848165732405, -29451.954895490995, -52944.3982773302, -101313.8638512926, -187500.02235174447, -187500.02235174447, -48590.211402203015, -47103.57452673608, -78349.56983918784, -49112.68342884582, -88932.00325155297, -31901.996660470566, 0.0, 0.0, 0.0, 193.0, 0.0, 1.0, 1.0, 0.0, 0.0, 1.0, 1.0, 256.0, 1.0, 1.750528944670069E9, 0.0, 2025-06-21 20:02:24.670
