%OpenBCI Raw EXG Data
%Number of channels = 16
%Sample Rate = 125 Hz
%Board = OpenBCI_GUI$BoardCytonSerialDaisy
Sample Index, EXG Channel 0, EXG Channel 1, EXG Channel 2, EXG Channel 3, EXG Channel 4, EXG Channel 5, EXG Channel 6, EXG Channel 7, EXG Channel 8, EXG Channel 9, EXG Channel 10, EXG Channel 11, EXG Channel 12, EXG Channel 13, EXG Channel 14, EXG Channel 15, Accel Channel 0, Accel Channel 1, Accel Channel 2, Not Used, Digital Channel 0 (D11), Digital Channel 1 (D12), Digital Channel 2 (D13), Digital Channel 3 (D17), Not Used, Digital Channel 4 (D18), Analog Channel 0, Analog Channel 1, Analog Channel 2, Timestamp, Marker Channel, Timestamp (Formatted)
234.0, -44670.341273586906, -38171.30335227291, -30547.659760434603, -74172.2076144466, -28058.301276958144, -28297.330832163196, -53257.25564447113, -102044.00593566966, -102071.18565692731, 5.744398325013915, 0.022351744455307063, -91367.13640298086, -187500.02235174447, -187500.02235174447, -49157.878656134446, -47594.709407652546, 0.0, 0.0, 0.0, 193.0, 101.0, 47.0, 7.5, 111.0, 14.0, 38.5, 0.5, 128.0, 0.5, 1.750529455948241E9, 0.0, 2025-06-21 20:10:55.948
0.0, -22320.452013069633, -19032.175127527134, -15230.38926486841, -37114.334060470355, -13974.24357822461, -14191.591941308016, -26697.549426263504, -51147.54154056806, -93750.01117587223, -93750.01117587223, -24587.38828747133, -23810.464001949313, -39290.186976216675, -24840.991180061243, -44732.90380631731, -16182.193599008751, 0.0, 0.0, 0.0, 193.0, 0.0, 1.0, 1.0, 0.0, 0.0, 1.0, 1.0, 256.0, 1.0, 1.750529456070736E9, 0.0, 2025-06-21 20:10:56.070
2.0, -44636.03134584801, -38056.23657181699, -30461.873765215132, -74220.19680979215, -27958.232517031734, -28392.504560053894, -53395.97057056076, -102286.90234266547, -187500.02235174447, -187500.02235174447, -49176.16238309889, -47627.61117549076, -78166.7996247768, -49750.289291177905, -89431.2071122178, -32515.283824835282, 0.0, 0.0, 0.0, 193.0, 0.0, 1.0, 1.0, 0.0, 0.0, 1.0, 1.0, 256.0, 1.0, 1.75052945607975E9, 0.0, 2025-06-21 20:10:56.079
4.0, -44625.235453276095, -38038.95867335304, -30451.100224387676, -74210.13852478725, -27974.370476528464, -28397.13137115614, -53377.23980870722, -102268.41745000094, -187500.02235174447, -187500.02235174447, -49146.68043216234, -47599.15740479915, -78159.13297642863, -49708.24565985747, -89454.51998168469, -32471.13912953605, 0.0, 0.0, 0.0, 193.0, 0.0, 1.0, 1.0, 0.0, 0.0, 1.0, 1.0, 256.0, 1.0, 1.750529456086784E9, 0.0, 2025-06-21 20:10:56.086
6.0, -44660.03711939301, -38051.96738862603, -30471.194442652995, -74237.65352221174, -27982.998249888213, -28362.41911201705, -53413.740207402734, -102282.70021470789, -187500.02235174447, -187500.02235174447, -49177.9058191664, -47630.13692261421, -78182.64701159562, -49746.98123299852, -89430.04482150613, -32509.986461399374, 0.0, 0.0, 0.0, 193.0, 0.0, 1.0, 1.0, 0.0, 0.0, 1.0, 1.0, 256.0, 1.0, 1.750529456093794E9, 0.0, 2025-06-21 20:10:56.093
8.0, -44621.99445033007, -38041.55147570986, -30453.491861044393, -74202.80715260592, -27970.280107293143, -28399.85828397969, -53394.80827984909, -102267.14340056699, -187500.02235174447, -187500.02235174447, -49174.48600226474, -47618.31284979735, -78244.58369548127, -49734.4419043591, -89451.18957176084, -32495.971917625895, 0.0, 0.0, 0.0, 193.0, 0.0, 1.0, 1.0, 0.0, 0.0, 1.0, 1.0, 256.0, 1.0, 1.750529456101817E9, 0.0, 2025-06-21 20:10:56.101
10.0, -44654.44918327918, -38071.07813013531, -30465.874727472634, -74232.31145528692, -27975.48806375123, -28381.820426204256, -53425.92190813088, -102308.31531385367, -187500.02235174447, -187500.02235174447, -49156.11286832248, -47608.679247937114, -78251.98212289598, -49722.953107709065, -89443.99231004623, -32484.460769231413, 0.0, 0.0, 0.0, 193.0, 0.0, 1.0, 1.0, 0.0, 0.0, 1.0, 1.0, 256.0, 1.0, 1.750529456110865E9, 0.0, 2025-06-21 20:10:56.110
12.0, -44662.24994209408, -38065.7360632105, -30480.537471835312, -74238.25701931203, -27988.653241235406, -28391.968118186967, -53443.22215833928, -102306.68363650843, -187500.02235174447, -187500.02235174447, -49190.46749955029, -47647.81715247836, -78270.46701556051, -49764.7955733294, -89440.88541756695, -32528.851333719653, 0.0, 0.0, 0.0, 193.0, 0.0, 1.0, 1.0, 0.0, 0.0, 1.0, 1.0, 256.0, 1.0, 1.75052945611687E9, 0.0, 2025-06-21 20:10:56.116
14.0, -44646.02257561953, -38064.327903309815, -30475.396570610592, -74229.49513548556, -27978.43849401933, -28409.62599630666, -53417.40589349341, -102288.35520605507, -187500.02235174447, -187500.02235174447, -49175.04479587612, -47628.57230050234, -78219.05800331332, -49736.31945089334, -89484.04663611014, -32496.374249026092, 0.0, 0.0, 0.0, 193.0, 0.0, 1.0, 1.0, 0.0, 0.0, 1.0, 1.0, 256.0, 1.0, 1.750529456125924E9, 0.0, 2025-06-21 20:10:56.125
16.0, -44649.35298554337, -38060.617513730234, -30458.342189591192, -74230.9703506196, -27963.44047348982, -28365.90598415208, -53407.97345733327, -102293.54081076871, -187500.02235174447, -187500.02235174447, -49170.99913012971, -47627.208844090565, -78165.83849976522, -49745.28250041992, -89428.5025511387, -32506.901920664543, 0.0, 0.0, 0.0, 193.0, 0.0, 1.0, 1.0, 0.0, 0.0, 1.0, 1.0, 256.0, 1.0, 1.750529456133942E9, 0.0, 2025-06-21 20:10:56.133
18.0, -44627.67179342172, -38050.84980140327, -30452.84366045519, -74207.05398405243, -27959.193642043312, -28416.823258021268, -53401.20087876331, -102276.30761579366, -187500.02235174447, -187500.02235174447, -49166.72994693875, -47621.86677716575, -78160.22821190694, -49730.306831634865, -89443.05353677912, -32494.00496411383, 0.0, 0.0, 0.0, 193.0, 0.0, 1.0, 1.0, 0.0, 0.0, 1.0, 1.0, 256.0, 1.0, 1.750529456141962E9, 0.0, 2025-06-21 20:10:56.141
20.0, -44643.206255818164, -38065.9819323995, -30445.489936529393, -74218.81100163591, -27955.706769908284, -28372.209176088476, -53402.22905900825, -102279.16863908395, -187500.02235174447, -187500.02235174447, -49143.43942921632, -47600.31969551083, -78134.16607787205, -49716.3369913503, -89435.92333029787, -32479.364571495604, 0.0, 0.0, 0.0, 193.0, 0.0, 1.0, 1.0, 0.0, 0.0, 1.0, 1.0, 256.0, 1.0, 1.750529456149985E9, 0.0, 2025-06-21 20:10:56.149
22.0, -44655.231494335116, -38071.033426646405, -30467.349942606685, -74228.57871396288, -27973.49875849471, -28384.413228561072, -53414.63427718095, -102287.08115662112, -187500.02235174447, -187500.02235174447, -49169.03217661765, -47629.08639062481, -78213.38066022166, -49744.29902366389, -89423.42870514735, -32509.09239162116, 0.0, 0.0, 0.0, 193.0, 0.0, 1.0, 1.0, 0.0, 0.0, 1.0, 1.0, 256.0, 1.0, 1.750529456158045E9, 0.0, 2025-06-21 20:10:56.158
24.0, -44643.25095930707, -38059.61168522974, -30451.79312846579, -74205.73523112955, -27969.855424148493, -28413.895179497624, -53396.50701242769, -102266.87517963353, -187500.02235174447, -187500.02235174447, -49157.49867647871, -47613.55192822837, -78267.98597192597, -49719.64504952968, -89467.39458649095, -32483.119664564096, 0.0, 0.0, 0.0, 193.0, 0.0, 1.0, 1.0, 0.0, 0.0, 1.0, 1.0, 256.0, 1.0, 1.750529456166029E9, 0.0, 2025-06-21 20:10:56.166
26.0, -44657.13139261382, -38067.59125800029, -30456.50934654586, -74219.5709609474, -27967.664953191874, -28350.371521755642, -53397.535192672636, -102261.2872435197, -187500.02235174447, -187500.02235174447, -49165.54530448262, -47617.150559085676, -78229.58567495176, -49727.89284323369, -89419.09246672303, -32490.115760578607, 0.0, 0.0, 0.0, 193.0, 0.0, 1.0, 1.0, 0.0, 0.0, 1.0, 1.0, 256.0, 1.0, 1.750529456173037E9, 0.0, 2025-06-21 20:10:56.173
28.0, -44639.76408717204, -38048.525219979914, -30444.819384195733, -74195.18520774666, -27965.608592701985, -28388.9506326855, -53385.68876811132, -102251.1842550259, -187500.02235174447, -187500.02235174447, -49158.88448463494, -47618.84929166428, -78177.34964815971, -49712.26897385943, -89436.0574407646, -32476.95058309443, 0.0, 0.0, 0.0, 193.0, 0.0, 1.0, 1.0, 0.0, 0.0, 1.0, 1.0, 256.0, 1.0, 1.750529456182107E9, 0.0, 2025-06-21 20:10:56.182
30.0, -44652.34811930038, -38050.93920838108, -30449.803823209266, -74214.02772832249, -27952.801043129093, -28359.401626515584, -53404.19601252032, -102280.21917107335, -187500.02235174447, -187500.02235174447, -49145.093458306015, -47603.67245717913, -78107.52279848132, -49700.89193593168, -89427.27320519368, -32463.695998632433, 0.0, 0.0, 0.0, 193.0, 0.0, 1.0, 1.0, 0.0, 0.0, 1.0, 1.0, 256.0, 1.0, 1.750529456190115E9, 0.0, 2025-06-21 20:10:56.190
32.0, -44628.185883544196, -38048.10053683526, -30438.82911668171, -74195.07344902438, -27944.061511047068, -28360.13923408261, -53390.4496896803, -102254.55936843865, -187500.02235174447, -187500.02235174447, -49163.891275392925, -47623.498454510984, -78073.41403644253, -49728.42928510062, -89412.18577768633, -32491.747437923845, 0.0, 0.0, 0.0, 193.0, 0.0, 1.0, 1.0, 0.0, 0.0, 1.0, 1.0, 256.0, 1.0, 1.750529456197152E9, 0.0, 2025-06-21 20:10:56.197
34.0, -44622.01680207453, -38039.60687394224, -30436.772756191822, -74195.29696646893, -27956.48908096422, -28382.066295393266, -53385.48760241122, -102247.8314933576, -187500.02235174447, -187500.02235174447, -49131.23537674372, -47584.025273802916, -78064.04865551575, -49688.129089847695, -89434.87279830847, -32451.13431824855, 0.0, 0.0, 0.0, 193.0, 0.0, 1.0, 1.0, 0.0, 0.0, 1.0, 1.0, 256.0, 1.0, 1.750529456205181E9, 0.0, 2025-06-21 20:10:56.205
36.0, -44658.20427634767, -38074.050912147875, -30456.822270968234, -74228.93634187417, -27961.697037422306, -28369.974001642946, -53427.15125407592, -102289.62925548902, -187500.02235174447, -187500.02235174447, -49168.16045858389, -47628.08056212432, -78115.56942648524, -49735.38067762621, -89418.91365276738, -32499.43643801647, 0.0, 0.0, 0.0, 193.0, 0.0, 1.0, 1.0, 0.0, 0.0, 1.0, 1.0, 256.0, 1.0, 1.750529456214215E9, 0.0, 2025-06-21 20:10:56.214
38.0, -44618.28406075049, -38035.56120819583, -30421.10418332865, -74176.56620461539, -27935.411385942865, -28378.8476441917, -53382.291302954116, -102240.32130722063, -187500.02235174447, -187500.02235174447, -49144.668775161364, -47605.41589324664, -78140.446918064, -49707.508052290446, -89427.34026042704, -32471.09442604714, 0.0, 0.0, 0.0, 193.0, 0.0, 1.0, 1.0, 0.0, 0.0, 1.0, 1.0, 256.0, 1.0, 1.750529456222285E9, 0.0, 2025-06-21 20:10:56.222
40.0, -44656.99728214709, -38080.57762152882, -30452.575439521726, -74215.19001903415, -27957.025522831147, -28372.320934810752, -53404.3524747315, -102269.71385117935, -187500.02235174447, -187500.02235174447, -49128.240242986714, -47592.98832332949, -78179.38365690513, -49698.12031961922, -89422.98167025825, -32460.723216619877, 0.0, 0.0, 0.0, 193.0, 0.0, 1.0, 1.0, 0.0, 0.0, 1.0, 1.0, 256.0, 1.0, 1.750529456229274E9, 0.0, 2025-06-21 20:10:56.229
42.0, -44659.925360670735, -38075.25790634846, -30458.722169246936, -74213.73715564456, -27972.559985227585, -28379.249975591898, -53411.21446027928, -102277.0899268496, -187500.02235174447, -187500.02235174447, -49173.16724934188, -47630.18162610312, -78253.47968977448, -49746.26597717595, -89428.36844067198, -32508.86887417661, 0.0, 0.0, 0.0, 193.0, 0.0, 1.0, 1.0, 0.0, 0.0, 1.0, 1.0, 256.0, 1.0, 1.750529456237348E9, 0.0, 2025-06-21 20:10:56.237
44.0, -44633.282081280006, -38047.6311502017, -30430.335453788695, -74189.12788499927, -27962.926383367347, -28400.528836313348, -53393.71304437078, -102253.46413296035, -187500.02235174447, -187500.02235174447, -49137.67267914685, -47596.85517512026, -78254.12789036368, -49698.72381671951, -89443.56762690158, -32460.36558870859, 0.0, 0.0, 0.0, 193.0, 0.0, 1.0, 1.0, 0.0, 0.0, 1.0, 1.0, 256.0, 1.0, 1.750529456246314E9, 0.0, 2025-06-21 20:10:56.246
46.0, -44649.33063379892, -38053.487307248986, -30446.741634218888, -74208.015109064, -27958.076054820547, -28354.350132268686, -53411.95206784631, -102273.80422041468, -187500.02235174447, -187500.02235174447, -49145.4510862173, -47606.91346012515, -78243.55551523632, -49721.41083734165, -89404.854405505, -32484.885452376064, 0.0, 0.0, 0.0, 193.0, 0.0, 1.0, 1.0, 0.0, 0.0, 1.0, 1.0, 256.0, 1.0, 1.750529456253309E9, 0.0, 2025-06-21 20:10:56.253
48.0, -44633.8855783803, -38051.72151943702, -30441.578381249714, -74193.44177167914, -27956.53378445313, -28403.680432281548, -53404.50893694269, -102257.33098475111, -187500.02235174447, -187500.02235174447, -49148.62503392995, -47604.27595427942, -78268.3212480928, -49715.71114250555, -89435.54335064214, -32476.928231349975, 0.0, 0.0, 0.0, 193.0, 0.0, 1.0, 1.0, 0.0, 0.0, 1.0, 1.0, 256.0, 1.0, 1.750529456261345E9, 0.0, 2025-06-21 20:10:56.261
50.0, -44668.08374739692, -38091.239403634005, -30454.944724433986, -74220.10740281432, -27963.082845578534, -28369.504615009384, -53421.18333830635, -102278.45338326138, -187500.02235174447, -187500.02235174447, -49143.417077471866, -47608.411027003654, -78281.21820464352, -49713.878299460215, -89437.93498729885, -32476.928231349975, 0.0, 0.0, 0.0, 193.0, 0.0, 1.0, 1.0, 0.0, 0.0, 1.0, 1.0, 256.0, 1.0, 1.750529456270404E9, 0.0, 2025-06-21 20:10:56.270
52.0, -44656.86317168036, -38075.68258949311, -30450.675541243025, -74211.8149056214, -27954.745644896706, -28372.0974173662, -53423.97730636327, -102280.73326119581, -187500.02235174447, -187500.02235174447, -49166.484077749745, -47627.834692935314, -78290.78475127039, -49738.77814278343, -89418.64543183392, -32502.811551429222, 0.0, 0.0, 0.0, 193.0, 0.0, 1.0, 1.0, 0.0, 0.0, 1.0, 1.0, 256.0, 1.0, 1.750529456278335E9, 0.0, 2025-06-21 20:10:56.278
54.0, -44642.580406973415, -38060.57281024132, -30442.047767883276, -74202.74009737255, -27957.584316442528, -28380.993411659412, -53411.19210853483, -102271.30082503568, -187500.02235174447, -187500.02235174447, -49136.979775068736, -47601.12435831122, -78289.91303323663, -49706.12224413422, -89452.73184212827, -32469.149824279528, 0.0, 0.0, 0.0, 193.0, 0.0, 1.0, 1.0, 0.0, 0.0, 1.0, 1.0, 256.0, 1.0, 1.750529456285429E9, 0.0, 2025-06-21 20:10:56.285
56.0, -44677.180907390226, -38092.424046090135, -30463.08075941572, -74230.27744654148, -27956.891412364414, -28346.61642868715, -53412.555564946604, -102274.72064193734, -187500.02235174447, -187500.02235174447, -49164.56182772658, -47626.47123652354, -78295.21039667254, -49736.43120961561, -89423.8086848031, -32500.86694966161, 0.0, 0.0, 0.0, 193.0, 0.0, 1.0, 1.0, 0.0, 0.0, 1.0, 1.0, 256.0, 1.0, 1.750529456293425E9, 0.0, 2025-06-21 20:10:56.293
58.0, -44641.820447661936, -38063.6349992317, -30436.660997469546, -74187.00446927601, -27954.00803732968, -28378.691181980514, -53383.29713145461, -102247.69738289087, -187500.02235174447, -187500.02235174447, -49162.17019106987, -47618.13403584171, -78328.00040578848, -49716.739322750494, -89440.23721697775, -32480.169234295994, 0.0, 0.0, 0.0, 193.0, 0.0, 1.0, 1.0, 0.0, 0.0, 1.0, 1.0, 256.0, 1.0, 1.750529456302463E9, 0.0, 2025-06-21 20:10:56.302
60.0, -44676.130375400826, -38096.000325202986, -30457.224602368427, -74221.4708592261, -27972.939964883324, -28372.008010388377, -53416.78004464866, -102275.70411869338, -187500.02235174447, -187500.02235174447, -49139.61728091446, -47600.3867507442, -78316.42220216063, -49700.22138359802, -89428.23433020525, -32464.791234110744, 0.0, 0.0, 0.0, 193.0, 0.0, 1.0, 1.0, 0.0, 0.0, 1.0, 1.0, 256.0, 1.0, 1.75052945630948E9, 0.0, 2025-06-21 20:10:56.309
62.0, -44690.36843661886, -38103.01877296195, -30476.357695622173, -74232.93730413167, -27989.569662758073, -28403.971004959465, -53433.76737043469, -102285.18125834242, -187500.02235174447, -187500.02235174447, -49196.36836008649, -47654.61208279277, -78339.66801639415, -49755.29608193589, -89441.2653972227, -32521.609368516132, 0.0, 0.0, 0.0, 193.0, 0.0, 1.0, 1.0, 0.0, 0.0, 1.0, 1.0, 256.0, 1.0, 1.750529456317551E9, 0.0, 2025-06-21 20:10:56.317
64.0, -44663.07695663893, -38088.713656510554, -30444.30529407326, -74198.35915545931, -27965.742703168715, -28399.43360083504, -53401.06676829657, -102258.5379789517, -187500.02235174447, -187500.02235174447, -49159.08565033504, -47614.51305323995, -78316.53396088291, -49703.70825573305, -89455.8163828631, -32467.205222511915, 0.0, 0.0, 0.0, 193.0, 0.0, 1.0, 1.0, 0.0, 0.0, 1.0, 1.0, 256.0, 1.0, 1.750529456325544E9, 0.0, 2025-06-21 20:10:56.325
66.0, -44678.49966031309, -38095.553290313874, -30456.442291312494, -74217.89458011325, -27955.1479762969, -28357.23350730342, -53416.824748137566, -102271.36788026904, -187500.02235174447, -187500.02235174447, -49157.09634507851, -47615.116550340244, -78269.19296612656, -49713.74418899348, -89404.4073706159, -32477.464673216902, 0.0, 0.0, 0.0, 193.0, 0.0, 1.0, 1.0, 0.0, 0.0, 1.0, 1.0, 256.0, 1.0, 1.750529456335599E9, 0.0, 2025-06-21 20:10:56.335
68.0, -44698.25860241158, -38107.98086023103, -30478.592870067703, -74225.20360055013, -27993.01183140419, -28413.358737630697, -53428.73822793225, -102284.55540949767, -187500.02235174447, -187500.02235174447, -49179.40338604491, -47636.75303897298, -78302.09473396477, -49732.65376480267, -89455.79403111864, -32495.681344947978, 0.0, 0.0, 0.0, 193.0, 0.0, 1.0, 1.0, 0.0, 0.0, 1.0, 1.0, 256.0, 1.0, 1.750529456342702E9, 0.0, 2025-06-21 20:10:56.342
70.0, -44716.050590998006, -38129.058555252384, -30463.974829193932, -74229.22691455208, -27993.145941870924, -28377.774760457847, -53434.504978001714, -102292.33381656812, -187500.02235174447, -187500.02235174447, -49173.77074644217, -47630.025163891936, -78301.96062349805, -49728.60809905626, -89454.25176075123, -32491.61332745711, 0.0, 0.0, 0.0, 193.0, 0.0, 1.0, 1.0, 0.0, 0.0, 1.0, 1.0, 256.0, 1.0, 1.750529456349679E9, 0.0, 2025-06-21 20:10:56.349
72.0, -44702.01369548008, -38106.43858986361, -30465.226526883427, -74218.7215946581, -27984.942851655826, -28380.747542470403, -53429.56524247709, -102280.80031642919, -187500.02235174447, -187500.02235174447, -49188.567601271585, -47640.977518675034, -78303.01115548745, -49747.58473009882, -89429.106048239, -32513.20511260094, 0.0, 0.0, 0.0, 193.0, 0.0, 1.0, 1.0, 0.0, 0.0, 1.0, 1.0, 256.0, 1.0, 1.75052945635769E9, 0.0, 2025-06-21 20:10:56.357
74.0, -44703.265393169575, -38106.28212765243, -30468.288715873805, -74214.45241146714, -27992.095409881524, -28408.41900210607, -53419.43990223884, -102275.8382291601, -187500.02235174447, -187500.02235174447, -49165.6570632049, -47615.94356488509, -78309.15788521265, -49714.05711341585, -89464.31004575611, -32476.771769138788, 0.0, 0.0, 0.0, 193.0, 0.0, 1.0, 1.0, 0.0, 0.0, 1.0, 1.0, 256.0, 1.0, 1.7505294563657E9, 0.0, 2025-06-21 20:10:56.365
76.0, -44700.113797201375, -38097.16261591466, -30465.651210028078, -74226.47764998408, -27993.078886637555, -28371.136292354622, -53439.60117573752, -102290.67978747842, -187500.02235174447, -187500.02235174447, -49184.94661866983, -47635.16606511665, -78302.45236187606, -49742.57793934082, -89432.27999595166, -32507.170141598006, 0.0, 0.0, 0.0, 193.0, 0.0, 1.0, 1.0, 0.0, 0.0, 1.0, 1.0, 256.0, 1.0, 1.750529456373715E9, 0.0, 2025-06-21 20:10:56.373
78.0, -44653.71157571216, -38048.525219979914, -30435.78927943579, -74180.2095389616, -27975.644525962416, -28400.28296712434, -53394.78592810463, -102251.05014455917, -187500.02235174447, -187500.02235174447, -49162.25959804769, -47609.93094562661, -78283.96746921152, -49716.7840262394, -89441.24304547823, -32482.069132574696, 0.0, 0.0, 0.0, 193.0, 0.0, 1.0, 1.0, 0.0, 0.0, 1.0, 1.0, 256.0, 1.0, 1.750529456381712E9, 0.0, 2025-06-21 20:10:56.381
80.0, -44641.038136605996, -38031.448487216054, -30442.69596847248, -74204.2600159955, -27978.25968006369, -28366.308315552273, -53404.37482647596, -102264.99763309928, -187500.02235174447, -187500.02235174447, -49139.43846695882, -47590.015541316934, -78254.30670431933, -49690.54307824887, -89423.853388292, -32455.694074117433, 0.0, 0.0, 0.0, 193.0, 0.0, 1.0, 1.0, 0.0, 0.0, 1.0, 1.0, 256.0, 1.0, 1.750529456390755E9, 0.0, 2025-06-21 20:10:56.390
82.0, -44619.379296228806, -38007.93445204907, -30448.418015053037, -74201.98013806107, -27986.82039819007, -28396.729039755948, -53426.03366685315, -102275.10062159308, -187500.02235174447, -187500.02235174447, -49166.84170566103, -47616.34589628529, -78262.55449802334, -49723.713067020544, -89410.06236196308, -32490.76396116781, 0.0, 0.0, 0.0, 193.0, 0.0, 1.0, 1.0, 0.0, 0.0, 1.0, 1.0, 256.0, 1.0, 1.750529456397765E9, 0.0, 2025-06-21 20:10:56.397
84.0, -44578.87793527579, -37967.05311144032, -30446.674578985523, -74192.74886760103, -27995.224654105266, -28410.832990507246, -53424.46904474128, -102274.92180763744, -187500.02235174447, -187500.02235174447, -49137.27034774666, -47587.35568372675, -78256.02778864239, -49693.56056375034, -89446.62981589197, -32458.555097407712, 0.0, 0.0, 0.0, 193.0, 0.0, 1.0, 1.0, 0.0, 0.0, 1.0, 1.0, 256.0, 1.0, 1.750529456405789E9, 0.0, 2025-06-21 20:10:56.405
86.0, -44559.946007722145, -37955.89959095712, -30445.378177807117, -74204.81880960689, -27990.262566836187, -28374.89138542311, -53438.72945770377, -102297.98880791532, -187500.02235174447, -187500.02235174447, -49153.02832758765, -47605.8852798802, -78253.45733803003, -49725.79177925489, -89419.78537080114, -32491.52392047929, 0.0, 0.0, 0.0, 193.0, 0.0, 1.0, 1.0, 0.0, 0.0, 1.0, 1.0, 256.0, 1.0, 1.750529456413826E9, 0.0, 2025-06-21 20:10:56.413
88.0, -44501.09386457132, -37896.8462821062, -30434.090546857187, -74184.25520470801, -27987.24508133472, -28407.23435964994, -53422.278573784664, -102279.88389490651, -187500.02235174447, -187500.02235174447, -49127.92731856434, -47591.04372156188, -78244.51664024791, -49708.96091568004, -89433.37523142996, -32476.324734249683, 0.0, 0.0, 0.0, 193.0, 0.0, 1.0, 1.0, 0.0, 0.0, 1.0, 1.0, 256.0, 1.0, 1.750529456421851E9, 0.0, 2025-06-21 20:10:56.421
90.0, -44471.90248631269, -37873.77928182832, -30412.342299502172, -74181.8635680513, -27967.77671191415, -28381.060466892777, -53413.18141379135, -102273.31248203665, -187500.02235174447, -187500.02235174447, -49109.62123985544, -47574.19050624258, -78226.52348596138, -49693.56056375034, -89423.42870514735, -32463.09250153214, 0.0, 0.0, 0.0, 193.0, 0.0, 1.0, 1.0, 0.0, 0.0, 1.0, 1.0, 256.0, 1.0, 1.750529456429877E9, 0.0, 2025-06-21 20:10:56.429
92.0, -44439.201884174574, -37842.844467502175, -30399.668860396014, -74159.46712010707, -27972.694095694318, -28376.61246974617, -53407.57112593307, -102266.69636567788, -187500.02235174447, -187500.02235174447, -49109.084797988515, -47570.435413174084, -78212.26307299889, -49694.58874399528, -89380.80392847108, -32465.215917255395, 0.0, 0.0, 0.0, 193.0, 0.0, 1.0, 1.0, 0.0, 0.0, 1.0, 1.0, 256.0, 1.0, 1.750529456437945E9, 0.0, 2025-06-21 20:10:56.437
94.0, -44386.83174691579, -37795.74934193485, -30381.11691249811, -74136.89185820721, -27961.093540322014, -28395.700859511002, -53391.880201325446, -102252.70417364886, -187500.02235174447, -187500.02235174447, -49064.403660822354, -47528.90587197612, -78193.95699429, -49654.28854874236, -89406.86606250597, -32423.08287895714, 0.0, 0.0, 0.0, 193.0, 0.0, 1.0, 1.0, 0.0, 0.0, 1.0, 1.0, 256.0, 1.0, 1.750529456445953E9, 0.0, 2025-06-21 20:10:56.445
96.0, -44393.51491850793, -37795.302307045735, -30394.460903937925, -74159.82474801836, -27963.26165953418, -28355.62418170264, -53411.0579980681, -102267.88100813402, -187500.02235174447, -187500.02235174447, -49069.81278298054, -47532.59390981125, -78174.37686614715, -49675.142726319165, -89369.13631786541, -32443.26650420028, 0.0, 0.0, 0.0, 193.0, 0.0, 1.0, 1.0, 0.0, 0.0, 1.0, 1.0, 256.0, 1.0, 1.750529456453059E9, 0.0, 2025-06-21 20:10:56.453
98.0, -44388.821052172316, -37795.7716936793, -30416.432668737492, -74164.92094575417, -27985.792217945127, -28413.33638588624, -53409.76159688969, -102280.643854218, -187500.02235174447, -187500.02235174447, -49086.88951574439, -47552.28579667638, -78204.10468627271, -49688.06203461433, -89413.23630967573, -32457.348103207125, 0.0, 0.0, 0.0, 193.0, 0.0, 1.0, 1.0, 0.0, 0.0, 1.0, 1.0, 256.0, 1.0, 1.750529456461978E9, 0.0, 2025-06-21 20:10:56.461
100.0, -44394.811319686334, -37799.012696625316, -30412.58816869118, -74177.79555056043, -27981.008944631692, -28387.497769295904, -53415.349533003515, -102286.58941824311, -187500.02235174447, -187500.02235174447, -49083.24618139818, -47547.54722685185, -78199.83550308175, -49687.12326134721, -89423.853388292, -32454.062396772195, 0.0, 0.0, 0.0, 193.0, 0.0, 1.0, 1.0, 0.0, 0.0, 1.0, 1.0, 256.0, 1.0, 1.750529456470068E9, 0.0, 2025-06-21 20:10:56.470
102.0, -44390.49743300646, -37796.66576345751, -30413.571645447213, -74174.62160284778, -27990.664898236384, -28407.301414883306, -53419.99869585022, -102278.02870011673, -187500.02235174447, -187500.02235174447, -49100.077044973026, -47567.88731430618, -78202.11538101619, -49706.01048541194, -89392.91857396586, -32476.972934838886, 0.0, 0.0, 0.0, 193.0, 0.0, 1.0, 1.0, 0.0, 0.0, 1.0, 1.0, 256.0, 1.0, 1.750529456478083E9, 0.0, 2025-06-21 20:10:56.478
104.0, -44379.00863635643, -37789.33439127617, -30407.067287810718, -74166.50791961049, -27995.559930272095, -28415.81742952078, -53402.89961134191, -102266.78577265571, -187500.02235174447, -187500.02235174447, -49080.31810287453, -47552.86694203221, -78206.11634327368, -49678.16021182063, -89432.72703084076, -32448.85444031411, 0.0, 0.0, 0.0, 193.0, 0.0, 1.0, 1.0, 0.0, 0.0, 1.0, 1.0, 256.0, 1.0, 1.750529456485119E9, 0.0, 2025-06-21 20:10:56.485
106.0, -44395.45952027554, -37804.533577505776, -30410.88943611258, -74176.27563193746, -27987.31213656809, -28377.730056968936, -53434.303812301616, -102300.71572073887, -187500.02235174447, -187500.02235174447, -49091.94100999129, -47561.53941888087, -78195.36515419069, -49694.61109573974, -89395.86900423396, -32461.214954997893, 0.0, 0.0, 0.0, 193.0, 0.0, 1.0, 1.0, 0.0, 0.0, 1.0, 1.0, 256.0, 1.0, 1.750529456494123E9, 0.0, 2025-06-21 20:10:56.494
108.0, -44355.33813897826, -37765.37332122008, -30386.146055000554, -74143.84325073281, -27970.68243869334, -28398.09249616772, -53409.403968978404, -102272.86544714755, -187500.02235174447, -187500.02235174447, -49077.72530051772, -47550.63176758668, -78198.44969492551, -49680.864772899724, -89405.7037717943, -32451.402539182014, 0.0, 0.0, 0.0, 193.0, 0.0, 1.0, 1.0, 0.0, 0.0, 1.0, 1.0, 256.0, 1.0, 1.750529456502167E9, 0.0, 2025-06-21 20:10:56.502
110.0, -44372.101947319745, -37786.071036585694, -30398.59597666216, -74163.35632364229, -27981.2548138207, -28396.863150222678, -53412.063826568585, -102283.81780193065, -187500.02235174447, -187500.02235174447, -49059.21805610872, -47532.43744760007, -78178.35547666019, -49663.7209849025, -89397.2548123902, -32432.47061162837, 0.0, 0.0, 0.0, 193.0, 0.0, 1.0, 1.0, 0.0, 0.0, 1.0, 1.0, 256.0, 1.0, 1.750529456509173E9, 0.0, 2025-06-21 20:10:56.509
112.0, -44366.78223213938, -37775.81158588071, -30399.288880740274, -74154.68384679363, -27977.097389352013, -28386.38018207314, -53409.78394863415, -102277.22403731634, -187500.02235174447, -187500.02235174447, -49087.22479191122, -47550.9223402646, -78186.33504943074, -49694.07465387281, -89386.66008551838, -32461.729045120366, 0.0, 0.0, 0.0, 193.0, 0.0, 1.0, 1.0, 0.0, 0.0, 1.0, 1.0, 256.0, 1.0, 1.750529456517225E9, 0.0, 2025-06-21 20:10:56.517
114.0, -44364.88233386068, -37775.52101320279, -30402.485180197382, -74153.27568689296, -27985.59105224503, -28410.408307362595, -53404.68775089834, -102269.40092675698, -187500.02235174447, -187500.02235174447, -49058.43574505279, -47529.554072565326, -78184.92688953005, -49661.4187552236, -89417.08080972204, -32428.246131926317, 0.0, 0.0, 0.0, 193.0, 0.0, 1.0, 1.0, 0.0, 0.0, 1.0, 1.0, 256.0, 1.0, 1.750529456526201E9, 0.0, 2025-06-21 20:10:56.526
116.0, -44405.78602621389, -37809.920347919506, -30429.7319566884, -74189.64197512173, -28007.965148444793, -28385.530815783837, -53449.8159229536, -102310.9975231883, -187500.02235174447, -187500.02235174447, -49097.394835638384, -47560.310072935834, -78200.9083868156, -49705.92107843412, -89409.25769916268, -32470.781501624766, 0.0, 0.0, 0.0, 193.0, 0.0, 1.0, 1.0, 0.0, 0.0, 1.0, 1.0, 256.0, 1.0, 1.750529456533244E9, 0.0, 2025-06-21 20:10:56.533
118.0, -44374.337121765275, -37771.7659201343, -30411.470581468417, -74158.88597475123, -28006.22171237728, -28414.789249275836, -53417.36119000449, -102285.06949962015, -187500.02235174447, -187500.02235174447, -49099.652361828375, -47562.0758607478, -78213.11243928819, -49707.508052290446, -89435.69981285332, -32473.173138281483, 0.0, 0.0, 0.0, 193.0, 0.0, 1.0, 1.0, 0.0, 0.0, 1.0, 1.0, 256.0, 1.0, 1.750529456542269E9, 0.0, 2025-06-21 20:10:56.542
120.0, -44396.44299703157, -37797.93981289146, -30429.575494477212, -74185.14927448622, -28006.311119355098, -28404.306281126297, -53425.38546626395, -102278.386328028, -187500.02235174447, -187500.02235174447, -49089.77289077913, -47548.10602046323, -78201.19895949351, -49688.73258694799, -89432.74938258521, -32450.106138003608, 0.0, 0.0, 0.0, 193.0, 0.0, 1.0, 1.0, 0.0, 0.0, 1.0, 1.0, 256.0, 1.0, 1.750529456549294E9, 0.0, 2025-06-21 20:10:56.549
122.0, -44391.99499988497, -37796.6210599686, -30419.8301338947, -74174.21927144758, -28008.63570077845, -28411.28002539635, -53436.49428325824, -102289.15986885547, -187500.02235174447, -187500.02235174447, -49115.27623120263, -47574.61518938723, -78214.38648872214, -49716.02406692792, -89415.56089109908, -32480.213937784905, 0.0, 0.0, 0.0, 193.0, 0.0, 1.0, 1.0, 0.0, 0.0, 1.0, 1.0, 256.0, 1.0, 1.750529456557319E9, 0.0, 2025-06-21 20:10:56.557
124.0, -44383.009598613935, -37789.647315698545, -30416.16444780403, -74168.51957661148, -28002.891302453438, -28428.803793049312, -53419.685771427845, -102278.36397628355, -187500.02235174447, -187500.02235174447, -49089.88464950141, -47553.55984611033, -78214.09591604423, -49685.558639235336, -89440.43838267785, -32449.793213581233, 0.0, 0.0, 0.0, 193.0, 0.0, 1.0, 1.0, 0.0, 0.0, 1.0, 1.0, 256.0, 1.0, 1.750529456566328E9, 0.0, 2025-06-21 20:10:56.566
126.0, -44403.46144479054, -37811.99906015385, -30429.441384010483, -74186.33391694236, -27999.20326461831, -28387.363658829174, -53436.20371058032, -102300.89453469451, -187500.02235174447, -187500.02235174447, -49094.71262630375, -47559.01367175742, -78197.13094200265, -49696.108662618244, -89400.56287056957, -32460.030312541763, 0.0, 0.0, 0.0, 193.0, 0.0, 1.0, 1.0, 0.0, 0.0, 1.0, 1.0, 256.0, 1.0, 1.750529456573376E9, 0.0, 2025-06-21 20:10:56.573
128.0, -44384.90949689264, -37780.550155705234, -30428.390852021083, -74170.97826850155, -28012.569607802583, -28415.839781265233, -53421.69742842882, -102279.10158385058, -187500.02235174447, -187500.02235174447, -49113.62220211294, -47571.3294829523, -78223.75186964893, -49703.95412492206, -89435.3645366865, -32468.23340275686, 0.0, 0.0, 0.0, 193.0, 0.0, 1.0, 1.0, 0.0, 0.0, 1.0, 1.0, 256.0, 1.0, 1.750529456581389E9, 0.0, 2025-06-21 20:10:56.581
130.0, -44402.16504361213, -37806.16525485102, -30430.246046810873, -74186.78095183146, -28012.30138686912, -28406.653214294103, -53439.22119608179, -102290.07629037813, -187500.02235174447, -187500.02235174447, -49099.31708566155, -47556.30911067833, -78210.25141599792, -49689.894877659666, -89431.14005698444, -32454.75530085031, 0.0, 0.0, 0.0, 193.0, 0.0, 1.0, 1.0, 0.0, 0.0, 1.0, 1.0, 256.0, 1.0, 1.750529456589434E9, 0.0, 2025-06-21 20:10:56.589
132.0, -44396.1300726092, -37792.53069073328, -30434.11289860164, -74185.79747507542, -28014.290692125644, -28409.603644562205, -53438.12596060347, -102288.08698512161, -187500.02235174447, -187500.02235174447, -49117.846681815, -47584.22643950301, -78221.13671554765, -49721.56729955284, -89420.41121964589, -32486.315964021203, 0.0, 0.0, 0.0, 193.0, 0.0, 1.0, 1.0, 0.0, 0.0, 1.0, 1.0, 256.0, 1.0, 1.750529456598463E9, 0.0, 2025-06-21 20:10:56.598
134.0, -44380.975589868496, -37783.58999295116, -30418.041994338277, -74163.91511725368, -28003.181875131355, -28431.262484939398, -53424.7596174192, -102280.59915072909, -187500.02235174447, -187500.02235174447, -49092.1868791803, -47557.65021534565, -78216.46520095649, -49681.781194422394, -89436.4150686759, -32448.47446065837, 0.0, 0.0, 0.0, 193.0, 0.0, 1.0, 1.0, 0.0, 0.0, 1.0, 1.0, 256.0, 1.0, 1.750529456605469E9, 0.0, 2025-06-21 20:10:56.605
136.0, -44405.89778493617, -37812.91548167652, -30427.563837476235, -74184.29990819692, -28009.172142645377, -28403.255749136897, -53444.74207696225, -102301.34156958362, -187500.02235174447, -187500.02235174447, -49100.99346649569, -47556.107944978234, -78201.89186357164, -49695.39340679567, -89399.02060020216, -32463.070149787683, 0.0, 0.0, 0.0, 193.0, 0.0, 1.0, 1.0, 0.0, 0.0, 1.0, 1.0, 256.0, 1.0, 1.750529456613503E9, 0.0, 2025-06-21 20:10:56.613
138.0, -44396.51005226494, -37802.83484492717, -30434.895209657578, -74180.63422210625, -28022.739651529748, -28441.901915300125, -53459.404821324926, -102292.33381656812, -187500.02235174447, -187500.02235174447, -49116.48322540322, -47571.7318143525, -78226.94816910604, -49708.80445346886, -89435.23042621976, -32477.84465287264, 0.0, 0.0, 0.0, 193.0, 0.0, 1.0, 1.0, 0.0, 0.0, 1.0, 1.0, 256.0, 1.0, 1.75052945662153E9, 0.0, 2025-06-21 20:10:56.621
140.0, -44389.26808706142, -37794.38588552307, -30424.769869419324, -74182.40000991822, -28007.83103797806, -28408.57546431726, -53446.8654926855, -102300.20163061639, -187500.02235174447, -187500.02235174447, -49105.91085027586, -47562.94757878156, -78218.05217481282, -49706.47987204551, -89444.19347574633, -32473.307248748217, 0.0, 0.0, 0.0, 193.0, 0.0, 1.0, 1.0, 0.0, 0.0, 1.0, 1.0, 256.0, 1.0, 1.750529456629557E9, 0.0, 2025-06-21 20:10:56.629
142.0, -44395.727741209004, -37797.537481491265, -30438.382081792606, -74193.55353040142, -28021.15267767342, -28407.212007905488, -53471.60887379752, -102352.661174853, -187500.02235174447, -187500.02235174447, -49112.28109744562, -47573.07291901981, -78212.93362533256, -49719.041552429386, -89418.22074868927, -32487.120626821594, 0.0, 0.0, 0.0, 193.0, 0.0, 1.0, 1.0, 0.0, 0.0, 1.0, 1.0, 256.0, 1.0, 1.750529456637611E9, 0.0, 2025-06-21 20:10:56.637
144.0, -44396.06301737583, -37805.07001937271, -30430.178991577508, -74175.26980343698, -28018.78339276116, -28433.34119717374, -53419.75282666121, -102273.42424075893, -187500.02235174447, -187500.02235174447, -49107.16254796536, -47570.61422712973, -78235.68770118806, -49708.71504649104, -89459.83969686505, -32478.783426139766, 0.0, 0.0, 0.0, 193.0, 0.0, 1.0, 1.0, 0.0, 0.0, 1.0, 1.0, 256.0, 1.0, 1.75052945664561E9, 0.0, 2025-06-21 20:10:56.645
146.0, -44404.91430818013, -37814.43540029948, -30432.280055556304, -74192.14537050073, -28019.453945094818, -28409.87186549567, -53457.303757346126, -102303.46498530687, -187500.02235174447, -187500.02235174447, -49107.117844476445, -47571.41888993012, -78218.49920970193, -49701.31661907633, -89409.92825149636, -32467.85342310112, 0.0, 0.0, 0.0, 193.0, 0.0, 1.0, 1.0, 0.0, 0.0, 1.0, 1.0, 256.0, 1.0, 1.750529456654706E9, 0.0, 2025-06-21 20:10:56.654
148.0, -44386.94350563807, -37790.45197849894, -30418.220808293918, -74164.76448354298, -28011.29555836863, -28436.939828031045, -53437.47776001427, -102271.09965933558, -187500.02235174447, -187500.02235174447, -49104.27917293062, -47567.06029976133, -78224.9141603606, -49698.54500276387, -89426.93792902684, -32467.875774845576, 0.0, 0.0, 0.0, 193.0, 0.0, 1.0, 1.0, 0.0, 0.0, 1.0, 1.0, 256.0, 1.0, 1.750529456660688E9, 0.0, 2025-06-21 20:10:56.660
150.0, -44393.04553187436, -37796.710466946424, -30428.457907254447, -74192.34653620083, -28009.0603839231, -28410.743583529424, -53454.88976894495, -102289.33868281111, -187500.02235174447, -187500.02235174447, -49090.488146601696, -47558.36547116822, -78217.60513992372, -49688.24084856998, -89426.73676332674, -32456.699902617922, 0.0, 0.0, 0.0, 193.0, 0.0, 1.0, 1.0, 0.0, 0.0, 1.0, 1.0, 256.0, 1.0, 1.75052945666967E9, 0.0, 2025-06-21 20:10:56.669
152.0, -44407.7306279815, -37819.285728846284, -30431.20717182245, -74194.02291703498, -28009.418011834387, -28415.23628416494, -53454.19686486684, -102299.86635444956, -187500.02235174447, -187500.02235174447, -49115.83502481402, -47589.27793374991, -78231.48557323046, -49723.78012225391, -89420.76884755718, -32494.027315858286, 0.0, 0.0, 0.0, 193.0, 0.0, 1.0, 1.0, 0.0, 0.0, 1.0, 1.0, 256.0, 1.0, 1.750529456677745E9, 0.0, 2025-06-21 20:10:56.677
154.0, -44446.77912554493, -37849.79586002778, -30432.6823869565, -74187.87618730977, -28014.938892714847, -28436.179868719562, -53447.156065363415, -102281.22499957384, -187500.02235174447, -187500.02235174447, -49109.4424258998, -47573.89993356466, -78240.7168436905, -49701.87541268771, -89444.81932459108, -32473.32960049267, 0.0, 0.0, 0.0, 193.0, 0.0, 1.0, 1.0, 0.0, 0.0, 1.0, 1.0, 256.0, 1.0, 1.750529456685792E9, 0.0, 2025-06-21 20:10:56.685
156.0, -44521.81393168139, -37929.72569819995, -30445.132308618107, -74211.90431259922, -28008.948625200825, -28420.734813300947, -53465.551551050135, -102307.53300279773, -187500.02235174447, -187500.02235174447, -49116.5949841255, -47581.007788301446, -78231.2620557859, -49710.726703492015, -89412.00696373069, -32480.23628952936, 0.0, 0.0, 0.0, 193.0, 0.0, 1.0, 1.0, 0.0, 0.0, 1.0, 1.0, 256.0, 1.0, 1.75052945669382E9, 0.0, 2025-06-21 20:10:56.693
158.0, -44601.40849368674, -38018.08214403178, -30473.094340931697, -74228.91399012972, -28031.166259189402, -28468.746360390945, -53481.75656578023, -102329.03538096373, -187500.02235174447, -187500.02235174447, -49167.936941139335, -47627.16414060166, -78287.34258262427, -49745.30485216437, -89468.10984231351, -32516.04378414676, 0.0, 0.0, 0.0, 193.0, 0.0, 1.0, 1.0, 0.0, 0.0, 1.0, 1.0, 256.0, 1.0, 1.750529456701852E9, 0.0, 2025-06-21 20:10:56.701
160.0, -44682.83589873742, -38047.25117054596, -30485.45485561548, -74246.30364731594, -28028.662863810405, -28435.35285417472, -53480.34840587955, -102322.03928494922, -187500.02235174447, -187500.02235174447, -49173.21195283079, -47632.305041826374, -78295.12098969473, -49738.01818347194, -89470.65794118142, -32508.086563120673, 0.0, 0.0, 0.0, 193.0, 0.0, 1.0, 1.0, 0.0, 0.0, 1.0, 1.0, 256.0, 1.0, 1.750529456709878E9, 0.0, 2025-06-21 20:10:56.709
162.0, -44767.03492010057, -38175.952515119614, -30483.04086721431, -74240.8721734133, -28013.486029325253, -28448.473328169985, -53472.34648136455, -102291.7973747012, -187500.02235174447, -187500.02235174447, -49204.236174134756, -47663.23985615252, -78315.05874574886, -49760.05700350487, -89459.8173451206, -32526.124420896107, 0.0, 0.0, 0.0, 193.0, 0.0, 1.0, 1.0, 0.0, 0.0, 1.0, 1.0, 256.0, 1.0, 1.750529456716906E9, 0.0, 2025-06-21 20:10:56.716
164.0, -44825.35062138446, -38261.15736498325, -30481.61035556917, -74236.13360358878, -28012.681366524863, -28470.713313903012, -53461.90821670392, -102302.12388063954, -187500.02235174447, -187500.02235174447, -49198.67058976538, -47644.419687321155, -78324.02179527543, -49731.04443920189, -89471.12732781497, -32502.208054328927, 0.0, 0.0, 0.0, 193.0, 0.0, 1.0, 1.0, 0.0, 0.0, 1.0, 1.0, 256.0, 1.0, 1.750529456725939E9, 0.0, 2025-06-21 20:10:56.725
166.0, -44911.248375326206, -38315.42740052073, -30504.78911456932, -74268.92361270472, -28017.12936367147, -28436.53749663085, -53478.20263841184, -102322.7992442607, -187500.02235174447, -187500.02235174447, -49234.20986344932, -47674.86276326928, -78338.93040882712, -49756.45837264757, -89457.80568811962, -32525.811496473732, 0.0, 0.0, 0.0, 193.0, 0.0, 1.0, 1.0, 0.0, 0.0, 1.0, 1.0, 256.0, 1.0, 1.75052945673391E9, 0.0, 2025-06-21 20:10:56.733
168.0, -44958.47761136027, -38378.16874720678, -30509.818257071765, -74255.26669684252, -28026.204171920323, -28481.978593108488, -53466.043289428155, -102313.5456220562, -187500.02235174447, -187500.02235174447, -49235.1709884609, -47680.94243776112, -78355.47069972404, -49756.21250345856, -89474.48008948327, -32526.705566251945, 0.0, 0.0, 0.0, 193.0, 0.0, 1.0, 1.0, 0.0, 0.0, 1.0, 1.0, 256.0, 1.0, 1.750529456740978E9, 0.0, 2025-06-21 20:10:56.740
170.0, -44994.28510597767, -38405.46022718671, -30527.766707869378, -74285.39684836827, -28023.54431433014, -28468.902822602133, -53493.4241763859, -102330.84587226462, -187500.02235174447, -187500.02235174447, -49257.500381171754, -47693.52646988946, -78375.38610403372, -49766.449602419096, -89493.23320308128, -32535.95918845644, 0.0, 0.0, 0.0, 193.0, 0.0, 1.0, 1.0, 0.0, 0.0, 1.0, 1.0, 256.0, 1.0, 1.750529456748956E9, 0.0, 2025-06-21 20:10:56.748
172.0, -45013.75347539824, -38417.865445359406, -30534.673396906066, -74294.65047057277, -28029.02049172169, -28478.98345935148, -53494.74292930877, -102333.52808159926, -187500.02235174447, -187500.02235174447, -49278.10868955954, -47716.61582191179, -78386.20434835009, -49791.50590795349, -89482.99610412076, -32560.993142246385, 0.0, 0.0, 0.0, 193.0, 0.0, 1.0, 1.0, 0.0, 0.0, 1.0, 1.0, 256.0, 1.0, 1.750529456758011E9, 0.0, 2025-06-21 20:10:56.758
174.0, -44987.2666582187, -38389.65754385681, -30537.04268181833, -74295.81276128444, -28025.31010214211, -28484.906671632132, -53497.64865608796, -102334.10922695509, -187500.02235174447, -187500.02235174447, -49269.99500632227, -47713.50892943251, -78397.08964789983, -49783.079300293844, -89520.72584876131, -32555.15933694355, 0.0, 0.0, 0.0, 193.0, 0.0, 1.0, 1.0, 0.0, 0.0, 1.0, 1.0, 256.0, 1.0, 1.750529456765996E9, 0.0, 2025-06-21 20:10:56.765
176.0, -44998.844861846555, -38404.27558473058, -30557.60628671721, -74322.41133718626, -28027.388814376453, -28467.986401079466, -53530.416313459435, -102355.52219814327, -187500.02235174447, -187500.02235174447, -49292.90554438896, -47737.44764774414, -78401.04590666841, -49811.64482970772, -89509.54997653366, -32580.97560178943, 0.0, 0.0, 0.0, 193.0, 0.0, 1.0, 1.0, 0.0, 0.0, 1.0, 1.0, 256.0, 1.0, 1.750529456773085E9, 0.0, 2025-06-21 20:10:56.773
178.0, -44950.54274207864, -38354.721767273164, -30543.8599638772, -74295.76805779553, -28031.188610933856, -28498.965918894522, -53524.35899071205, -102347.63203235055, -187500.02235174447, -187500.02235174447, -49283.67427392892, -47726.29412726094, -78405.78447649295, -49806.638038949735, -89527.36431686454, -32576.617011620645, 0.0, 0.0, 0.0, 193.0, 0.0, 1.0, 1.0, 0.0, 0.0, 1.0, 1.0, 256.0, 1.0, 1.750529456781103E9, 0.0, 2025-06-21 20:10:56.781
180.0, -44934.36007909299, -38349.37970034834, -30542.965894098987, -74306.89922653428, -28035.010759235713, -28472.970840093, -53523.62138314502, -102356.14804698802, -187500.02235174447, -187500.02235174447, -49268.475087699306, -47716.74993237852, -78392.66400249768, -49795.52922195545, -89526.13497091949, -32565.15056671507, 0.0, 0.0, 0.0, 193.0, 0.0, 1.0, 1.0, 0.0, 0.0, 1.0, 1.0, 256.0, 1.0, 1.750529456790119E9, 0.0, 2025-06-21 20:10:56.790
182.0, -44876.80433712058, -38288.56060368545, -30509.304166949296, -74275.29385987448, -27993.2577005932, -28464.030142310876, -53488.283275161186, -102320.38525585954, -187500.02235174447, -187500.02235174447, -49254.88522707048, -47712.30193523192, -78369.68640919762, -49794.389282988224, -89493.63553448148, -32564.54706961478, 0.0, 0.0, 0.0, 193.0, 0.0, 1.0, 1.0, 0.0, 0.0, 1.0, 1.0, 256.0, 1.0, 1.750529456797149E9, 0.0, 2025-06-21 20:10:56.797
184.0, -44861.672206124334, -38275.373074456824, -30523.631635145146, -74287.27439490252, -28017.531695071662, -28477.664706428615, -53497.76041481023, -102341.93233751444, -187500.02235174447, -187500.02235174447, -49228.64427907995, -47690.46428089908, -78364.05376959489, -49766.784878585924, -89507.27009859921, -32540.407185603046, 0.0, 0.0, 0.0, 193.0, 0.0, 1.0, 1.0, 0.0, 0.0, 1.0, 1.0, 256.0, 1.0, 1.750529456805152E9, 0.0, 2025-06-21 20:10:56.805
186.0, -44840.125124469414, -38251.121431722815, -30521.150591510606, -74291.00713622656, -28003.11481989799, -28462.8678515992, -53500.28616193368, -102344.74865731581, -187500.02235174447, -187500.02235174447, -49243.59759612055, -47702.3107054604, -78358.73405441453, -49794.47868996605, -89493.68023797039, -32565.172918459528, 0.0, 0.0, 0.0, 193.0, 0.0, 1.0, 1.0, 0.0, 0.0, 1.0, 1.0, 256.0, 1.0, 1.750529456814189E9, 0.0, 2025-06-21 20:10:56.814
188.0, -44806.48574906418, -38223.360565109324, -30509.192408227016, -74272.34342960638, -27997.16925587288, -28498.943567150065, -53482.874153003, -102332.74577054332, -187500.02235174447, -187500.02235174447, -49231.46059888132, -47696.16397573519, -78358.75640615898, -49780.57590491485, -89502.39741830796, -32552.29831365327, 0.0, 0.0, 0.0, 193.0, 0.0, 1.0, 1.0, 0.0, 0.0, 1.0, 1.0, 256.0, 1.0, 1.750529456822243E9, 0.0, 2025-06-21 20:10:56.822
190.0, -44804.94347869676, -38224.38874535427, -30511.718155350467, -74288.70490654766, -28010.759116501704, -28463.381941721673, -53486.07045246011, -102333.68454381044, -187500.02235174447, -187500.02235174447, -49218.40718011942, -47682.998798251014, -78349.88276361022, -49766.31549195236, -89494.48490077078, -32538.7308047689, 0.0, 0.0, 0.0, 193.0, 0.0, 1.0, 1.0, 0.0, 0.0, 1.0, 1.0, 256.0, 1.0, 1.750529456829257E9, 0.0, 2025-06-21 20:10:56.829
192.0, -44791.33126632348, -38205.188596867156, -30529.823068359266, -74294.49400836158, -28008.43453507835, -28489.35466877874, -53492.463051374325, -102337.84196827913, -187500.02235174447, -187500.02235174447, -49245.63160486599, -47704.2106037391, -78363.6961416836, -49797.6526376787, -89491.93680190288, -32569.643267350588, 0.0, 0.0, 0.0, 193.0, 0.0, 1.0, 1.0, 0.0, 0.0, 1.0, 1.0, 256.0, 1.0, 1.750529456839292E9, 0.0, 2025-06-21 20:10:56.839
194.0, -44756.887228117856, -38169.44815748312, -30516.009690285886, -74279.56304306544, -28018.470468338786, -28474.58016569378, -53476.459202344326, -102328.47658735236, -187500.02235174447, -187500.02235174447, -49232.332316915075, -47692.34182743333, -78368.65822895269, -49783.079300293844, -89525.55382556365, -32554.91346775454, 0.0, 0.0, 0.0, 193.0, 0.0, 1.0, 1.0, 0.0, 0.0, 1.0, 1.0, 256.0, 1.0, 1.750529456846284E9, 0.0, 2025-06-21 20:10:56.846
196.0, -44758.00481534062, -38172.9126778737, -30516.479076919448, -74291.05183971547, -28006.35582284401, -28449.456804926016, -53487.27744666069, -102334.98094498884, -187500.02235174447, -187500.02235174447, -49223.61513657751, -47689.860783798795, -78346.08296705282, -49790.209506775085, -89493.30025831464, -32560.07672072372, 0.0, 0.0, 0.0, 193.0, 0.0, 1.0, 1.0, 0.0, 0.0, 1.0, 1.0, 256.0, 1.0, 1.750529456853311E9, 0.0, 2025-06-21 20:10:56.853
198.0, -44743.92321633377, -38158.473450955564, -30516.859056575187, -74282.7369907781, -28017.822267749583, -28488.572357722805, -53482.85180125854, -102331.53877634273, -187500.02235174447, -187500.02235174447, -49228.621927335495, -47692.990028022534, -78359.44931023709, -49790.29891375291, -89507.33715383257, -32564.189441703493, 0.0, 0.0, 0.0, 193.0, 0.0, 1.0, 1.0, 0.0, 0.0, 1.0, 1.0, 256.0, 1.0, 1.750529456861329E9, 0.0, 2025-06-21 20:10:56.861
200.0, -44731.89797781682, -38150.583285162844, -30513.7521640959, -74288.81666526993, -27994.621157004975, -28458.95629631952, -53488.685606561376, -102339.11601771308, -187500.02235174447, -187500.02235174447, -49214.5179765842, -47681.56828660587, -78348.72047289854, -49781.268808992965, -89501.34688631856, -32556.411034633045, 0.0, 0.0, 0.0, 193.0, 0.0, 1.0, 1.0, 0.0, 0.0, 1.0, 1.0, 256.0, 1.0, 1.75052945686936E9, 0.0, 2025-06-21 20:10:56.869
202.0, -44719.269242199574, -38138.53569490143, -30516.74729785291, -74286.62619431331, -28003.427744320365, -28475.787159894368, -53493.804156041646, -102342.96051775939, -187500.02235174447, -187500.02235174447, -49230.49947386974, -47693.86174605629, -78353.28022876743, -49806.12394882726, -89490.64040072447, -32579.612145377654, 0.0, 0.0, 0.0, 193.0, 0.0, 1.0, 1.0, 0.0, 0.0, 1.0, 1.0, 256.0, 1.0, 1.750529456878397E9, 0.0, 2025-06-21 20:10:56.878
204.0, -44698.59387857842, -38123.31415692737, -30505.45966690298, -74274.39979009626, -27993.168293615377, -28486.337183277272, -53475.408670354926, -102321.18991865992, -187500.02235174447, -187500.02235174447, -49204.75026425723, -47673.02992022395, -78346.26178100846, -49774.74209961201, -89505.86193869852, -32549.057310707252, 0.0, 0.0, 0.0, 193.0, 0.0, 1.0, 1.0, 0.0, 0.0, 1.0, 1.0, 256.0, 1.0, 1.750529456885433E9, 0.0, 2025-06-21 20:10:56.885
206.0, -44718.03989625453, -38135.07117451086, -30516.121449008162, -74295.09750546188, -28012.457849080307, -28458.553964919327, -53502.63309510149, -102335.11505545558, -187500.02235174447, -187500.02235174447, -49219.055380708625, -47685.56924886337, -78345.09949029678, -49797.16089930069, -89487.98054313428, -32568.592735361188, 0.0, 0.0, 0.0, 193.0, 0.0, 1.0, 1.0, 0.0, 0.0, 1.0, 1.0, 256.0, 1.0, 1.750529456893442E9, 0.0, 2025-06-21 20:10:56.893
208.0, -44687.88739298432, -38098.41431360415, -30501.57046336776, -74270.64469702778, -28001.617253019485, -28486.672459444104, -53472.07826043109, -102325.32499138416, -187500.02235174447, -187500.02235174447, -49214.47327309529, -47690.44192915463, -78348.34049324281, -49795.28335276644, -89508.14181663297, -32567.184575460506, 0.0, 0.0, 0.0, 193.0, 0.0, 1.0, 1.0, 0.0, 0.0, 1.0, 1.0, 256.0, 1.0, 1.750529456901511E9, 0.0, 2025-06-21 20:10:56.901
210.0, -44675.32571260044, -38093.63104029072, -30493.635594086125, -74266.91195570373, -27996.990441917234, -28462.68903764356, -53472.03355694217, -102335.2044624334, -187500.02235174447, -187500.02235174447, -49185.281894836655, -47656.24376013801, -78321.36193768524, -49769.869419320756, -89492.33913330307, -32542.038862948284, 0.0, 0.0, 0.0, 193.0, 0.0, 1.0, 1.0, 0.0, 0.0, 1.0, 1.0, 256.0, 1.0, 1.750529456909501E9, 0.0, 2025-06-21 20:10:56.909
212.0, -44692.71536978667, -38109.59018583181, -30506.867826803667, -74274.64565928528, -28006.914616455393, -28471.897956359146, -53492.30658916314, -102362.65240462452, -187500.02235174447, -187500.02235174447, -49213.959182972816, -47677.58967609283, -78332.64956863518, -49796.646809178215, -89489.79103443517, -32566.938706271496, 0.0, 0.0, 0.0, 193.0, 0.0, 1.0, 1.0, 0.0, 0.0, 1.0, 1.0, 256.0, 1.0, 1.750529456917637E9, 0.0, 2025-06-21 20:10:56.917
214.0, -44667.681415996725, -38088.40073208818, -30484.583137581725, -74248.89644967276, -28000.186741374346, -28460.655028898127, -53467.58555979557, -102309.63406677653, -187500.02235174447, -187500.02235174447, -49190.69101699484, -47651.84046648032, -78325.3852516872, -49755.00550925798, -89492.76381644772, -32526.303234851748, 0.0, 0.0, 0.0, 193.0, 0.0, 1.0, 1.0, 0.0, 0.0, 1.0, 1.0, 256.0, 1.0, 1.750529456925576E9, 0.0, 2025-06-21 20:10:56.925
216.0, -44684.48992782711, -38101.90118573918, -30488.897024261598, -74265.16851963622, -28000.0079274187, -28450.909668315613, -53494.36294965303, -102344.905119527, -187500.02235174447, -187500.02235174447, -49194.98255193026, -47661.876399740744, -78319.28322545091, -49766.22608497454, -89465.3158742566, -32535.422746589513, 0.0, 0.0, 0.0, 193.0, 0.0, 1.0, 1.0, 0.0, 0.0, 1.0, 1.0, 256.0, 1.0, 1.750529456934639E9, 0.0, 2025-06-21 20:10:56.934
218.0, -44675.88450621182, -38092.46874957904, -30488.494692861404, -74256.56309802092, -28009.86504672349, -28480.682191930082, -53491.16665019592, -102335.18211068894, -187500.02235174447, -187500.02235174447, -49193.395578073934, -47660.982329962535, -78328.26862672194, -49762.51569539496, -89484.24780181024, -32534.506325066846, 0.0, 0.0, 0.0, 193.0, 0.0, 1.0, 1.0, 0.0, 0.0, 1.0, 1.0, 256.0, 1.0, 1.75052945694063E9, 0.0, 2025-06-21 20:10:56.940
220.0, -44670.49773579809, -38088.33367685481, -30487.444160872004, -74258.530051533, -28007.78633448915, -28470.579203436282, -53487.25509491624, -102335.98677348933, -187500.02235174447, -187500.02235174447, -49194.26729610769, -47656.75785026048, -78322.70304235257, -49754.46906739105, -89485.61125822202, -32526.705566251945, 0.0, 0.0, 0.0, 193.0, 0.0, 1.0, 1.0, 0.0, 0.0, 1.0, 1.0, 256.0, 1.0, 1.750529456949659E9, 0.0, 2025-06-21 20:10:56.949
222.0, -44653.01867163404, -38075.436720304104, -30479.486939845916, -74242.1238711028, -27992.900072681914, -28455.089444528752, -53478.24734190075, -102318.50770932529, -187500.02235174447, -187500.02235174447, -49193.462633307296, -47649.20296063459, -78309.44845789057, -49759.9452447826, -89462.07487131059, -32529.991272686875, 0.0, 0.0, 0.0, 193.0, 0.0, 1.0, 1.0, 0.0, 0.0, 1.0, 1.0, 256.0, 1.0, 1.750529456957656E9, 0.0, 2025-06-21 20:10:56.957
224.0, -44654.20331409018, -38073.15684236966, -30486.393628882604, -74251.80217645195, -28000.656128007908, -28470.44509296955, -53476.593312811056, -102322.97805821635, -187500.02235174447, -187500.02235174447, -49178.084633122045, -47640.26226285246, -78315.81870506033, -49739.33693639481, -89484.06898785461, -32510.500551521847, 0.0, 0.0, 0.0, 193.0, 0.0, 1.0, 1.0, 0.0, 0.0, 1.0, 1.0, 256.0, 1.0, 1.750529456965761E9, 0.0, 2025-06-21 20:10:56.965
226.0, -44672.06235790996, -38094.815682746856, -30494.864940031166, -74275.6291360413, -28009.64152927894, -28455.692941629048, -53502.63309510149, -102343.78753230424, -187500.02235174447, -187500.02235174447, -49198.46942406529, -47668.447812610604, -78324.58058888682, -49772.97631180004, -89476.44704299535, -32542.307083881748, 0.0, 0.0, 0.0, 193.0, 0.0, 1.0, 1.0, 0.0, 0.0, 1.0, 1.0, 256.0, 1.0, 1.750529456973807E9, 0.0, 2025-06-21 20:10:56.973
228.0, -44656.52789551352, -38077.738949982995, -30492.875634774642, -74254.81966195341, -28012.524904313676, -28482.06800008631, -53484.37171988151, -102333.30456415469, -187500.02235174447, -187500.02235174447, -49195.20606937481, -47664.33509163083, -78327.44161217709, -49767.23191347503, -89488.00289487874, -32537.85908673514, 0.0, 0.0, 0.0, 193.0, 0.0, 1.0, 1.0, 0.0, 0.0, 1.0, 1.0, 256.0, 1.0, 1.750529456981789E9, 0.0, 2025-06-21 20:10:56.981
230.0, -44667.61436076336, -38089.38420884421, -30503.582120368737, -74272.81281623994, -28013.97776770327, -28466.891165601155, -53514.99360978528, -102347.96730851739, -187500.02235174447, -187500.02235174447, -49194.53551704115, -47660.825867751344, -78329.96735930054, -49767.0978030083, -89495.91541241591, -32535.087470422684, 0.0, 0.0, 0.0, 193.0, 0.0, 1.0, 1.0, 0.0, 0.0, 1.0, 1.0, 256.0, 1.0, 1.750529456989856E9, 0.0, 2025-06-21 20:10:56.989
232.0, -44659.47832578162, -38075.369665070735, -30491.89215801861, -74258.75356897755, -28001.103162897012, -28464.72304638899, -53467.518504562206, -102332.18697693193, -187500.02235174447, -187500.02235174447, -49204.63850553495, -47670.66063531168, -78328.24627497749, -49780.642960148216, -89474.70360692783, -32549.30317989626, 0.0, 0.0, 0.0, 193.0, 0.0, 1.0, 1.0, 0.0, 0.0, 1.0, 1.0, 256.0, 1.0, 1.750529456996859E9, 0.0, 2025-06-21 20:10:56.996
234.0, -44649.19652333218, -38068.73119696751, -30483.756123036877, -74252.24921134106, -28004.567683287583, -28469.372209235695, -53465.551551050135, -102329.84004376412, -187500.02235174447, -187500.02235174447, -49184.83485994755, -47653.4497920811, -78326.27932146542, -49750.51280862246, -89488.80755767913, -32523.53161853929, 0.0, 0.0, 0.0, 193.0, 0.0, 1.0, 1.0, 0.0, 0.0, 1.0, 1.0, 256.0, 1.0, 1.750529457005838E9, 0.0, 2025-06-21 20:10:57.005
236.0, -44671.97295093214, -38090.34533385579, -30498.731791821934, -74279.13835992079, -28009.30625311211, -28456.63171489617, -53505.09178699157, -102362.67475636897, -187500.02235174447, -187500.02235174447, -49194.91549669689, -47664.60331256429, -78323.23948421949, -49774.71974786756, -89471.5743627041, -32546.464508350437, 0.0, 0.0, 0.0, 193.0, 0.0, 1.0, 1.0, 0.0, 0.0, 1.0, 1.0, 256.0, 1.0, 1.750529457013918E9, 0.0, 2025-06-21 20:10:57.013
238.0, -44643.40742151826, -38060.52810675241, -30483.8455300147, -74247.8235659389, -27998.935043684847, -28486.292479788364, -53467.56320805111, -102324.2074041614, -187500.02235174447, -187500.02235174447, -49195.65310426392, -47663.66453929717, -78328.87212382224, -49772.50692516648, -89488.40522627893, -32546.956246728452, 0.0, 0.0, 0.0, 193.0, 0.0, 1.0, 1.0, 0.0, 0.0, 1.0, 1.0, 256.0, 1.0, 1.750529457021942E9, 0.0, 2025-06-21 20:10:57.021
240.0, -44657.48902052511, -38079.840013961795, -30498.552977866293, -74272.9245749622, -28009.239197878745, -28465.460653956015, -53488.35033039455, -102347.654384095, -187500.02235174447, -187500.02235174447, -49176.52001101017, -47645.738440244015, -78313.44942014807, -49762.18041922813, -89486.50532800023, -32534.77454600031, 0.0, 0.0, 0.0, 193.0, 0.0, 1.0, 1.0, 0.0, 0.0, 1.0, 1.0, 256.0, 1.0, 1.750529457028939E9, 0.0, 2025-06-21 20:10:57.028
242.0, -44657.8913519253, -38080.15293838417, -30498.552977866293, -74274.3774383518, -28002.69013675334, -28468.05345631283, -53490.54080135117, -102349.39782016251, -187500.02235174447, -187500.02235174447, -49212.193395160844, -47682.52941161745, -78335.2870744809, -49804.02288484846, -89491.95915364733, -32576.50525289837, 0.0, 0.0, 0.0, 193.0, 0.0, 1.0, 1.0, 0.0, 0.0, 1.0, 1.0, 256.0, 1.0, 1.750529457037997E9, 0.0, 2025-06-21 20:10:57.037
244.0, -44624.20727303115, -38045.21716180052, -30469.562765307757, -74243.017940881, -27996.632814005952, -28466.0194475674, -53459.02484166919, -102315.78079650174, -187500.02235174447, -187500.02235174447, -49171.088537107535, -47644.17381813214, -78314.72346958202, -49755.810172058365, -89491.69093271387, -32529.074851164205, 0.0, 0.0, 0.0, 193.0, 0.0, 1.0, 1.0, 0.0, 0.0, 1.0, 1.0, 256.0, 1.0, 1.750529457046004E9, 0.0, 2025-06-21 20:10:57.046
246.0, -44648.727136698624, -38071.525165024424, -30490.573405095747, -74269.63886852728, -28002.3101570976, -28454.508299172914, -53488.95382749484, -102344.52513987126, -187500.02235174447, -187500.02235174447, -49180.185697100846, -47647.839504222815, -78304.03933573239, -49769.13181175373, -89462.70072015534, -32538.01554894633, 0.0, 0.0, 0.0, 193.0, 0.0, 1.0, 1.0, 0.0, 0.0, 1.0, 1.0, 256.0, 1.0, 1.750529457053056E9, 0.0, 2025-06-21 20:10:57.053
248.0, -44626.5318544545, -38046.60296995675, -30478.36935262315, -74241.49802225805, -27992.743610470727, -28466.086502800765, -53466.91500746191, -102326.97902047385, -187500.02235174447, -187500.02235174447, -49188.23232510476, -47653.6956612701, -78321.16077198515, -49773.44569843361, -89486.84060416707, -32544.6316653051, 0.0, 0.0, 0.0, 193.0, 0.0, 1.0, 1.0, 0.0, 0.0, 1.0, 1.0, 256.0, 1.0, 1.750529457061054E9, 0.0, 2025-06-21 20:10:57.061
250.0, -44652.75045070058, -38072.352179569265, -30495.401381898093, -74270.68940051668, -28006.847561222025, -28460.476214942482, -53482.49417334726, -102342.6028898481, -187500.02235174447, -187500.02235174447, -49177.458784277296, -47645.26905361046, -78314.32113818183, -49760.079355249334, -89486.1700518334, -32530.930045953995, 0.0, 0.0, 0.0, 193.0, 0.0, 1.0, 1.0, 0.0, 0.0, 1.0, 1.0, 256.0, 1.0, 1.750529457070068E9, 0.0, 2025-06-21 20:10:57.070
252.0, -44650.38116578831, -38071.27929583541, -30503.403306413093, -74272.65635402875, -28012.2119798913, -28466.39942722314, -53485.57871408209, -102349.3531166736, -187500.02235174447, -187500.02235174447, -49204.727912512775, -47670.1018417003, -78326.16756274314, -49794.32222775486, -89482.32555178709, -32564.569421359232, 0.0, 0.0, 0.0, 193.0, 0.0, 1.0, 1.0, 0.0, 0.0, 1.0, 1.0, 256.0, 1.0, 1.750529457077071E9, 0.0, 2025-06-21 20:10:57.077
254.0, -44631.62805219031, -38053.3308450378, -30488.13706495012, -74255.64667649826, -28004.92531119887, -28473.797854637847, -53472.7711645092, -102332.47754960986, -187500.02235174447, -187500.02235174447, -49190.26633385019, -47656.82490549385, -78333.63304539121, -49771.65755887718, -89511.44987481236, -32541.502421081357, 0.0, 0.0, 0.0, 193.0, 0.0, 1.0, 1.0, 0.0, 0.0, 1.0, 1.0, 256.0, 1.0, 1.750529457085096E9, 0.0, 2025-06-21 20:10:57.085
0.0, -44645.84376166389, -38063.94792365407, -30493.993221997407, -74272.16461565073, -28003.29363385363, -28431.754223317414, -53484.66229255943, -102347.56497711719, -187500.02235174447, -187500.02235174447, -49186.44418554833, -47654.03093743693, -78310.87896953571, -49779.07833803634, -89474.63655169446, -32548.051482206763, 0.0, 0.0, 0.0, 193.0, 0.0, 1.0, 1.0, 0.0, 0.0, 1.0, 1.0, 256.0, 1.0, 1.750529457094118E9, 0.0, 2025-06-21 20:10:57.094
2.0, -44624.184921286695, -38044.30074027786, -30487.533567849827, -74245.45428102664, -28001.349032086022, -28481.240985541463, -53457.795495724145, -102326.24141290682, -187500.02235174447, -187500.02235174447, -49190.15457512791, -47657.87543748325, -78322.30071095238, -49767.41072743067, -89488.29346755666, -32537.657921035043, 0.0, 0.0, 0.0, 193.0, 0.0, 1.0, 1.0, 0.0, 0.0, 1.0, 1.0, 256.0, 1.0, 1.750529457102142E9, 0.0, 2025-06-21 20:10:57.102
4.0, -44662.18288686072, -38085.24913611998, -30508.924187293553, -74279.94302272119, -28022.091450940545, -28466.712351645514, -53493.13360370798, -102356.7068405994, -187500.02235174447, -187500.02235174447, -49195.49664205273, -47654.61208279277, -78331.10729826776, -49771.9481315551, -89507.60537476605, -32538.86491523563, 0.0, 0.0, 0.0, 193.0, 0.0, 1.0, 1.0, 0.0, 0.0, 1.0, 1.0, 256.0, 1.0, 1.750529457109151E9, 0.0, 2025-06-21 20:10:57.109
6.0, -44639.87584589432, -38059.74579569647, -30496.966004009966, -74261.68164750119, -28003.78537223165, -28465.125377789187, -53483.47765010329, -102343.31814567068, -187500.02235174447, -187500.02235174447, -49212.30515388312, -47674.79570803591, -78332.47075467954, -49791.97529458706, -89484.18074657688, -32560.233182934906, 0.0, 0.0, 0.0, 193.0, 0.0, 1.0, 1.0, 0.0, 0.0, 1.0, 1.0, 256.0, 1.0, 1.750529457117164E9, 0.0, 2025-06-21 20:10:57.117
8.0, -44622.933223597196, -38042.95963561054, -30483.17497768104, -74246.16953684921, -27995.515226783184, -28472.367342992708, -53463.875170215986, -102325.41439836197, -187500.02235174447, -187500.02235174447, -49171.42381327436, -47639.5470070299, -78315.8857602937, -49748.27763417693, -89495.93776416038, -32516.781391713786, 0.0, 0.0, 0.0, 193.0, 0.0, 1.0, 1.0, 0.0, 0.0, 1.0, 1.0, 256.0, 1.0, 1.750529457126183E9, 0.0, 2025-06-21 20:10:57.126
10.0, -44652.32576755593, -38068.41827254513, -30501.03402150083, -74272.2316708841, -28017.419936349386, -28456.005866051422, -53498.54272586617, -102359.03142202276, -187500.02235174447, -187500.02235174447, -49195.09431065254, -47663.06104219688, -78321.63015861872, -49780.911181081676, -89481.45383375333, -32548.409110118046, 0.0, 0.0, 0.0, 193.0, 0.0, 1.0, 1.0, 0.0, 0.0, 1.0, 1.0, 256.0, 1.0, 1.75052945713424E9, 0.0, 2025-06-21 20:10:57.134
12.0, -44628.051773077466, -38046.915894379126, -30486.013649226865, -74244.49315601506, -28007.49576181123, -28470.221575524996, -53471.78768775317, -102336.76908454527, -187500.02235174447, -187500.02235174447, -49192.769729229185, -47654.07564092585, -78327.39690868818, -49768.50596290898, -89494.30608681514, -32535.33333961169, 0.0, 0.0, 0.0, 193.0, 0.0, 1.0, 1.0, 0.0, 0.0, 1.0, 1.0, 256.0, 1.0, 1.750529457141275E9, 0.0, 2025-06-21 20:10:57.141
14.0, -44640.92637788372, -38063.836164931796, -30485.41015212657, -74261.10050214536, -28001.796066975126, -28439.19735422103, -53483.99174022576, -102347.43086665045, -187500.02235174447, -187500.02235174447, -49177.19056334384, -47646.81132397787, -78318.74678358398, -49751.87626503423, -89486.81825242261, -32520.00004291535, 0.0, 0.0, 0.0, 193.0, 0.0, 1.0, 1.0, 0.0, 0.0, 1.0, 1.0, 256.0, 1.0, 1.750529457149327E9, 0.0, 2025-06-21 20:10:57.149
16.0, -44634.600834202865, -38054.604894471755, -30489.858149273176, -74257.34540907686, -28004.187703631844, -28456.67641838508, -53481.86832450251, -102345.82154104968, -187500.02235174447, -187500.02235174447, -49196.12249089748, -47667.1514114322, -78322.59128363029, -49779.19009675862, -89472.15550805992, -32548.364406629134, 0.0, 0.0, 0.0, 193.0, 0.0, 1.0, 1.0, 0.0, 0.0, 1.0, 1.0, 256.0, 1.0, 1.750529457158339E9, 0.0, 2025-06-21 20:10:57.158
18.0, -44628.521159711025, -38044.4795542335, -30492.07097197425, -74253.2326880971, -28004.768848987682, -28471.406217981126, -53473.665234287415, -102339.42894213545, -187500.02235174447, -187500.02235174447, -49180.34215931203, -47644.17381813214, -78324.35707144227, -49756.726593581036, -89505.54901427616, -32524.269226106317, 0.0, 0.0, 0.0, 193.0, 0.0, 1.0, 1.0, 0.0, 0.0, 1.0, 1.0, 256.0, 1.0, 1.750529457165354E9, 0.0, 2025-06-21 20:10:57.165
20.0, -44642.13337208431, -38060.03636837439, -30481.208024168973, -74266.04023766998, -28005.97584318827, -28452.63075263867, -53492.70892056333, -102351.8565120526, -187500.02235174447, -187500.02235174447, -49188.500546038216, -47659.26124563948, -78316.51160913844, -49776.507887423984, -89476.91642962891, -32543.737595526887, 0.0, 0.0, 0.0, 193.0, 0.0, 1.0, 1.0, 0.0, 0.0, 1.0, 1.0, 256.0, 1.0, 1.750529457173383E9, 0.0, 2025-06-21 20:10:57.173
22.0, -44618.99931657306, -38039.53981870888, -30475.88830898861, -74241.4756705136, -27992.81066570409, -28481.68802043057, -53471.54181856416, -102337.12671245656, -187500.02235174447, -187500.02235174447, -49178.218743588775, -47645.13494314372, -78316.75747832746, -49762.09101225031, -89482.12438608699, -32532.427612832504, 0.0, 0.0, 0.0, 193.0, 0.0, 1.0, 1.0, 0.0, 0.0, 1.0, 1.0, 256.0, 1.0, 1.750529457181424E9, 0.0, 2025-06-21 20:10:57.181
24.0, -44638.35592727136, -38060.97514164152, -30491.489826618414, -74269.48240631609, -28008.032203678158, -28466.82411036779, -53489.69143506187, -102361.28894821275, -187500.02235174447, -187500.02235174447, -49175.67064472087, -47643.27974835393, -78315.72929808252, -49756.95011102559, -89488.40522627893, -32526.996138929862, 0.0, 0.0, 0.0, 193.0, 0.0, 1.0, 1.0, 0.0, 0.0, 1.0, 1.0, 256.0, 1.0, 1.750529457189459E9, 0.0, 2025-06-21 20:10:57.189
26.0, -44622.91087185274, -38042.87022863272, -30483.42084687005, -74251.06456888492, -28000.298500096622, -28463.091369043756, -53471.31830111961, -102332.20932867638, -187500.02235174447, -187500.02235174447, -49202.58214504506, -47667.129059687744, -78325.56406564284, -49784.50981193898, -89479.79980466363, -32555.36050264365, 0.0, 0.0, 0.0, 193.0, 0.0, 1.0, 1.0, 0.0, 0.0, 1.0, 1.0, 256.0, 1.0, 1.750529457197501E9, 0.0, 2025-06-21 20:10:57.197
28.0, -44613.903118837254, -38031.739059893975, -30471.820291497745, -74238.21231582313, -27998.57741577356, -28461.616153909705, -53471.832391242075, -102329.95180248641, -187500.02235174447, -187500.02235174447, -49158.16922881237, -47626.60534699027, -78302.98880374299, -49732.7878752694, -89480.91739188641, -32501.91748165101, 0.0, 0.0, 0.0, 193.0, 0.0, 1.0, 1.0, 0.0, 0.0, 1.0, 1.0, 256.0, 1.0, 1.750529457205502E9, 0.0, 2025-06-21 20:10:57.205
30.0, -44637.461857493145, -38055.364853783234, -30488.13706495012, -74269.81768248293, -28003.29363385363, -28450.909668315613, -53496.35225490955, -102355.0081080208, -187500.02235174447, -187500.02235174447, -49181.0574151346, -47657.36134736078, -78313.18119921461, -49767.52248615295, -89466.5675719461, -32537.970845457417, 0.0, 0.0, 0.0, 193.0, 0.0, 1.0, 1.0, 0.0, 0.0, 1.0, 1.0, 256.0, 1.0, 1.750529457213542E9, 0.0, 2025-06-21 20:10:57.213
32.0, -44626.17422654322, -38037.14818205216, -30481.431541613525, -74241.69918795815, -28002.69013675334, -28487.83475015578, -53470.40187959694, -102330.75646528679, -187500.02235174447, -187500.02235174447, -49183.42670004687, -47655.93083571563, -78324.31236795335, -49761.44281166111, -89483.13021458748, -32532.71818551042, 0.0, 0.0, 0.0, 193.0, 0.0, 1.0, 1.0, 0.0, 0.0, 1.0, 1.0, 256.0, 1.0, 1.750529457220491E9, 0.0, 2025-06-21 20:10:57.220
34.0, -44629.41522948924, -38037.37169949671, -30486.572442838245, -74263.49213880207, -28015.07300318158, -28456.16232826261, -53488.9761792393, -102351.87886379706, -187500.02235174447, -187500.02235174447, -49183.3596448135, -47646.9454344446, -78320.95960628505, -49751.00454700048, -89483.39843552094, -32520.33531908218, 0.0, 0.0, 0.0, 193.0, 0.0, 1.0, 1.0, 0.0, 0.0, 1.0, 1.0, 256.0, 1.0, 1.750529457229562E9, 0.0, 2025-06-21 20:10:57.229
36.0, -44626.04011607649, -38034.93535935108, -30483.353791636684, -74252.13745261877, -28011.608482791005, -28450.82026133779, -53482.94120823636, -102346.00035500531, -187500.02235174447, -187500.02235174447, -49194.848441463524, -47657.22723689405, -78318.41150741714, -49775.90439032369, -89469.4732987253, -32546.173935672516, 0.0, 0.0, 0.0, 193.0, 0.0, 1.0, 1.0, 0.0, 0.0, 1.0, 1.0, 256.0, 1.0, 1.750529457237544E9, 0.0, 2025-06-21 20:10:57.237
38.0, -44614.327801981904, -38032.99075758347, -30473.429617098525, -74240.9168769022, -28001.460790808298, -28466.265316756406, -53476.72742327779, -102344.36867766008, -187500.02235174447, -187500.02235174447, -49176.56471449909, -47640.17285587465, -78323.75357434197, -49749.395221399696, -89496.04952288265, -32519.463601048425, 0.0, 0.0, 0.0, 193.0, 0.0, 1.0, 1.0, 0.0, 0.0, 1.0, 1.0, 256.0, 1.0, 1.750529457245693E9, 0.0, 2025-06-21 20:10:57.245
40.0, -44631.06925857893, -38052.8838101487, -30485.45485561548, -74260.34054283387, -28007.83103797806, -28444.986456034956, -53489.87024901751, -102351.56593937469, -187500.02235174447, -187500.02235174447, -49182.487926779744, -47649.29236761241, -78312.77886781441, -49765.68964310762, -89465.44998472334, -32533.500496566357, 0.0, 0.0, 0.0, 193.0, 0.0, 1.0, 1.0, 0.0, 0.0, 1.0, 1.0, 256.0, 1.0, 1.750529457252661E9, 0.0, 2025-06-21 20:10:57.252
42.0, -44612.29379323647, -38028.162780781124, -30478.682277045522, -74238.3687780343, -28006.82520947757, -28482.000944852945, -53475.98981571077, -102341.12767471405, -187500.02235174447, -187500.02235174447, -49184.83485994755, -47648.57711178984, -78322.32306269683, -49757.777125570436, -89481.43148200888, -32527.979615685897, 0.0, 0.0, 0.0, 193.0, 0.0, 1.0, 1.0, 0.0, 0.0, 1.0, 1.0, 256.0, 1.0, 1.750529457261704E9, 0.0, 2025-06-21 20:10:57.261
44.0, -44617.54645318347, -38041.99851059896, -30471.909698475567, -74246.86244092732, -28011.809648491104, -28456.274086984886, -53478.78378376768, -102345.57567186066, -187500.02235174447, -187500.02235174447, -49167.26638880568, -47625.80068418988, -78304.62048108822, -49743.717878308045, -89476.78231916217, -32513.272167834304, 0.0, 0.0, 0.0, 193.0, 0.0, 1.0, 1.0, 0.0, 0.0, 1.0, 1.0, 256.0, 1.0, 1.750529457269765E9, 0.0, 2025-06-21 20:10:57.269
46.0, -44622.12856079681, -38040.16566755363, -30480.582175324223, -74252.45037704115, -28018.93985497235, -28463.516052188406, -53496.39695839846, -102350.22483470736, -187500.02235174447, -187500.02235174447, -49189.79694721663, -47651.684004269126, -78314.16467597063, -49775.21148624557, -89470.03209233667, -32544.87753449411, 0.0, 0.0, 0.0, 193.0, 0.0, 1.0, 1.0, 0.0, 0.0, 1.0, 1.0, 256.0, 1.0, 1.750529457276786E9, 0.0, 2025-06-21 20:10:57.276
48.0, -44602.30256346495, -38017.00926029793, -30466.634686784113, -74233.98783612107, -27990.866063936483, -28468.545194690847, -53455.02387941169, -102325.21323266187, -187500.02235174447, -187500.02235174447, -49167.71342369478, -47632.50620752647, -78312.89062653668, -49742.041497473896, -89487.89113615647, -32512.847484689653, 0.0, 0.0, 0.0, 193.0, 0.0, 1.0, 1.0, 0.0, 0.0, 1.0, 1.0, 256.0, 1.0, 1.750529457285818E9, 0.0, 2025-06-21 20:10:57.285
50.0, -44624.4307904757, -38038.75750765294, -30488.248823672395, -74263.67095275772, -28008.769811245184, -28442.840688567245, -53486.13750769347, -102357.15387548851, -187500.02235174447, -187500.02235174447, -49176.341197054535, -47643.078582653834, -78305.35808865525, -49762.29217795041, -89462.92423759989, -32531.712357009932, 0.0, 0.0, 0.0, 193.0, 0.0, 1.0, 1.0, 0.0, 0.0, 1.0, 1.0, 256.0, 1.0, 1.750529457293855E9, 0.0, 2025-06-21 20:10:57.293
52.0, -44608.672810634715, -38016.361059708724, -30479.218718912452, -74241.2745048135, -28012.256683380212, -28468.344028990752, -53481.8236210136, -102345.79918930521, -187500.02235174447, -187500.02235174447, -49187.00297915971, -47649.49353331251, -78322.18895223009, -49768.7965355869, -89493.367313548, -32539.20019140246, 0.0, 0.0, 0.0, 193.0, 0.0, 1.0, 1.0, 0.0, 0.0, 1.0, 1.0, 256.0, 1.0, 1.750529457300886E9, 0.0, 2025-06-21 20:10:57.300
54.0, -44614.126636281806, -38025.01118481293, -30482.683239303024, -74257.88185094378, -28011.78729674665, -28461.973781820987, -53486.89746700496, -102351.67769809696, -187500.02235174447, -187500.02235174447, -49177.0564528771, -47634.22729184953, -78313.24825444797, -49760.504038393985, -89493.09909261455, -32528.96309244193, 0.0, 0.0, 0.0, 193.0, 0.0, 1.0, 1.0, 0.0, 0.0, 1.0, 1.0, 256.0, 1.0, 1.750529457308865E9, 0.0, 2025-06-21 20:10:57.308
56.0, -44599.441540174674, -38011.24251022846, -30480.045733457297, -74251.42219679621, -27993.68238373785, -28447.44514792504, -53485.53401059318, -102343.98869800434, -187500.02235174447, -187500.02235174447, -49181.795022701626, -47648.398297834196, -78311.39305965818, -49779.68183513664, -89472.49078422676, -32550.82309851922, 0.0, 0.0, 0.0, 193.0, 0.0, 1.0, 1.0, 0.0, 0.0, 1.0, 1.0, 256.0, 1.0, 1.750529457317939E9, 0.0, 2025-06-21 20:10:57.317
58.0, -44612.852586847854, -38025.56997842431, -30491.936861507522, -74261.01109516753, -28021.59971256253, -28474.736627904967, -53492.06071997413, -102358.60673887811, -187500.02235174447, -187500.02235174447, -49178.17404009987, -47638.42941980713, -78323.9323882976, -49759.67702384914, -89506.28662184317, -32532.09233666567, 0.0, 0.0, 0.0, 193.0, 0.0, 1.0, 1.0, 0.0, 0.0, 1.0, 1.0, 256.0, 1.0, 1.750529457325994E9, 0.0, 2025-06-21 20:10:57.325
60.0, -44611.91381358073, -38033.415440728124, -30486.103056204687, -74275.3832668523, -28017.2634741382, -28438.459746654007, -53511.059702761144, -102377.24809375383, -187500.02235174447, -187500.02235174447, -49189.37226407198, -47662.36813811876, -78325.40760343165, -49788.13079454074, -89486.77354893369, -32560.389645146093, 0.0, 0.0, 0.0, 193.0, 0.0, 1.0, 1.0, 0.0, 0.0, 1.0, 1.0, 256.0, 1.0, 1.750529457332992E9, 0.0, 2025-06-21 20:10:57.332
62.0, -44602.99546754306, -38017.59040565377, -30479.97867822393, -74249.16467060622, -28007.1604856444, -28476.21184303902, -53480.370757624005, -102343.92164277098, -187500.02235174447, -187500.02235174447, -49180.92330466787, -47654.03093743693, -78323.82062957533, -49774.56328565637, -89496.09422637156, -32548.565572329233, 0.0, 0.0, 0.0, 193.0, 0.0, 1.0, 1.0, 0.0, 0.0, 1.0, 1.0, 256.0, 1.0, 1.750529457340976E9, 0.0, 2025-06-21 20:10:57.340
64.0, -44615.89242409378, -38025.34646097976, -30488.092361461207, -74266.86725221483, -28009.73093625676, -28455.648238140137, -53487.52331584971, -102347.43086665045, -187500.02235174447, -187500.02235174447, -49162.48311549224, -47633.60144300478, -78307.05682123385, -49751.38452665622, -89484.58307797708, -32523.576322028202, 0.0, 0.0, 0.0, 193.0, 0.0, 1.0, 1.0, 0.0, 0.0, 1.0, 1.0, 256.0, 1.0, 1.750529457350049E9, 0.0, 2025-06-21 20:10:57.350
66.0, -44628.6329184333, -38039.38335649769, -30509.974719282953, -74275.13739766329, -28033.714358057307, -28479.430494240583, -53501.09082473408, -102355.34338418762, -187500.02235174447, -187500.02235174447, -49212.23809864975, -47675.1533359472, -78341.18793501711, -49795.12689055525, -89493.63553448148, -32565.35173241517, 0.0, 0.0, 0.0, 193.0, 0.0, 1.0, 1.0, 0.0, 0.0, 1.0, 1.0, 256.0, 1.0, 1.750529457357024E9, 0.0, 2025-06-21 20:10:57.357
68.0, -44618.28406075049, -38035.85178087375, -30500.117599978163, -74263.69330450217, -28032.12738420098, -28485.44311349906, -53475.967463966306, -102340.59123284713, -187500.02235174447, -187500.02235174447, -49194.89314495244, -47654.5003240705, -78340.96441757256, -49760.213465716064, -89511.74044749027, -32529.05249941975, 0.0, 0.0, 0.0, 193.0, 0.0, 1.0, 1.0, 0.0, 0.0, 1.0, 1.0, 256.0, 1.0, 1.750529457365075E9, 0.0, 2025-06-21 20:10:57.365
70.0, -44639.18294181621, -38057.95765614005, -30517.529608908848, -74290.60480482636, -28030.562762089106, -28459.291572486352, -53490.69726356235, -102355.83512256565, -187500.02235174447, -187500.02235174447, -49205.487871824254, -47674.3039696579, -78340.07034779435, -49788.041387562924, -89492.96498214782, -32556.656903822055, 0.0, 0.0, 0.0, 193.0, 0.0, 1.0, 1.0, 0.0, 0.0, 1.0, 1.0, 256.0, 1.0, 1.750529457373162E9, 0.0, 2025-06-21 20:10:57.373
72.0, -44615.91477583823, -38034.80124888435, -30503.068030246264, -74268.20835688214, -28028.126421943478, -28492.014526368923, -53472.480591831285, -102343.18403520394, -187500.02235174447, -187500.02235174447, -49214.69679053984, -47672.87345801276, -78352.27440026694, -49784.93449508363, -89510.89108120097, -32556.813366033242, 0.0, 0.0, 0.0, 193.0, 0.0, 1.0, 1.0, 0.0, 0.0, 1.0, 1.0, 256.0, 1.0, 1.750529457382187E9, 0.0, 2025-06-21 20:10:57.382
74.0, -44627.42592423272, -38047.69820543507, -30499.26823368886, -74282.22290065562, -28021.59971256253, -28466.689999901057, -53484.10349894804, -102352.8623405531, -187500.02235174447, -187500.02235174447, -49190.15457512791, -47661.38466136273, -78336.40466170367, -49766.67311986365, -89498.06117988363, -32541.457717592446, 0.0, 0.0, 0.0, 193.0, 0.0, 1.0, 1.0, 0.0, 0.0, 1.0, 1.0, 256.0, 1.0, 1.750529457389216E9, 0.0, 2025-06-21 20:10:57.389
76.0, -44627.06829632143, -38043.406670499644, -30508.879483804645, -74284.25690940105, -28029.869858010992, -28470.40038948064, -53488.9761792393, -102361.73598310185, -187500.02235174447, -187500.02235174447, -49211.23227014927, -47682.931743017645, -78342.37257747324, -49800.31249526888, -89495.0213426377, -32575.141796486594, 0.0, 0.0, 0.0, 193.0, 0.0, 1.0, 1.0, 0.0, 0.0, 1.0, 1.0, 256.0, 1.0, 1.750529457397214E9, 0.0, 2025-06-21 20:10:57.397
78.0, -44607.82344434541, -38026.776972624895, -30492.47330337445, -74264.78853998048, -28007.58516878905, -28477.68705817307, -53461.572940537095, -102336.88084326754, -187500.02235174447, -187500.02235174447, -49185.59481925903, -47653.60625429228, -78332.984844802, -49768.260093719975, -89515.24967136976, -32542.485897837392, 0.0, 0.0, 0.0, 193.0, 0.0, 1.0, 1.0, 0.0, 0.0, 1.0, 1.0, 256.0, 1.0, 1.750529457406227E9, 0.0, 2025-06-21 20:10:57.406
80.0, -44634.64553769178, -38058.13647009569, -30515.920283308064, -74301.37834565382, -28034.004930735224, -28469.215747024507, -53486.517487349214, -102358.38322143356, -187500.02235174447, -187500.02235174447, -49199.07292116558, -47670.213600422576, -78329.6320831337, -49784.66627415017, -89483.68900819887, -32558.86972652313, 0.0, 0.0, 0.0, 193.0, 0.0, 1.0, 1.0, 0.0, 0.0, 1.0, 1.0, 256.0, 1.0, 1.750529457413225E9, 0.0, 2025-06-21 20:10:57.413
82.0, -44618.86520610633, -38046.44650774557, -30509.170056482562, -74277.81960699793, -28020.34801487303, -28490.136979834675, -53472.72646102029, -102333.05869496569, -187500.02235174447, -187500.02235174447, -49212.95335447232, -47681.99296975052, -78355.51540321296, -49792.42232947616, -89512.96979343532, -32566.134043471106, 0.0, 0.0, 0.0, 193.0, 0.0, 1.0, 1.0, 0.0, 0.0, 1.0, 1.0, 256.0, 1.0, 1.750529457421258E9, 0.0, 2025-06-21 20:10:57.421
84.0, -44630.555168456456, -38048.50286823545, -30508.052469259797, -74286.42502861322, -28031.769756289694, -28470.936831347568, -53478.98494946778, -102348.2578811953, -187500.02235174447, -187500.02235174447, -49193.68615075185, -47663.351614874795, -78339.22098150504, -49772.238704233016, -89502.03979039667, -32544.743424027376, 0.0, 0.0, 0.0, 193.0, 0.0, 1.0, 1.0, 0.0, 0.0, 1.0, 1.0, 256.0, 1.0, 1.750529457429314E9, 0.0, 2025-06-21 20:10:57.429
86.0, -44628.6329184333, -38047.58644671279, -30512.075783261753, -74282.44641810017, -28036.03893948066, -28475.02720058289, -53484.282312903684, -102354.47166615387, -187500.02235174447, -187500.02235174447, -49219.748284786736, -47683.17761220665, -78345.7923943749, -49799.06079757939, -89495.20015659335, -32572.124310985128, 0.0, 0.0, 0.0, 193.0, 0.0, 1.0, 1.0, 0.0, 0.0, 1.0, 1.0, 256.0, 1.0, 1.750529457438362E9, 0.0, 2025-06-21 20:10:57.438
88.0, -44622.26267126354, -38041.64088268768, -30503.93974828002, -74281.17236866622, -28037.35769240352, -28486.717162933015, -53500.375568911506, -102356.8633028106, -187500.02235174447, -187500.02235174447, -49192.143880384436, -47659.28359738393, -78340.740900128, -49770.85289607679, -89514.42265682491, -32546.77743277281, 0.0, 0.0, 0.0, 193.0, 0.0, 1.0, 1.0, 0.0, 0.0, 1.0, 1.0, 256.0, 1.0, 1.75052945744537E9, 0.0, 2025-06-21 20:10:57.445
90.0, -44649.80002043248, -38065.803118443866, -30528.41490845858, -74312.33070043691, -28050.634628609972, -28469.238098768965, -53549.97408985783, -102396.33648351867, -187500.02235174447, -187500.02235174447, -49213.19922366134, -47686.93270527515, -78346.70881589757, -49804.55932671539, -89502.91150843044, -32580.26034596686, 0.0, 0.0, 0.0, 193.0, 0.0, 1.0, 1.0, 0.0, 0.0, 1.0, 1.0, 256.0, 1.0, 1.750529457453415E9, 0.0, 2025-06-21 20:10:57.453
92.0, -44622.84381661938, -38045.99947285646, -30513.86392281818, -74281.44058959969, -28039.190535448855, -28487.946508878056, -53529.656354147955, -102380.04206181075, -187500.02235174447, -187500.02235174447, -49220.731761542775, -47689.16787972068, -78361.95270561609, -49810.52724248496, -89532.25934890025, -32583.478997168422, 0.0, 0.0, 0.0, 193.0, 0.0, 1.0, 1.0, 0.0, 0.0, 1.0, 1.0, 256.0, 1.0, 1.750529457462426E9, 0.0, 2025-06-21 20:10:57.462
94.0, -44632.857398135355, -38060.59516198577, -30518.021347286864, -74295.03045022851, -28036.083642969566, -28475.42953198308, -53518.63694413149, -102382.5678089342, -187500.02235174447, -187500.02235174447, -49198.134147898454, -47660.73646077353, -78338.30455998237, -49780.28533223693, -89508.90177594445, -32552.45477586446, 0.0, 0.0, 0.0, 193.0, 0.0, 1.0, 1.0, 0.0, 0.0, 1.0, 1.0, 256.0, 1.0, 1.750529457469538E9, 0.0, 2025-06-21 20:10:57.469
96.0, -44623.000278830565, -38039.986853597984, -30501.88338779013, -74275.94206046368, -28034.653131324427, -28469.05928481332, -53498.09569097706, -102367.52508491577, -187500.02235174447, -187500.02235174447, -49227.280822668174, -47686.44096689713, -78349.43572872112, -49806.54863197191, -89500.13989211796, -32579.433331422013, 0.0, 0.0, 0.0, 193.0, 0.0, 1.0, 1.0, 0.0, 0.0, 1.0, 1.0, 256.0, 1.0, 1.750529457477479E9, 0.0, 2025-06-21 20:10:57.477
98.0, -44615.26657524903, -38030.88969360467, -30493.725001063944, -74265.43674056968, -28030.674520811383, -28490.472256001503, -53485.93634199338, -102350.3589451741, -187500.02235174447, -187500.02235174447, -49184.790156458635, -47647.280710611434, -78329.49797266698, -49758.87236104874, -89505.43725555387, -32531.28767386528, 0.0, 0.0, 0.0, 193.0, 0.0, 1.0, 1.0, 0.0, 0.0, 1.0, 1.0, 256.0, 1.0, 1.750529457485528E9, 0.0, 2025-06-21 20:10:57.485
100.0, -44619.40164797326, -38031.91787384962, -30507.22545471495, -74289.62132807032, -28015.341224115044, -28460.118587031197, -53502.65544684594, -102368.68737562744, -187500.02235174447, -187500.02235174447, -49200.2128601328, -47669.76656553347, -78332.22488549053, -49787.70611139609, -89487.01941812271, -32560.389645146093, 0.0, 0.0, 0.0, 193.0, 0.0, 1.0, 1.0, 0.0, 0.0, 1.0, 1.0, 256.0, 1.0, 1.750529457493519E9, 0.0, 2025-06-21 20:10:57.493
102.0, -44619.55811018445, -38039.56217045333, -30499.737620322423, -74271.53876680598, -28035.97188424729, -28484.34787802075, -53486.182211182386, -102357.89148305554, -187500.02235174447, -187500.02235174447, -49203.34210435655, -47668.82779226635, -78342.55139142887, -49788.57782942985, -89510.08641840058, -32565.307028926258, 0.0, 0.0, 0.0, 193.0, 0.0, 1.0, 1.0, 0.0, 0.0, 1.0, 1.0, 256.0, 1.0, 1.750529457500544E9, 0.0, 2025-06-21 20:10:57.500
104.0, -44620.36277298484, -38038.91396986413, -30504.677355847045, -74283.76517102304, -28027.96995973229, -28457.10110152973, -53483.790574525665, -102348.97313701786, -187500.02235174447, -187500.02235174447, -49189.68518849435, -47653.00275719199, -78327.84394357729, -49771.45639317708, -89502.28565958569, -32547.49268859538, 0.0, 0.0, 0.0, 193.0, 0.0, 1.0, 1.0, 0.0, 0.0, 1.0, 1.0, 256.0, 1.0, 1.750529457509559E9, 0.0, 2025-06-21 20:10:57.509
106.0, -44641.954558128666, -38054.1355078382, -30519.161286254086, -74292.54940659397, -28042.051558739135, -28480.682191930082, -53482.538876836166, -102358.42792492246, -187500.02235174447, -187500.02235174447, -49225.492683111755, -47686.1056907303, -78347.71464439806, -49807.35329477231, -89503.96204041982, -32582.584927390213, 0.0, 0.0, 0.0, 193.0, 0.0, 1.0, 1.0, 0.0, 0.0, 1.0, 1.0, 256.0, 1.0, 1.750529457517643E9, 0.0, 2025-06-21 20:10:57.517
108.0, -44630.95749985665, -38046.62532170121, -30502.486884890426, -74277.0819994309, -28034.764890046703, -28492.416857769116, -53485.73517629328, -102357.69031735545, -187500.02235174447, -187500.02235174447, -49195.60840077501, -47659.1494869172, -78342.05965305086, -49773.11042226678, -89515.40613358094, -32550.21960141893, 0.0, 0.0, 0.0, 193.0, 0.0, 1.0, 1.0, 0.0, 0.0, 1.0, 1.0, 256.0, 1.0, 1.75052945752566E9, 0.0, 2025-06-21 20:10:57.525
110.0, -44632.00803184605, -38048.74873742447, -30504.40913491358, -74284.70394429016, -28026.87472425398, -28449.68032237057, -53490.25022867325, -102355.25397720981, -187500.02235174447, -187500.02235174447, -49210.40525560442, -47671.3535393898, -78338.41631870465, -49796.4009399892, -89491.44506352485, -32571.92314528503, 0.0, 0.0, 0.0, 193.0, 0.0, 1.0, 1.0, 0.0, 0.0, 1.0, 1.0, 256.0, 1.0, 1.750529457532642E9, 0.0, 2025-06-21 20:10:57.532
112.0, -44624.676659664714, -38041.64088268768, -30512.589873384226, -74282.46876984464, -28035.480145869275, -28488.39354376716, -53491.703092062846, -102359.18788423395, -187500.02235174447, -187500.02235174447, -49210.47231083779, -47666.97259747655, -78343.55721992937, -49786.789689873425, -89504.74435147576, -32562.848337036176, 0.0, 0.0, 0.0, 193.0, 0.0, 1.0, 1.0, 0.0, 0.0, 1.0, 1.0, 256.0, 1.0, 1.750529457541707E9, 0.0, 2025-06-21 20:10:57.541
114.0, -44633.6844126802, -38048.70403393555, -30511.740507094924, -74287.43085711371, -28032.574419090084, -28475.49658721645, -53498.967409010824, -102364.32878545867, -187500.02235174447, -187500.02235174447, -49206.806624747114, -47668.894847499716, -78344.58540017431, -49786.23089626204, -89515.60729928104, -32560.814328290744, 0.0, 0.0, 0.0, 193.0, 0.0, 1.0, 1.0, 0.0, 0.0, 1.0, 1.0, 256.0, 1.0, 1.750529457549735E9, 0.0, 2025-06-21 20:10:57.549
116.0, -44636.143104570285, -38047.2288188015, -30520.323576965762, -74292.8846827608, -28041.962151761312, -28486.940680377567, -53501.001417756255, -102368.28504422726, -187500.02235174447, -187500.02235174447, -49224.710372055815, -47684.4516616406, -78350.19568803259, -49811.82364366337, -89507.13598813248, -32585.758875102863, 0.0, 0.0, 0.0, 193.0, 0.0, 1.0, 1.0, 0.0, 0.0, 1.0, 1.0, 256.0, 1.0, 1.750529457556823E9, 0.0, 2025-06-21 20:10:57.556
118.0, -44628.56586319994, -38049.218124058025, -30517.239036230927, -74288.50374084756, -28038.296465670643, -28492.68507870258, -53494.45235663085, -102353.53289288675, -187500.02235174447, -187500.02235174447, -49208.46065383681, -47665.83265850934, -78349.34632174329, -49783.705149138594, -89528.3254418761, -32559.853203279163, 0.0, 0.0, 0.0, 193.0, 0.0, 1.0, 1.0, 0.0, 0.0, 1.0, 1.0, 256.0, 1.0, 1.750529457565751E9, 0.0, 2025-06-21 20:10:57.565
120.0, -44649.26357856555, -38067.59125800029, -30532.818202116276, -74314.3870609268, -28044.733768073773, -28462.8678515992, -53514.09954000706, -102375.97404431988, -187500.02235174447, -187500.02235174447, -49229.2701279247, -47693.77233907847, -78357.95174335859, -49816.58456523235, -89512.70157250186, -32593.02319205084, 0.0, 0.0, 0.0, 193.0, 0.0, 1.0, 1.0, 0.0, 0.0, 1.0, 1.0, 256.0, 1.0, 1.750529457573826E9, 0.0, 2025-06-21 20:10:57.573
122.0, -44622.48618870809, -38034.71184190653, -30518.93776880953, -74285.12862743481, -28039.034073237668, -28491.791008924367, -53489.311455406125, -102353.62229986457, -187500.02235174447, -187500.02235174447, -49232.488779126266, -47691.24659195502, -78366.78068241844, -49805.98983836053, -89528.0795726871, -32582.69668611249, 0.0, 0.0, 0.0, 193.0, 0.0, 1.0, 1.0, 0.0, 0.0, 1.0, 1.0, 256.0, 1.0, 1.750529457580844E9, 0.0, 2025-06-21 20:10:57.580
124.0, -44630.0857818229, -38046.982949612495, -30508.700669849, -74287.9896507251, -28036.4189191364, -28459.0680550418, -53491.45722287384, -102351.34242193014, -187500.02235174447, -187500.02235174447, -49202.22451713378, -47658.72480377255, -78340.45032745007, -49776.66434963517, -89508.4770927998, -32552.25361016436, 0.0, 0.0, 0.0, 193.0, 0.0, 1.0, 1.0, 0.0, 0.0, 1.0, 1.0, 256.0, 1.0, 1.75052945758886E9, 0.0, 2025-06-21 20:10:57.588
126.0, -44645.59789247488, -38058.13647009569, -30530.27010324837, -74302.16065670975, -28050.54522163215, -28478.31290701782, -53507.23755445929, -102368.41915469398, -187500.02235174447, -187500.02235174447, -49235.64037509446, -47697.37096993577, -78365.66309519566, -49819.356181544805, -89514.42265682491, -32594.565462418257, 0.0, 0.0, 0.0, 193.0, 0.0, 1.0, 1.0, 0.0, 0.0, 1.0, 1.0, 256.0, 1.0, 1.750529457597869E9, 0.0, 2025-06-21 20:10:57.597
128.0, -44627.64944167727, -38047.407632757146, -30514.64623387411, -74286.40267686876, -28040.017549993703, -28484.92902337659, -53491.50192636275, -102354.24814870932, -187500.02235174447, -187500.02235174447, -49210.42760734887, -47671.57705683435, -78359.11403407027, -49789.36014048578, -89535.58975882409, -32563.876517281118, 0.0, 0.0, 0.0, 193.0, 0.0, 1.0, 1.0, 0.0, 0.0, 1.0, 1.0, 256.0, 1.0, 1.750529457605839E9, 0.0, 2025-06-21 20:10:57.605
130.0, -44646.60372097537, -38068.2841620784, -30518.84836183171, -74305.9828050116, -28037.804727292627, -28469.081636557778, -53515.2841824632, -102379.63973041055, -187500.02235174447, -187500.02235174447, -49217.04372370765, -47687.62560935326, -78352.76613864496, -49805.90043138271, -89502.46447354132, -32582.02613377883, 0.0, 0.0, 0.0, 193.0, 0.0, 1.0, 1.0, 0.0, 0.0, 1.0, 1.0, 256.0, 1.0, 1.75052945761292E9, 0.0, 2025-06-21 20:10:57.612
132.0, -44616.04888630496, -38034.86830411772, -30506.107867492185, -74272.90222321775, -28026.338282387052, -28499.278843316897, -53490.384339139986, -102356.99741327732, -187500.02235174447, -187500.02235174447, -49210.9640492158, -47678.93078076014, -78353.99548458999, -49789.98598933053, -89512.76862773522, -32568.50332838337, 0.0, 0.0, 0.0, 193.0, 0.0, 1.0, 1.0, 0.0, 0.0, 1.0, 1.0, 256.0, 1.0, 1.750529457620985E9, 0.0, 2025-06-21 20:10:57.620
134.0, -44633.147970813276, -38051.56505722583, -30512.23224547294, -74291.99061298258, -28033.759061546214, -28476.72593316149, -53498.967409010824, -102362.89827381352, -187500.02235174447, -187500.02235174447, -49208.10302592552, -47670.48182135604, -78350.19568803259, -49781.55938167088, -89514.55676729164, -32557.77449104482, 0.0, 0.0, 0.0, 193.0, 0.0, 1.0, 1.0, 0.0, 0.0, 1.0, 1.0, 256.0, 1.0, 1.750529457629968E9, 0.0, 2025-06-21 20:10:57.629
136.0, -44638.19946506017, -38051.85562990375, -30520.636501388133, -74293.53288335001, -28041.31395117211, -28492.1262850912, -53503.12483347951, -102366.87688432657, -187500.02235174447, -187500.02235174447, -49216.328467885076, -47683.53524011794, -78350.48626071052, -49804.402864504205, -89500.63163049599, -32580.01447677785, 0.0, 0.0, 0.0, 193.0, 0.0, 1.0, 1.0, 0.0, 0.0, 1.0, 1.0, 256.0, 1.0, 1.75052945763702E9, 0.0, 2025-06-21 20:10:57.637
138.0, -44627.828255632914, -38048.34640602427, -30514.310957707283, -74290.87302575982, -28040.48693662726, -28497.043668871363, -53493.625342086, -102356.4609714104, -187500.02235174447, -187500.02235174447, -49209.60059280403, -47672.53818184593, -78358.59994394779, -49785.98502707303, -89528.95129072086, -32562.557764358255, 0.0, 0.0, 0.0, 193.0, 0.0, 1.0, 1.0, 0.0, 0.0, 1.0, 1.0, 256.0, 1.0, 1.750529457645076E9, 0.0, 2025-06-21 20:10:57.645
140.0, -44649.911779154754, -38067.747720211475, -30524.056318289797, -74311.16840972524, -28047.12540473049, -28468.9698778355, -53510.500909149756, -102369.15676226102, -187500.02235174447, -187500.02235174447, -49223.92806099988, -47688.318513431375, -78354.57662994583, -49802.7041319256, -89501.05631364064, -32579.008648277362, 0.0, 0.0, 0.0, 193.0, 0.0, 1.0, 1.0, 0.0, 0.0, 1.0, 1.0, 256.0, 1.0, 1.75052945765306E9, 0.0, 2025-06-21 20:10:57.653
142.0, -44646.87194190883, -38058.11411835124, -30531.722966637968, -74302.9876712546, -28058.21186998032, -28507.63839574318, -53502.610743357036, -102364.4628959254, -187500.02235174447, -187500.02235174447, -49233.9192907714, -47698.57796413636, -78372.92741214365, -49807.50975698349, -89530.69472678838, -32584.417770435546, 0.0, 0.0, 0.0, 193.0, 0.0, 1.0, 1.0, 0.0, 0.0, 1.0, 1.0, 256.0, 1.0, 1.75052945766208E9, 0.0, 2025-06-21 20:10:57.662
144.0, -44656.147915857786, -38069.24528708998, -30529.934827081543, -74311.70485159216, -28054.948515289845, -28480.235157040974, -53510.05387426065, -102374.74469837484, -187500.02235174447, -187500.02235174447, -49227.19141569036, -47689.32434193186, -78368.25589755249, -49800.96069585809, -89531.70055528886, -32577.846357565686, 0.0, 0.0, 0.0, 193.0, 0.0, 1.0, 1.0, 0.0, 0.0, 1.0, 1.0, 256.0, 1.0, 1.75052945766912E9, 0.0, 2025-06-21 20:10:57.669
146.0, -44650.24705532158, -38062.56211549784, -30528.437260203038, -74305.71458407814, -28051.953381532836, -28489.086447845275, -53514.345409196074, -102371.68250938447, -187500.02235174447, -187500.02235174447, -49238.143770473456, -47698.86853681428, -78364.85843239528, -49818.95385014461, -89513.05920041313, -32597.359430475168, 0.0, 0.0, 0.0, 193.0, 0.0, 1.0, 1.0, 0.0, 0.0, 1.0, 1.0, 256.0, 1.0, 1.750529457677131E9, 0.0, 2025-06-21 20:10:57.677
148.0, -44642.89333139579, -38057.93530439559, -30526.47030669097, -74303.6358718438, -28043.45971863982, -28506.856084687246, -53507.63988585948, -102369.73790761684, -187500.02235174447, -187500.02235174447, -49222.206976676825, -47686.79859480842, -78366.73597892953, -49793.40580623219, -89537.66847105844, -32574.65005810858, 0.0, 0.0, 0.0, 193.0, 0.0, 1.0, 1.0, 0.0, 0.0, 1.0, 1.0, 256.0, 1.0, 1.750529457686178E9, 0.0, 2025-06-21 20:10:57.686
150.0, -44648.28010180952, -38062.852688175764, -30527.252617746904, -74311.70485159216, -28046.92423903039, -28464.92421208909, -53519.41925518743, -102384.93709384646, -187500.02235174447, -187500.02235174447, -49233.31579367111, -47689.10082448731, -78358.15290905868, -49810.706056440606, -89508.61120326653, -32589.759837360365, 0.0, 0.0, 0.0, 193.0, 0.0, 1.0, 1.0, 0.0, 0.0, 1.0, 1.0, 256.0, 1.0, 1.750529457693187E9, 0.0, 2025-06-21 20:10:57.693
152.0, -44648.07893610942, -38059.209353829545, -30534.069899805774, -74308.86618004635, -28059.64238162546, -28513.11457313473, -53519.44160693188, -102385.45118396894, -187500.02235174447, -187500.02235174447, -49241.96591877531, -47703.6071066388, -78380.03526688043, -49821.323135056875, -89541.3341571491, -32601.874482855143, 0.0, 0.0, 0.0, 193.0, 0.0, 1.0, 1.0, 0.0, 0.0, 1.0, 1.0, 256.0, 1.0, 1.750529457701167E9, 0.0, 2025-06-21 20:10:57.701
154.0, -44647.7883634315, -38061.19865908607, -30519.6530246321, -74305.87104628934, -28045.001989007236, -28474.513110460415, -53524.06841803413, -102382.34429148964, -187500.02235174447, -187500.02235174447, -49219.86004350901, -47681.72474881706, -78360.58924920432, -49802.12298656976, -89527.4313720979, -32581.735561100908, 0.0, 0.0, 0.0, 193.0, 0.0, 1.0, 1.0, 0.0, 0.0, 1.0, 1.0, 256.0, 1.0, 1.750529457709239E9, 0.0, 2025-06-21 20:10:57.709
156.0, -44654.89621816829, -38064.79728994337, -30534.919266095076, -74309.06734574644, -28054.434425167376, -28487.879453644688, -53520.26862147673, -102382.411346723, -187500.02235174447, -187500.02235174447, -49236.243872194755, -47695.24755421252, -78362.0421125939, -49819.53499550045, -89511.2263573678, -32598.387610720114, 0.0, 0.0, 0.0, 193.0, 0.0, 1.0, 1.0, 0.0, 0.0, 1.0, 1.0, 256.0, 1.0, 1.750529457718202E9, 0.0, 2025-06-21 20:10:57.718
158.0, -44631.62805219031, -38044.99364435597, -30518.37897519815, -74291.5882815824, -28050.232297209775, -28483.185587309075, -53498.98976075528, -102371.45899193991, -187500.02235174447, -187500.02235174447, -49225.135055200466, -47682.171783706166, -78369.21702256406, -49793.226992276555, -89538.60724432555, -32572.191366218492, 0.0, 0.0, 0.0, 193.0, 0.0, 1.0, 1.0, 0.0, 0.0, 1.0, 1.0, 256.0, 1.0, 1.750529457725256E9, 0.0, 2025-06-21 20:10:57.725
160.0, -44653.08572686741, -38065.46784227703, -30531.790021871333, -74312.040127759, -28057.630724624483, -28475.988325594466, -53519.106330765055, -102380.8690763556, -187500.02235174447, -187500.02235174447, -49222.16227318791, -47682.48470812854, -78350.82153687734, -49809.25319305101, -89507.24774685476, -32585.870633825143, 0.0, 0.0, 0.0, 193.0, 0.0, 1.0, 1.0, 0.0, 0.0, 1.0, 1.0, 256.0, 1.0, 1.75052945773328E9, 0.0, 2025-06-21 20:10:57.733
162.0, -44641.08284009491, -38051.05096710336, -30525.9562165685, -74302.33947066539, -28049.02530300919, -28505.157352108643, -53505.44941490286, -102367.79330584923, -187500.02235174447, -187500.02235174447, -49234.142808215955, -47698.26503971399, -78372.25685980999, -49814.684666953646, -89535.70151754636, -32593.514930428857, 0.0, 0.0, 0.0, 193.0, 0.0, 1.0, 1.0, 0.0, 0.0, 1.0, 1.0, 256.0, 1.0, 1.750529457741267E9, 0.0, 2025-06-21 20:10:57.741
164.0, -44651.18582858871, -38064.953752154564, -30523.609283400692, -74300.32781366442, -28051.21577396581, -28485.174892565596, -53504.5776968691, -102365.51342791479, -187500.02235174447, -187500.02235174447, -49221.22349992079, -47677.29910341491, -78359.38225500373, -49796.4009399892, -89522.1787121509, -32575.231203464416, 0.0, 0.0, 0.0, 193.0, 0.0, 1.0, 1.0, 0.0, 0.0, 1.0, 1.0, 256.0, 1.0, 1.750529457749314E9, 0.0, 2025-06-21 20:10:57.749
166.0, -44666.206200862674, -38072.374531313726, -30538.674359163568, -74316.73399409461, -28070.997067808756, -28503.436267785582, -53517.854633075556, -102380.64555891104, -187500.02235174447, -187500.02235174447, -49242.27884319769, -47698.62266762527, -78368.72528418605, -49822.798350190926, -89513.68504925788, -32600.421619465546, 0.0, 0.0, 0.0, 193.0, 0.0, 1.0, 1.0, 0.0, 0.0, 1.0, 1.0, 256.0, 1.0, 1.750529457757362E9, 0.0, 2025-06-21 20:10:57.757
168.0, -44642.49099999559, -38058.87407766272, -30530.739489881933, -74304.64170034429, -28055.484957156776, -28495.724915948504, -53503.19188871287, -102366.74277385983, -187500.02235174447, -187500.02235174447, -49226.45380812333, -47689.61491460978, -78374.17910983315, -49799.5525359574, -89542.67526181642, -32577.086398254207, 0.0, 0.0, 0.0, 193.0, 0.0, 1.0, 1.0, 0.0, 0.0, 1.0, 1.0, 256.0, 1.0, 1.750529457765391E9, 0.0, 2025-06-21 20:10:57.765
170.0, -44659.500677526084, -38074.453243548065, -30538.115565552183, -74319.48325866261, -28054.657942611928, -28478.804645395834, -53525.744798868276, -102383.28306475676, -187500.02235174447, -187500.02235174447, -49241.85416005304, -47701.036656026445, -78367.92062138565, -49815.578736731855, -89513.39447657997, -32591.995011805895, 0.0, 0.0, 0.0, 193.0, 0.0, 1.0, 1.0, 0.0, 0.0, 1.0, 1.0, 256.0, 1.0, 1.750529457774415E9, 0.0, 2025-06-21 20:10:57.774
172.0, -44637.64067144879, -38045.68654843409, -30529.979530570454, -74296.61742408483, -28056.11080600152, -28513.673366746112, -53502.320170679115, -102360.79720983472, -187500.02235174447, -187500.02235174447, -49238.45669489583, -47698.44385366963, -78376.99542963451, -49803.01705634798, -89529.04069769869, -32579.276869210826, 0.0, 0.0, 0.0, 193.0, 0.0, 1.0, 1.0, 0.0, 0.0, 1.0, 1.0, 256.0, 1.0, 1.750529457781444E9, 0.0, 2025-06-21 20:10:57.781
174.0, -44648.77184018753, -38063.05385387586, -30526.827934602254, -74304.39583115529, -28051.193422221357, -28473.283764515374, -53511.193813227874, -102376.73400363135, -187500.02235174447, -187500.02235174447, -49224.82213077809, -47679.42251913816, -78363.67378993914, -49784.062777049876, -89516.76958999272, -32559.83085153471, 0.0, 0.0, 0.0, 193.0, 0.0, 1.0, 1.0, 0.0, 0.0, 1.0, 1.0, 256.0, 1.0, 1.750529457789472E9, 0.0, 2025-06-21 20:10:57.789
176.0, -44665.580352017925, -38074.22972610351, -30550.99017035844, -74318.45507841767, -28071.622916653505, -28490.0252211124, -53529.231671003305, -102387.28402701426, -187500.02235174447, -187500.02235174447, -49256.13692475998, -47707.58571715185, -78379.72234245806, -49824.92176591418, -89522.11165691754, -32599.34873573169, 0.0, 0.0, 0.0, 193.0, 0.0, 1.0, 1.0, 0.0, 0.0, 1.0, 1.0, 256.0, 1.0, 1.75052945779745E9, 0.0, 2025-06-21 20:10:57.797
178.0, -44645.97787213062, -38051.56505722583, -30535.634521917647, -74301.53480786501, -28059.240050225268, -28507.12430562071, -53502.52133637921, -102374.14120127454, -187500.02235174447, -187500.02235174447, -49237.584976862076, -47694.82287106787, -78383.56684250437, -49803.88877438173, -89553.13587822151, -32577.98046803242, 0.0, 0.0, 0.0, 193.0, 0.0, 1.0, 1.0, 0.0, 0.0, 1.0, 1.0, 256.0, 1.0, 1.750529457805541E9, 0.0, 2025-06-21 20:10:57.805
180.0, -44666.921456685246, -38073.64858074768, -30537.355606240704, -74318.72329935114, -28064.202137494343, -28472.322639503796, -53517.87698482001, -102383.19365777895, -187500.02235174447, -187500.02235174447, -49233.539311115666, -47691.62657161076, -78362.57855446084, -49807.62151570577, -89506.68895324337, -32584.12719775763, 0.0, 0.0, 0.0, 193.0, 0.0, 1.0, 1.0, 0.0, 0.0, 1.0, 1.0, 256.0, 1.0, 1.750529457813556E9, 0.0, 2025-06-21 20:10:57.813
182.0, -44660.10417462637, -38071.81573770234, -30542.720024909977, -74311.16840972524, -28073.925146332404, -28513.963939424033, -53513.76426384023, -102377.158686776, -187500.02235174447, -187500.02235174447, -49256.56160790463, -47712.860728843305, -78392.28402284194, -49817.99272513303, -89541.58002633811, -32597.11356128616, 0.0, 0.0, 0.0, 193.0, 0.0, 1.0, 1.0, 0.0, 0.0, 1.0, 1.0, 256.0, 1.0, 1.75052945782159E9, 0.0, 2025-06-21 20:10:57.821
184.0, -44658.15957285876, -38069.066473134335, -30527.967873569476, -74310.69902309169, -28061.810500837626, -28493.869721158713, -53512.40080742846, -102376.82341060918, -187500.02235174447, -187500.02235174447, -49231.95233725934, -47692.61004836679, -78371.13927258721, -49796.222126033565, -89526.13497091949, -32575.566479631245, 0.0, 0.0, 0.0, 193.0, 0.0, 1.0, 1.0, 0.0, 0.0, 1.0, 1.0, 256.0, 1.0, 1.750529457829611E9, 0.0, 2025-06-21 20:10:57.829
186.0, -44660.2382850931, -38068.77590045642, -30532.438222460536, -74307.72624107913, -28061.31876245961, -28496.328413048795, -53510.59031612758, -102369.80496285022, -187500.02235174447, -187500.02235174447, -49249.7219741013, -47707.3621997073, -78374.42497902215, -49816.629268721255, -89510.68991550087, -32594.856035096174, 0.0, 0.0, 0.0, 193.0, 0.0, 1.0, 1.0, 0.0, 0.0, 1.0, 1.0, 256.0, 1.0, 1.750529457836711E9, 0.0, 2025-06-21 20:10:57.836
188.0, -44655.81263969096, -38068.798252200875, -30535.455707962003, -74307.3909649123, -28053.249782711242, -28514.12040163522, -53499.9285340224, -102365.22285523688, -187500.02235174447, -187500.02235174447, -49234.03104949368, -47692.073606499864, -78375.58726973382, -49787.46024220708, -89531.90172098896, -32564.904697526064, 0.0, 0.0, 0.0, 193.0, 0.0, 1.0, 1.0, 0.0, 0.0, 1.0, 1.0, 256.0, 1.0, 1.750529457845676E9, 0.0, 2025-06-21 20:10:57.845
190.0, -44676.01861667855, -38088.40073208818, -30550.90076338062, -74335.08477629242, -28062.570460149105, -28486.381886766183, -53520.715656365835, -102384.62416942409, -187500.02235174447, -187500.02235174447, -49255.28755847068, -47714.604164910816, -78383.47743552655, -49817.90331815521, -89515.58494753658, -32594.565462418257, 0.0, 0.0, 0.0, 193.0, 0.0, 1.0, 1.0, 0.0, 0.0, 1.0, 1.0, 256.0, 1.0, 1.75052945785376E9, 0.0, 2025-06-21 20:10:57.853
192.0, -44654.98562514611, -38065.69135972159, -30539.836649875244, -74312.82243881494, -28078.93193709039, -28515.55091328036, -53508.824528315614, -102367.14510526003, -187500.02235174447, -187500.02235174447, -49252.046555524656, -47717.01815331199, -78393.17809262015, -49815.66814370968, -89537.82493326961, -32593.60433740668, 0.0, 0.0, 0.0, 193.0, 0.0, 1.0, 1.0, 0.0, 0.0, 1.0, 1.0, 256.0, 1.0, 1.750529457860719E9, 0.0, 2025-06-21 20:10:57.860
194.0, -44662.96519791665, -38064.57377249882, -30544.061129577298, -74321.51726740805, -28066.057332284134, -28486.940680377567, -53513.45133941786, -102375.75052687533, -187500.02235174447, -187500.02235174447, -49242.10002924204, -47697.50508040251, -78378.13536860172, -49806.369818016276, -89537.55671233615, -32581.914375056553, 0.0, 0.0, 0.0, 193.0, 0.0, 1.0, 1.0, 0.0, 0.0, 1.0, 1.0, 256.0, 1.0, 1.750529457868835E9, 0.0, 2025-06-21 20:10:57.868
196.0, -44660.6406164933, -38066.92070566663, -30547.123318567672, -74320.55614239647, -28072.27111724271, -28493.847369414256, -53516.848804575064, -102378.3656809766, -187500.02235174447, -187500.02235174447, -49261.03195679569, -47710.42438869768, -78378.56005174638, -49822.15014960172, -89517.28368011519, -32597.806465364276, 0.0, 0.0, 0.0, 193.0, 0.0, 1.0, 1.0, 0.0, 0.0, 1.0, 1.0, 256.0, 1.0, 1.750529457877712E9, 0.0, 2025-06-21 20:10:57.877
198.0, -44653.0410233785, -38069.82643244582, -30545.357530755704, -74315.12466849384, -28073.16518702092, -28519.82009647132, -53514.770092340725, -102377.09163154264, -187500.02235174447, -187500.02235174447, -49249.319642701106, -47705.082321772854, -78391.43465655264, -49807.50975698349, -89552.91236077694, -32584.417770435546, 0.0, 0.0, 0.0, 193.0, 0.0, 1.0, 1.0, 0.0, 0.0, 1.0, 1.0, 256.0, 1.0, 1.750529457885775E9, 0.0, 2025-06-21 20:10:57.885
200.0, -44660.6406164933, -38062.15978409765, -30559.52853674037, -74338.50459319408, -28074.193367265867, -28478.603479695736, -53533.09852279408, -102394.79421315125, -187500.02235174447, -187500.02235174447, -49253.25354972525, -47709.217394497085, -78378.69416221311, -49828.07336188237, -89524.70445927435, -32604.154360789584, 0.0, 0.0, 0.0, 193.0, 0.0, 1.0, 1.0, 0.0, 0.0, 1.0, 1.0, 256.0, 1.0, 1.750529457892891E9, 0.0, 2025-06-21 20:10:57.892
202.0, -44644.86028490785, -38058.89642940717, -30539.546077197323, -74312.01777601455, -28065.207965994832, -28516.422631314115, -53508.66806610442, -102375.52700943078, -187500.02235174447, -187500.02235174447, -49257.61213989403, -47716.36995272279, -78393.62512750925, -49830.30853632791, -89551.19127645389, -32608.200026535993, 0.0, 0.0, 0.0, 193.0, 0.0, 1.0, 1.0, 0.0, 0.0, 1.0, 1.0, 256.0, 1.0, 1.750529457900839E9, 0.0, 2025-06-21 20:10:57.900
204.0, -44667.524953785534, -38093.92161296864, -30539.90370510861, -74327.55223841098, -28056.848413568547, -28500.463485773027, -53516.379417941505, -102384.37830023508, -187500.02235174447, -187500.02235174447, -49229.94068025836, -47698.734426347546, -78372.25685980999, -49800.91599236918, -89526.33613661959, -32581.333229700715, 0.0, 0.0, 0.0, 193.0, 0.0, 1.0, 1.0, 0.0, 0.0, 1.0, 1.0, 256.0, 1.0, 1.750529457909904E9, 0.0, 2025-06-21 20:10:57.909
206.0, -44667.3461398299, -38095.30742112487, -30536.349777740215, -74316.86810456135, -28049.02530300919, -28506.69962247606, -53513.31722895113, -102378.2092187654, -187500.02235174447, -187500.02235174447, -49254.39348869246, -47721.376743480774, -78385.13146461624, -49831.69434448414, -89521.75402900625, -32611.17280854855, 0.0, 0.0, 0.0, 193.0, 0.0, 1.0, 1.0, 0.0, 0.0, 1.0, 1.0, 256.0, 1.0, 1.750529457916884E9, 0.0, 2025-06-21 20:10:57.916
208.0, -44660.41709904875, -38093.67574377963, -30521.061184532784, -74304.37347941083, -28038.65409358193, -28513.785125468392, -53491.770147296214, -102358.47262841137, -187500.02235174447, -187500.02235174447, -49216.26141265171, -47686.508022130496, -78367.36182777426, -49788.37666372975, -89527.92311047592, -32567.318685927235, 0.0, 0.0, 0.0, 193.0, 0.0, 1.0, 1.0, 0.0, 0.0, 1.0, 1.0, 256.0, 1.0, 1.750529457924885E9, 0.0, 2025-06-21 20:10:57.924
210.0, -44689.65318079629, -38124.67761333914, -30537.623827174168, -74331.86612509086, -28051.528698388185, -28498.362421794227, -53517.631115631004, -102382.5678089342, -187500.02235174447, -187500.02235174447, -49241.45182865284, -47716.81698761189, -78378.67181046866, -49821.47959726806, -89516.21079638133, -32597.940575831006, 0.0, 0.0, 0.0, 193.0, 0.0, 1.0, 1.0, 0.0, 0.0, 1.0, 1.0, 256.0, 1.0, 1.75052945793303E9, 0.0, 2025-06-21 20:10:57.933
212.0, -44682.25475338158, -38118.17325570265, -30532.32646373826, -74313.11301149285, -28047.572439619595, -28526.97265469702, -53503.661275346436, -102368.66502388299, -187500.02235174447, -187500.02235174447, -49243.21761646481, -47721.01911556949, -78389.11007512928, -49810.080207595856, -89530.80648551065, -32588.329325715225, 0.0, 0.0, 0.0, 193.0, 0.0, 1.0, 1.0, 0.0, 0.0, 1.0, 1.0, 256.0, 1.0, 1.750529457942015E9, 0.0, 2025-06-21 20:10:57.942
214.0, -44675.90685795627, -38111.17715968814, -30532.237056760438, -74321.62902613032, -28041.98450350577, -28512.041689400878, -53508.22103121532, -102376.97987282038, -187500.02235174447, -187500.02235174447, -49237.80849430663, -47707.94334506313, -78380.750522703, -49801.07245458037, -89527.94546222038, -32579.858014566664, 0.0, 0.0, 0.0, 193.0, 0.0, 1.0, 1.0, 0.0, 0.0, 1.0, 1.0, 256.0, 1.0, 1.75052945794905E9, 0.0, 2025-06-21 20:10:57.949
216.0, -44663.30047408348, -38091.26175537846, -30533.71227189449, -74319.28209296252, -28046.946590774845, -28513.516904534925, -53508.31043819314, -102377.91864608749, -187500.02235174447, -187500.02235174447, -49240.06602049661, -47711.25140324252, -78371.72041794306, -49824.38532404725, -89517.52954930419, -32603.774381133844, 0.0, 0.0, 0.0, 193.0, 0.0, 1.0, 1.0, 0.0, 0.0, 1.0, 1.0, 256.0, 1.0, 1.750529457957048E9, 0.0, 2025-06-21 20:10:57.957
218.0, -44668.50843054157, -38098.77194151544, -30542.47415572097, -74325.96526455466, -28060.357637448033, -28525.11745990723, -53517.34054295308, -102378.0080530653, -187500.02235174447, -187500.02235174447, -49230.432418636374, -47703.830624083355, -78376.92837440115, -49811.398960518716, -89550.43131714241, -32592.12912227263, 0.0, 0.0, 0.0, 193.0, 0.0, 1.0, 1.0, 0.0, 0.0, 1.0, 1.0, 256.0, 1.0, 1.750529457966139E9, 0.0, 2025-06-21 20:10:57.966
220.0, -44674.722215500144, -38107.243252664004, -30547.32448426777, -74336.02354955954, -28040.88926802746, -28493.623851969704, -53526.19183375739, -102382.14312578955, -187500.02235174447, -187500.02235174447, -49249.543160145666, -47725.55651969391, -78380.63876398072, -49834.68947824115, -89530.33709887709, -32613.340927760713, 0.0, 0.0, 0.0, 193.0, 0.0, 1.0, 1.0, 0.0, 0.0, 1.0, 1.0, 256.0, 1.0, 1.75052945797314E9, 0.0, 2025-06-21 20:10:57.973
222.0, -44657.17609610273, -38090.904127467176, -30535.343949239726, -74317.65041561729, -28042.1186139725, -28528.49257331998, -53512.64667661747, -102372.28600648475, -187500.02235174447, -187500.02235174447, -49243.95522403184, -47713.687743388145, -78380.1023221138, -49817.053951865906, -89537.02027046922, -32595.727753129933, 0.0, 0.0, 0.0, 193.0, 0.0, 1.0, 1.0, 0.0, 0.0, 1.0, 1.0, 256.0, 1.0, 1.750529457981159E9, 0.0, 2025-06-21 20:10:57.981
224.0, -44676.57741028994, -38114.35110740079, -30543.770556899377, -74336.71645363767, -28056.960172290823, -28517.875494703712, -53526.25888899075, -102386.83699212516, -187500.02235174447, -187500.02235174447, -49240.66951759691, -47719.18627252415, -78386.02553439446, -49819.356181544805, -89542.07176471612, -32598.812293864765, 0.0, 0.0, 0.0, 193.0, 0.0, 1.0, 1.0, 0.0, 0.0, 1.0, 1.0, 256.0, 1.0, 1.750529457989208E9, 0.0, 2025-06-21 20:10:57.989
226.0, -44659.21010484816, -38092.20052864558, -30528.7054811365, -74318.20920922866, -28038.65409358193, -28511.41584055613, -53505.739987580775, -102374.72234663038, -187500.02235174447, -187500.02235174447, -49246.45861941083, -47726.830569127866, -78384.23739483803, -49831.26966133949, -89522.11165691754, -32610.904587615085, 0.0, 0.0, 0.0, 193.0, 0.0, 1.0, 1.0, 0.0, 0.0, 1.0, 1.0, 256.0, 1.0, 1.750529457998304E9, 0.0, 2025-06-21 20:10:57.998
228.0, -44653.15278210078, -38088.06545592135, -30532.684091649546, -74323.30540696447, -28038.02824473718, -28513.181628368096, -53510.4785574053, -102380.01971006629, -187500.02235174447, -187500.02235174447, -49219.14478768645, -47700.2096414816, -78373.06152261037, -49802.77118715897, -89535.16507567944, -32585.78122684732, 0.0, 0.0, 0.0, 193.0, 0.0, 1.0, 1.0, 0.0, 0.0, 1.0, 1.0, 256.0, 1.0, 1.750529458005188E9, 0.0, 2025-06-21 20:10:58.005
230.0, -44667.43554680771, -38100.76124677197, -30543.61409468819, -74341.4997269511, -28048.242991953255, -28501.55872125134, -53538.70881065236, -102398.23638179737, -187500.02235174447, -187500.02235174447, -49245.408087421434, -47728.238729028555, -78385.66790648317, -49847.92171095869, -89534.69568904588, -32629.031852368338, 0.0, 0.0, 0.0, 193.0, 0.0, 1.0, 1.0, 0.0, 0.0, 1.0, 1.0, 256.0, 1.0, 1.750529458013199E9, 0.0, 2025-06-21 20:10:58.013
232.0, -44648.21304657615, -38077.06839764934, -30533.309940494295, -74313.1353632373, -28042.476241883785, -28524.69277676258, -53515.664162118934, -102375.23643675285, -187500.02235174447, -187500.02235174447, -49230.92415701439, -47705.61876363978, -78377.95655464608, -49826.59814674833, -89540.4847908598, -32607.641232924612, 0.0, 0.0, 0.0, 193.0, 0.0, 1.0, 1.0, 0.0, 0.0, 1.0, 1.0, 256.0, 1.0, 1.750529458021218E9, 0.0, 2025-06-21 20:10:58.021
234.0, -44666.04973865148, -38098.21314790406, -30543.18941154354, -74330.56972391246, -28053.339189689064, -28511.572302767316, -53532.85265360506, -102394.48128872887, -187500.02235174447, -187500.02235174447, -49231.30413667013, -47708.27862122996, -78379.54352850241, -49818.21624257758, -89541.37886063801, -32597.06885779725, 0.0, 0.0, 0.0, 193.0, 0.0, 1.0, 1.0, 0.0, 0.0, 1.0, 1.0, 256.0, 1.0, 1.750529458029255E9, 0.0, 2025-06-21 20:10:58.029
236.0, -44649.285930310005, -38080.331752339815, -30535.366300984184, -74315.5940551274, -28039.905791271427, -28516.35557608075, -53527.22001400233, -102394.41423349551, -187500.02235174447, -187500.02235174447, -49246.92800604439, -47717.50989169001, -78380.05761862488, -49831.940213673144, -89528.54895932067, -32609.83170388123, 0.0, 0.0, 0.0, 193.0, 0.0, 1.0, 1.0, 0.0, 0.0, 1.0, 1.0, 256.0, 1.0, 1.750529458037376E9, 0.0, 2025-06-21 20:10:58.037
238.0, -44639.69703193868, -38073.91680168114, -30522.625806644657, -74302.83120904342, -28053.65211411144, -28523.150506395163, -53513.04900801766, -102371.05666053972, -187500.02235174447, -187500.02235174447, -49216.4178748629, -47690.01724600998, -78367.0489033519, -49794.7022074106, -89539.36720363704, -32574.292430197293, 0.0, 0.0, 0.0, 193.0, 0.0, 1.0, 1.0, 0.0, 0.0, 1.0, 1.0, 256.0, 1.0, 1.750529458045321E9, 0.0, 2025-06-21 20:10:58.045
240.0, -44660.12652637083, -38091.84290073429, -30537.132088796152, -74321.51726740805, -28058.45773916933, -28501.893997418167, -53531.757418126756, -102388.89335261505, -187500.02235174447, -187500.02235174447, -49228.93485175787, -47702.645981627225, -78365.5960399623, -49814.03646636444, -89513.66269751343, -32590.408037949568, 0.0, 0.0, 0.0, 193.0, 0.0, 1.0, 1.0, 0.0, 0.0, 1.0, 1.0, 256.0, 1.0, 1.750529458054429E9, 0.0, 2025-06-21 20:10:58.054
242.0, -44636.59013945939, -38067.92653416712, -30518.736603109435, -74293.15290369427, -28043.191497706357, -28522.859933717245, -53505.02473175821, -102365.96046280391, -187500.02235174447, -187500.02235174447, -49229.62775583599, -47700.32140020387, -78371.83217666534, -49806.347466271814, -89530.627671555, -32583.50134891288, 0.0, 0.0, 0.0, 193.0, 0.0, 1.0, 1.0, 0.0, 0.0, 1.0, 1.0, 256.0, 1.0, 1.750529458060424E9, 0.0, 2025-06-21 20:10:58.060
244.0, -44665.870924695846, -38101.20828166107, -30540.261333019895, -74328.66982563375, -28052.60158212204, -28511.661709745134, -53531.60095591557, -102390.3238642602, -187500.02235174447, -187500.02235174447, -49215.72497078478, -47697.03569376894, -78364.83608065083, -49796.57975394485, -89522.1787121509, -32575.611183120156, 0.0, 0.0, 0.0, 193.0, 0.0, 1.0, 1.0, 0.0, 0.0, 1.0, 1.0, 256.0, 1.0, 1.750529458069437E9, 0.0, 2025-06-21 20:10:58.069
246.0, -44658.49484902559, -38086.836109976306, -30535.634521917647, -74315.01290977155, -28053.987390278267, -28510.36530856673, -53518.25696447575, -102378.99152982135, -187500.02235174447, -187500.02235174447, -49246.525674644196, -47721.15322603622, -78380.3034878139, -49828.72156247158, -89521.73167726179, -32606.70245965749, 0.0, 0.0, 0.0, 193.0, 0.0, 1.0, 1.0, 0.0, 0.0, 1.0, 1.0, 256.0, 1.0, 1.750529458078479E9, 0.0, 2025-06-21 20:10:58.078
248.0, -44657.332558313916, -38085.02561867543, -30533.287588749838, -74309.91671203575, -28056.468433912807, -28518.680157504103, -53510.076226005105, -102371.92837857347, -187500.02235174447, -187500.02235174447, -49223.70454355533, -47699.47203391457, -78375.02847612245, -49798.81492839038, -89541.87059901602, -32577.265212209848, 0.0, 0.0, 0.0, 193.0, 0.0, 1.0, 1.0, 0.0, 0.0, 1.0, 1.0, 256.0, 1.0, 1.750529458085501E9, 0.0, 2025-06-21 20:10:58.085
250.0, -44661.534686271516, -38093.139301912706, -30528.303149736304, -74318.07509876194, -28055.440253667864, -28490.338145534774, -53521.98970579979, -102381.65138741153, -187500.02235174447, -187500.02235174447, -49231.50530237023, -47706.04344678443, -78365.95366787359, -49816.89748965472, -89513.0815521576, -32595.54893917429, 0.0, 0.0, 0.0, 193.0, 0.0, 1.0, 1.0, 0.0, 0.0, 1.0, 1.0, 256.0, 1.0, 1.750529458093505E9, 0.0, 2025-06-21 20:10:58.093
252.0, -44648.727136698624, -38076.46490054904, -30526.783231113342, -74306.25102594508, -28054.166204233912, -28533.23114314451, -53511.68555160589, -102378.27627399878, -187500.02235174447, -187500.02235174447, -49222.050514465634, -47699.561440892394, -78367.98767661901, -49807.889736639234, -89525.26325288574, -32589.290450726803, 0.0, 0.0, 0.0, 193.0, 0.0, 1.0, 1.0, 0.0, 0.0, 1.0, 1.0, 256.0, 1.0, 1.750529458101553E9, 0.0, 2025-06-21 20:10:58.101
254.0, -44667.189677618706, -38094.74862751349, -30536.774460884866, -74322.88072381982, -28047.348922175042, -28520.177724382607, -53516.75939759724, -102386.09938455814, -187500.02235174447, -187500.02235174447, -49228.95720350232, -47704.478824672566, -78375.60962147827, -49806.61568720528, -89525.9785087083, -32589.82689259373, 0.0, 0.0, 0.0, 193.0, 0.0, 1.0, 1.0, 0.0, 0.0, 1.0, 1.0, 256.0, 1.0, 1.750529458109585E9, 0.0, 2025-06-21 20:10:58.109
0.0, -44659.25480833707, -38091.373514100735, -30533.13112653865, -74312.21894171464, -28052.713340844315, -28519.59657902677, -53515.15007199646, -102380.75731763331, -187500.02235174447, -187500.02235174447, -49244.06698275411, -47717.44283645664, -78378.4482930241, -49821.27843156796, -89510.82402596761, -32601.628613666133, 0.0, 0.0, 0.0, 193.0, 0.0, 1.0, 1.0, 0.0, 0.0, 1.0, 1.0, 256.0, 1.0, 1.75052945811663E9, 0.0, 2025-06-21 20:10:58.116
2.0, -44664.6415787508, -38092.78167400142, -30536.215667273485, -74316.35401443887, -28071.242936997765, -28534.371082111727, -53533.79142687219, -102392.51433521681, -187500.02235174447, -187500.02235174447, -49230.61123259202, -47699.62849612576, -78376.92837440115, -49796.4009399892, -89533.82397101211, -32577.287563954305, 0.0, 0.0, 0.0, 193.0, 0.0, 1.0, 1.0, 0.0, 0.0, 1.0, 1.0, 256.0, 1.0, 1.750529458125615E9, 0.0, 2025-06-21 20:10:58.125
4.0, -44687.239192395115, -38113.16646494466, -30555.035836104853, -74342.10322405139, -28086.93386160539, -28511.01350915593, -53578.249046593795, -102428.41123681203, -187500.02235174447, -187500.02235174447, -49250.437229923875, -47721.68966790315, -78382.71747621507, -49833.23661485155, -89526.93963371989, -32613.899721372098, 0.0, 0.0, 0.0, 193.0, 0.0, 1.0, 1.0, 0.0, 0.0, 1.0, 1.0, 256.0, 1.0, 1.750529458133745E9, 0.0, 2025-06-21 20:10:58.133
6.0, -44665.46859329565, -38093.38517110171, -30548.66558893509, -74322.92542730873, -28076.428541711397, -28542.060082204353, -53561.30642429667, -102418.68822797397, -187500.02235174447, -187500.02235174447, -49247.03976476667, -47717.42048471219, -78389.08772338483, -49834.2647950965, -89555.01342475574, -32615.196122550504, 0.0, 0.0, 0.0, 193.0, 0.0, 1.0, 1.0, 0.0, 0.0, 1.0, 1.0, 256.0, 1.0, 1.750529458140702E9, 0.0, 2025-06-21 20:10:58.140
8.0, -44662.138183371804, -38083.79627273038, -30534.069899805774, -74318.76800284005, -28051.662808854915, -28491.858064157735, -53542.93329035441, -102400.87388764309, -187500.02235174447, -187500.02235174447, -49241.004793763736, -47708.502138674514, -78382.76217970398, -49821.68076296816, -89540.95417749336, -32604.89196835661, 0.0, 0.0, 0.0, 193.0, 0.0, 1.0, 1.0, 0.0, 0.0, 1.0, 1.0, 256.0, 1.0, 1.750529458148716E9, 0.0, 2025-06-21 20:10:58.148
10.0, -44671.101232898385, -38095.553290313874, -30544.731681910955, -74321.33845345241, -28063.665695627416, -28516.31087259184, -53530.39396171498, -102395.2188962959, -187500.02235174447, -187500.02235174447, -49240.78127631918, -47705.641115384235, -78370.02168536445, -49819.40088503372, -89508.2759270997, -32601.226282265936, 0.0, 0.0, 0.0, 193.0, 0.0, 1.0, 1.0, 0.0, 0.0, 1.0, 1.0, 256.0, 1.0, 1.750529458157747E9, 0.0, 2025-06-21 20:10:58.157
12.0, -44663.81456420595, -38088.13251115471, -30531.074766048765, -74309.1344009798, -28061.050541526147, -28526.771488996925, -53509.96446728283, -102379.59502692164, -187500.02235174447, -187500.02235174447, -49238.836674551574, -47706.512833418, -78385.39968554971, -49800.73717841353, -89538.71900304784, -32581.35558144517, 0.0, 0.0, 0.0, 193.0, 0.0, 1.0, 1.0, 0.0, 0.0, 1.0, 1.0, 256.0, 1.0, 1.750529458165771E9, 0.0, 2025-06-21 20:10:58.165
