%OpenBCI Raw EXG Data
%Number of channels = 16
%Sample Rate = 125 Hz
%Board = OpenBCI_GUI$BoardCytonSerialDaisy
Sample Index, EXG Channel 0, EXG Channel 1, EXG Channel 2, EXG Channel 3, EXG Channel 4, EXG Channel 5, EXG Channel 6, EXG Channel 7, EXG Channel 8, EXG Channel 9, EXG Channel 10, EXG Channel 11, EXG Channel 12, EXG Channel 13, EXG Channel 14, EXG Channel 15, Accel Channel 0, Accel Channel 1, Accel Channel 2, Not Used, Digital Channel 0 (D11), Digital Channel 1 (D12), Digital Channel 2 (D13), Digital Channel 3 (D17), Not Used, Digital Channel 4 (D18), Analog Channel 0, Analog Channel 1, Analog Channel 2, Timestamp, Marker Channel, Timestamp (Formatted)
162.0, -42945.27834001522, -38460.46787029122, -29010.195018076305, -70784.957204456, -27980.91953765387, -28219.211485291897, -51740.823893645276, -98209.6312295951, -187500.02235174447, -187500.02235174447, -46324.75034293537, -44994.68743737786, -77809.90932105892, -47699.8073100814, -87090.33126715795, -30816.81946716541, 0.0, 0.0, 0.0, 193.0, 0.0, 1.0, 1.0, 0.0, 0.0, 1.0, 1.0, 256.0, 1.0, 1.750527126388364E9, 0.0, 2025-06-21 19:32:06.388
164.0, -42938.326947489615, -38450.633102730884, -28990.614889933455, -70769.24392810393, -27969.520147981664, -28210.226084020866, -51741.9638326125, -98212.00051450737, -187500.02235174447, -187500.02235174447, -46286.908839572534, -44960.53397185016, -77795.85007379652, -47660.75881251798, -87112.16892149078, -30777.6145073908, 0.0, 0.0, 0.0, 193.0, 0.0, 1.0, 1.0, 0.0, 0.0, 1.0, 1.0, 256.0, 1.0, 1.750527126388442E9, 0.0, 2025-06-21 19:32:06.388
0.0, -21405.1033741359, -19103.678358039662, -14496.939122311966, -35412.42753415436, -13950.438970379708, -14036.49318653264, -25889.779733393163, -49091.337512891, -93750.01117587223, -93750.01117587223, -23146.72895034897, -22486.324308672465, -38888.5261283548, -23840.5270982417, -43528.83768425437, -15398.921418061427, 0.0, 0.0, 0.0, 193.0, 0.0, 1.0, 1.0, 0.0, 0.0, 1.0, 1.0, 256.0, 1.0, 1.750527126467352E9, 0.0, 2025-06-21 19:32:06.467
2.0, -42777.86377404496, -38194.23624208406, -28972.174700757827, -70798.36825112918, -27906.421173384333, -28146.076577434134, -51757.07361186429, -98172.25911286582, -187500.02235174447, -187500.02235174447, -46323.94568013497, -44955.37071888098, -77612.81163845201, -47711.67608638717, -87179.85000370146, -30844.982665179097, 0.0, 0.0, 0.0, 193.0, 0.0, 1.0, 1.0, 0.0, 0.0, 1.0, 1.0, 256.0, 1.0, 1.750527126473393E9, 0.0, 2025-06-21 19:32:06.473
4.0, -42809.71500989378, -38218.689050518165, -28973.985192058706, -70810.19232394604, -27903.582501838508, -28089.973698851314, -51783.69453951056, -98189.24643865185, -187500.02235174447, -187500.02235174447, -46305.68430491499, -44937.62343378347, -77587.10713232841, -47699.919068803676, -87145.85300038493, -30832.06335688393, 0.0, 0.0, 0.0, 193.0, 0.0, 1.0, 1.0, 0.0, 0.0, 1.0, 1.0, 256.0, 1.0, 1.750527126481419E9, 0.0, 2025-06-21 19:32:06.481
6.0, -42803.121245279464, -38210.17303588069, -28966.944392555284, -70794.99313771643, -27897.41342036884, -28117.712213720348, -51767.19895210254, -98169.95688318693, -187500.02235174447, -187500.02235174447, -46329.37715403762, -44959.2152189273, -77599.37824003438, -47720.92970859167, -87139.03571832606, -30855.376226350814, 0.0, 0.0, 0.0, 193.0, 0.0, 1.0, 1.0, 0.0, 0.0, 1.0, 1.0, 256.0, 1.0, 1.750527126489476E9, 0.0, 2025-06-21 19:32:06.489
8.0, -42789.643143372916, -38206.440294556654, -28958.69659885128, -70788.73464926895, -27894.440638356285, -28110.157324094456, -51760.605187488225, -98162.80432496122, -187500.02235174447, -187500.02235174447, -46282.438490681474, -44917.3504015625, -77582.59207994844, -47671.17472543415, -87159.15228833584, -30802.916682114206, 0.0, 0.0, 0.0, 193.0, 0.0, 1.0, 1.0, 0.0, 0.0, 1.0, 1.0, 256.0, 1.0, 1.750527126496535E9, 0.0, 2025-06-21 19:32:06.496
10.0, -42805.356419724994, -38217.12442840629, -28976.60034615998, -70806.70545181101, -27906.130600706412, -28073.16518702092, -51786.600266289744, -98182.80913624873, -187500.02235174447, -187500.02235174447, -46320.30234578876, -44958.45525961581, -77586.6153939504, -47717.97927832357, -87123.72477337418, -30849.184793136694, 0.0, 0.0, 0.0, 193.0, 0.0, 1.0, 1.0, 0.0, 0.0, 1.0, 1.0, 256.0, 1.0, 1.750527126504572E9, 0.0, 2025-06-21 19:32:06.504
12.0, -42766.151459950386, -38183.0603698564, -28947.58778185699, -70770.8532537047, -27878.414437581832, -28128.597513270084, -51750.390440272145, -98148.14158059855, -187500.02235174447, -187500.02235174447, -46305.88547061509, -44932.46018081429, -77592.38214401987, -47688.29616168692, -87158.72760519119, -30819.68049045569, 0.0, 0.0, 0.0, 193.0, 0.0, 1.0, 1.0, 0.0, 0.0, 1.0, 1.0, 256.0, 1.0, 1.750527126513545E9, 0.0, 2025-06-21 19:32:06.513
14.0, -42801.71308537878, -38214.86690221631, -28965.223308232227, -70799.84346626324, -27901.302623904066, -28095.628690198504, -51797.44086235057, -98186.54187757277, -187500.02235174447, -187500.02235174447, -46290.194546007464, -44925.911119688884, -77572.1538152878, -47685.56924886337, -87132.15138103384, -30815.500714242546, 0.0, 0.0, 0.0, 193.0, 0.0, 1.0, 1.0, 0.0, 0.0, 1.0, 1.0, 256.0, 1.0, 1.750527126521569E9, 0.0, 2025-06-21 19:32:06.521
16.0, -42797.91328882138, -38206.90968119022, -28972.532328669113, -70798.83763776274, -27913.260807187657, -28118.136896865, -51783.00163543244, -98177.75764200183, -187500.02235174447, -187500.02235174447, -46314.91557537503, -44949.42515485587, -77587.75533291762, -47712.704266632114, -87132.97839557867, -30844.91560994573, 0.0, 0.0, 0.0, 193.0, 0.0, 1.0, 1.0, 0.0, 0.0, 1.0, 1.0, 256.0, 1.0, 1.75052712652859E9, 0.0, 2025-06-21 19:32:06.528
18.0, -42792.101835263, -38203.62397475529, -28967.771407100132, -70794.27788189387, -27909.37160365243, -28115.030004385713, -51773.1668678721, -98176.75181350134, -187500.02235174447, -187500.02235174447, -46295.8271856102, -44927.83336971204, -77592.02451610858, -47681.92591451716, -87171.87043093091, -30810.829199651387, 0.0, 0.0, 0.0, 193.0, 0.0, 1.0, 1.0, 0.0, 0.0, 1.0, 1.0, 256.0, 1.0, 1.750527126536621E9, 0.0, 2025-06-21 19:32:06.536
20.0, -42796.974515554255, -38201.902890432226, -28972.8899565804, -70806.6160448332, -27893.166588922333, -28065.878518328493, -51784.96858894451, -98180.5739618032, -187500.02235174447, -187500.02235174447, -46322.96220337894, -44962.88090501796, -77589.31995502948, -47721.28733650295, -87128.79861936554, -30852.671665271722, 0.0, 0.0, 0.0, 193.0, 0.0, 1.0, 1.0, 0.0, 0.0, 1.0, 1.0, 256.0, 1.0, 1.750527126546668E9, 0.0, 2025-06-21 19:32:06.546
22.0, -42760.2953029031, -38176.48895698654, -28948.280685935104, -70769.3556868262, -27885.388181851886, -28143.95316171088, -51750.83747516126, -98154.42242079049, -187500.02235174447, -187500.02235174447, -46291.803871608245, -44921.79839870911, -77582.05563808151, -47686.93270527515, -87157.85588715744, -30818.942882888663, 0.0, 0.0, 0.0, 193.0, 0.0, 1.0, 1.0, 0.0, 0.0, 1.0, 1.0, 256.0, 1.0, 1.750527126552697E9, 0.0, 2025-06-21 19:32:06.552
24.0, -42797.51095742118, -38209.48013180258, -28963.569279142535, -70797.38477437315, -27890.23851039869, -28089.526663962206, -51781.90639995413, -98181.17745890349, -187500.02235174447, -187500.02235174447, -46294.799005365254, -44925.37467782196, -77575.03719032255, -47691.33599893284, -87138.16400029231, -30821.401574778745, 0.0, 0.0, 0.0, 193.0, 0.0, 1.0, 1.0, 0.0, 0.0, 1.0, 1.0, 256.0, 1.0, 1.750527126561737E9, 0.0, 2025-06-21 19:32:06.561
26.0, -42802.87537609046, -38212.877596959785, -28982.36709622945, -70806.63839657765, -27912.992586254193, -28134.43131857292, -51786.19793488955, -98185.37958686109, -187500.02235174447, -187500.02235174447, -46317.21780505393, -44953.403765368916, -77590.63870795236, -47714.470054444086, -87136.24175026915, -30847.351950091357, 0.0, 0.0, 0.0, 193.0, 0.0, 1.0, 1.0, 0.0, 0.0, 1.0, 1.0, 256.0, 1.0, 1.750527126568726E9, 0.0, 2025-06-21 19:32:06.568
28.0, -42781.730625835735, -38201.25468984302, -28956.081444750005, -70787.32648936826, -27895.42411511232, -28118.405117798462, -51773.50214403894, -98172.30381635473, -187500.02235174447, -187500.02235174447, -46295.98364782139, -44935.03063142665, -77594.01382136511, -47689.68196984315, -87182.50986129163, -30819.389917777768, 0.0, 0.0, 0.0, 193.0, 0.0, 1.0, 1.0, 0.0, 0.0, 1.0, 1.0, 256.0, 1.0, 1.750527126576768E9, 0.0, 2025-06-21 19:32:06.576
30.0, -42792.213593985274, -38199.35479156432, -28957.333142439504, -70795.37311737218, -27891.37844936591, -28076.808521367137, -51787.27081862341, -98173.93549369997, -187500.02235174447, -187500.02235174447, -46309.0817700722, -44944.105439675506, -77570.05275130902, -47704.79174909493, -87108.2126627222, -30838.232438353592, 0.0, 0.0, 0.0, 193.0, 0.0, 1.0, 1.0, 0.0, 0.0, 1.0, 1.0, 256.0, 1.0, 1.750527126584748E9, 0.0, 2025-06-21 19:32:06.584
32.0, -42775.18156471033, -38177.87476514278, -28960.328276196517, -70782.83378873275, -27905.549455350574, -28148.781138513226, -51764.181466601076, -98173.24258962186, -187500.02235174447, -187500.02235174447, -46292.04974079725, -44922.26778534267, -77580.24514678064, -47679.75779530499, -87150.23394229817, -30813.734926430578, 0.0, 0.0, 0.0, 193.0, 0.0, 1.0, 1.0, 0.0, 0.0, 1.0, 1.0, 256.0, 1.0, 1.750527126592785E9, 0.0, 2025-06-21 19:32:06.592
34.0, -42800.41668420037, -38200.83000669837, -28966.340895454992, -70798.90469299612, -27890.350269120965, -28085.99508833827, -51779.38065283068, -98185.98308396139, -187500.02235174447, -187500.02235174447, -46307.40538923805, -44936.058811671595, -77584.46962648269, -47696.633362368746, -87143.90839861732, -30827.928284159698, 0.0, 0.0, 0.0, 193.0, 0.0, 1.0, 1.0, 0.0, 0.0, 1.0, 1.0, 256.0, 1.0, 1.750527126600767E9, 0.0, 2025-06-21 19:32:06.600
36.0, -42792.12418700745, -38203.869843944296, -28969.96187805675, -70794.05436444932, -27907.427001884822, -28119.165077109945, -51781.995806931955, -98175.05308092273, -187500.02235174447, -187500.02235174447, -46320.72702893341, -44954.52135259168, -77592.38214401987, -47714.22418525508, -87137.24757876965, -30845.921438446218, 0.0, 0.0, 0.0, 193.0, 0.0, 1.0, 1.0, 0.0, 0.0, 1.0, 1.0, 256.0, 1.0, 1.750527126608829E9, 0.0, 2025-06-21 19:32:06.608
38.0, -42773.16990770935, -38180.13229133276, -28953.82391856002, -70781.87266372117, -27891.981946466203, -28107.855094415558, -51760.00169038793, -98163.13960112806, -187500.02235174447, -187500.02235174447, -46288.40640645104, -44918.06565738507, -77583.19557704874, -47675.466260369576, -87168.71883496271, -30805.375374004292, 0.0, 0.0, 0.0, 193.0, 0.0, 1.0, 1.0, 0.0, 0.0, 1.0, 1.0, 256.0, 1.0, 1.750527126617887E9, 0.0, 2025-06-21 19:32:06.617
40.0, -42795.34283820901, -38199.57830900887, -28964.575107643024, -70799.57524532978, -27895.20059766777, -28084.65398367095, -51782.93458019908, -98183.25617113784, -187500.02235174447, -187500.02235174447, -46313.64152594108, -44949.60396881151, -77578.4570072242, -47713.0618945434, -87119.12031401639, -30845.496755301567, 0.0, 0.0, 0.0, 193.0, 0.0, 1.0, 1.0, 0.0, 0.0, 1.0, 1.0, 256.0, 1.0, 1.7505271266249E9, 0.0, 2025-06-21 19:32:06.624
42.0, -42770.55475360808, -38179.662904699195, -28952.214592959237, -70778.49755030841, -27892.47368484422, -28126.65291150247, -51759.73346945447, -98162.17847611649, -187500.02235174447, -187500.02235174447, -46288.36170296213, -44925.19586386631, -77582.12269331487, -47682.88703952874, -87155.50895398963, -30815.523065987, 0.0, 0.0, 0.0, 193.0, 0.0, 1.0, 1.0, 0.0, 0.0, 1.0, 1.0, 256.0, 1.0, 1.750527126632987E9, 0.0, 2025-06-21 19:32:06.632
44.0, -42802.29423073462, -38210.217739369604, -28971.191224001795, -70808.18066694506, -27901.883769259905, -28083.871672615016, -51793.23873439297, -98189.93934272998, -187500.02235174447, -187500.02235174447, -46295.648371654555, -44932.75075349221, -77574.59015543344, -47690.33017043235, -87137.62755842537, -30822.51916200151, 0.0, 0.0, 0.0, 193.0, 0.0, 1.0, 1.0, 0.0, 0.0, 1.0, 1.0, 256.0, 1.0, 1.750527126640973E9, 0.0, 2025-06-21 19:32:06.640
46.0, -42794.739341108725, -38200.47237878709, -28974.7898548591, -70802.19039943104, -27893.18894066679, -28123.76953646774, -51781.30290285384, -98179.21050539143, -187500.02235174447, -187500.02235174447, -46332.86402617265, -44972.29098943365, -77602.55218774703, -47727.1658452947, -87146.36709050741, -30860.852403742363, 0.0, 0.0, 0.0, 193.0, 0.0, 1.0, 1.0, 0.0, 0.0, 1.0, 1.0, 256.0, 1.0, 1.750527126650035E9, 0.0, 2025-06-21 19:32:06.650
48.0, -42766.50908786167, -38175.84075639734, -28941.86573527643, -70774.98832642894, -27890.573786565517, -28100.92605363441, -51762.75095495593, -98165.5759412737, -187500.02235174447, -187500.02235174447, -46278.9739702909, -44916.43398003984, -77577.09355081244, -47671.21942892307, -87162.30388430404, -30802.84962688084, 0.0, 0.0, 0.0, 193.0, 0.0, 1.0, 1.0, 0.0, 0.0, 1.0, 1.0, 256.0, 1.0, 1.750527126657028E9, 0.0, 2025-06-21 19:32:06.657
50.0, -42807.27866974815, -38209.41307656921, -28978.65670664987, -70807.08543146675, -27913.14904846538, -28084.07283831511, -51795.96564721652, -98195.84020326617, -187500.02235174447, -187500.02235174447, -46303.270316513815, -44948.933416477856, -77572.01970482108, -47708.72565611907, -87116.81808433749, -30840.020577910018, 0.0, 0.0, 0.0, 193.0, 0.0, 1.0, 1.0, 0.0, 0.0, 1.0, 1.0, 256.0, 1.0, 1.750527126665058E9, 0.0, 2025-06-21 19:32:06.665
52.0, -42764.27391341614, -38160.46275621209, -28961.647029119376, -70777.4023148301, -27901.99552798218, -28115.544094508183, -51768.227132347485, -98169.04046166426, -187500.02235174447, -187500.02235174447, -46306.06428457073, -44935.567073293576, -77595.37727777688, -47693.079435000356, -87171.15517510835, -30821.37922303429, 0.0, 0.0, 0.0, 193.0, 0.0, 1.0, 1.0, 0.0, 0.0, 1.0, 1.0, 256.0, 1.0, 1.750527126674062E9, 0.0, 2025-06-21 19:32:06.674
54.0, -42805.75875112519, -38212.40821032622, -28975.035724048106, -70806.19136168854, -27908.32107166303, -28083.64815517046, -51794.24456289346, -98195.16965093251, -187500.02235174447, -187500.02235174447, -46301.660990913035, -44933.86834071497, -77581.18392004776, -47694.956981534604, -87146.94823586324, -30823.05560386844, 0.0, 0.0, 0.0, 193.0, 0.0, 1.0, 1.0, 0.0, 0.0, 1.0, 1.0, 256.0, 1.0, 1.750527126680077E9, 0.0, 2025-06-21 19:32:06.680
56.0, -42782.714102591766, -38195.73380896256, -28947.878354534907, -70778.34108809724, -27887.42219059732, -28111.02904212821, -51764.382632301174, -98164.14542962855, -187500.02235174447, -187500.02235174447, -46313.03802884079, -44950.05100370062, -77584.24610903813, -47703.11536826079, -87124.57413966348, -30836.421947052713, 0.0, 0.0, 0.0, 193.0, 0.0, 1.0, 1.0, 0.0, 0.0, 1.0, 1.0, 256.0, 1.0, 1.750527126689085E9, 0.0, 2025-06-21 19:32:06.689
58.0, -42767.85019252899, -38191.08464611586, -28941.239886431682, -70773.42370431706, -27868.46791129922, -28120.2379608438, -51755.643100219146, -98164.90538894002, -187500.02235174447, -187500.02235174447, -46275.64356036706, -44916.67984922884, -77575.43952172274, -47662.34578637431, -87151.88797138787, -30793.86422560981, 0.0, 0.0, 0.0, 193.0, 0.0, 1.0, 1.0, 0.0, 0.0, 1.0, 1.0, 256.0, 1.0, 1.750527126697181E9, 0.0, 2025-06-21 19:32:06.697
60.0, -42781.70827409128, -38208.02726841298, -28952.10283423696, -70790.54514056983, -27872.223004367712, -28072.829910854092, -51774.239751605965, -98172.99672043286, -187500.02235174447, -187500.02235174447, -46293.03321755329, -44938.450448328316, -77558.92158257027, -47686.9550570196, -87092.07470322546, -30819.635786966777, 0.0, 0.0, 0.0, 193.0, 0.0, 1.0, 1.0, 0.0, 0.0, 1.0, 1.0, 256.0, 1.0, 1.75052712670512E9, 0.0, 2025-06-21 19:32:06.705
62.0, -42728.667584498835, -38160.95449459011, -28915.222455885705, -70746.62396271515, -27856.80030069355, -28138.09700466359, -51732.509044707906, -98146.62166197559, -187500.02235174447, -187500.02235174447, -46271.84376380966, -44920.7031632308, -77568.26461175259, -47666.078527698344, -87137.58285493647, -30800.14506580175, 0.0, 0.0, 0.0, 193.0, 0.0, 1.0, 1.0, 0.0, 0.0, 1.0, 1.0, 256.0, 1.0, 1.750527126712144E9, 0.0, 2025-06-21 19:32:06.712
64.0, -42764.385672138415, -38201.545262520944, -28937.28362766309, -70779.43632357554, -27865.696294986763, -28097.729754177304, -51770.05997539282, -98160.70326098244, -187500.02235174447, -187500.02235174447, -46251.36956588859, -44905.25810781218, -77538.46973639366, -47656.24376013801, -87104.77049407607, -30788.90213834073, 0.0, 0.0, 0.0, 193.0, 0.0, 1.0, 1.0, 0.0, 0.0, 1.0, 1.0, 256.0, 1.0, 1.750527126721238E9, 0.0, 2025-06-21 19:32:06.721
66.0, -42747.51010507466, -38173.873802885275, -28936.903648007352, -70767.20991935849, -27863.1258443744, -28130.855039460068, -51752.826780417774, -98154.53417951276, -187500.02235174447, -187500.02235174447, -46283.73489185988, -44938.718669261776, -77561.73790237163, -47682.06002498389, -87102.9152992863, -30818.205275321638, 0.0, 0.0, 0.0, 193.0, 0.0, 1.0, 1.0, 0.0, 0.0, 1.0, 1.0, 256.0, 1.0, 1.75052712672925E9, 0.0, 2025-06-21 19:32:06.729
68.0, -42737.45182006977, -38169.64932318322, -28922.95615946724, -70755.43055003053, -27858.74490246116, -28118.271007331732, -51748.021155359886, -98146.53225499777, -187500.02235174447, -187500.02235174447, -46251.07899321068, -44900.58659322102, -77554.38417844585, -47640.37402157474, -87132.35254673392, -30773.4123794332, 0.0, 0.0, 0.0, 193.0, 0.0, 1.0, 1.0, 0.0, 0.0, 1.0, 1.0, 256.0, 1.0, 1.750527126736303E9, 0.0, 2025-06-21 19:32:06.736
70.0, -42758.26129415766, -38188.08951235885, -28940.703444564755, -70781.98442244345, -27863.103492629947, -28083.983431337292, -51763.15328635613, -98157.52931326978, -187500.02235174447, -187500.02235174447, -46274.83889756667, -44930.247358113214, -77545.62229461936, -47676.76266154798, -87081.41292112028, -30812.080897340882, 0.0, 0.0, 0.0, 193.0, 0.0, 1.0, 1.0, 0.0, 0.0, 1.0, 1.0, 256.0, 1.0, 1.750527126745295E9, 0.0, 2025-06-21 19:32:06.745
72.0, -42707.45577901075, -38138.490991412524, -28904.04658365805, -70737.95148586649, -27845.579724976986, -28130.408004570963, -51726.04939056032, -98123.28644076425, -187500.02235174447, -187500.02235174447, -46255.035251979265, -44912.12009335996, -77556.7087598692, -47654.276806625945, -87122.18250300676, -30790.4667604526, 0.0, 0.0, 0.0, 193.0, 0.0, 1.0, 1.0, 0.0, 0.0, 1.0, 1.0, 256.0, 1.0, 1.750527126753353E9, 0.0, 2025-06-21 19:32:06.753
74.0, -42753.03098595512, -38187.016628624995, -28939.183525941793, -70779.88335846465, -27866.23273685369, -28092.07476283011, -51767.78009745838, -98173.35434834413, -187500.02235174447, -187500.02235174447, -46253.068298467195, -44904.27463105615, -77537.73212882664, -47659.641225295214, -87104.4575696537, -30794.400667476737, 0.0, 0.0, 0.0, 193.0, 0.0, 1.0, 1.0, 0.0, 0.0, 1.0, 1.0, 256.0, 1.0, 1.750527126761363E9, 0.0, 2025-06-21 19:32:06.761
76.0, -42734.23316886821, -38166.005988837, -28935.49548810667, -70769.24392810393, -27860.354228061944, -28118.60628349856, -51758.54882699833, -98159.74213597085, -187500.02235174447, -187500.02235174447, -46282.103214514646, -44933.331898848046, -77555.59117264643, -47688.34086517583, -87101.79771206352, -30826.788345192475, 0.0, 0.0, 0.0, 193.0, 0.0, 1.0, 1.0, 0.0, 0.0, 1.0, 1.0, 256.0, 1.0, 1.750527126768374E9, 0.0, 2025-06-21 19:32:06.768
78.0, -42730.29926184408, -38165.80482313691, -28927.091232191473, -70767.85811994769, -27854.90040241485, -28116.54992300867, -51749.67518444958, -98157.68577548096, -187500.02235174447, -187500.02235174447, -46255.14701070154, -44911.717761959764, -77561.13440527134, -47655.50615257098, -87138.3651659924, -30792.120789542296, 0.0, 0.0, 0.0, 193.0, 0.0, 1.0, 1.0, 0.0, 0.0, 1.0, 1.0, 256.0, 1.0, 1.750527126777381E9, 0.0, 2025-06-21 19:32:06.777
80.0, -42742.8385904835, -38173.583230207354, -28937.216572429727, -70785.44894283402, -27848.55250698954, -28082.17294003641, -51761.38749854416, -98167.36408083011, -187500.02235174447, -187500.02235174447, -46275.21887722241, -44943.32312861957, -77552.28311446705, -47689.54785937642, -87085.68210431124, -30829.58231324939, 0.0, 0.0, 0.0, 193.0, 0.0, 1.0, 1.0, 0.0, 0.0, 1.0, 1.0, 256.0, 1.0, 1.750527126785441E9, 0.0, 2025-06-21 19:32:06.785
82.0, -42708.528662744604, -38145.71060487159, -28912.517894806613, -70750.69198020601, -27839.03066385158, -28132.933751694414, -51735.12419880917, -98145.86170266412, -187500.02235174447, -187500.02235174447, -46254.141182201056, -44911.04720962611, -77555.18884124623, -47666.45850735409, -87129.78209612156, -30806.29179552696, 0.0, 0.0, 0.0, 193.0, 0.0, 1.0, 1.0, 0.0, 0.0, 1.0, 1.0, 256.0, 1.0, 1.750527126792408E9, 0.0, 2025-06-21 19:32:06.792
84.0, -42746.48192482971, -38176.13132907526, -28933.461479361235, -70782.58791954374, -27859.86248968393, -28092.164169807933, -51780.23001911998, -98183.50204032684, -187500.02235174447, -187500.02235174447, -46242.40651636202, -44902.82176766655, -77531.8983235238, -47667.3525771323, -87107.87738655537, -30806.00122284904, 0.0, 0.0, 0.0, 193.0, 0.0, 1.0, 1.0, 0.0, 0.0, 1.0, 1.0, 256.0, 1.0, 1.750527126800486E9, 0.0, 2025-06-21 19:32:06.800
86.0, -42732.512084545146, -38162.22854402406, -28929.974607226206, -70765.62294550217, -27856.84500418246, -28116.393460797484, -51758.03473687587, -98166.671176752, -187500.02235174447, -187500.02235174447, -46283.1760982485, -44935.768238993674, -77559.07804478146, -47699.74025484804, -87117.08630527095, -30838.791231964977, 0.0, 0.0, 0.0, 193.0, 0.0, 1.0, 1.0, 0.0, 0.0, 1.0, 1.0, 256.0, 1.0, 1.750527126809495E9, 0.0, 2025-06-21 19:32:06.809
88.0, -42710.31680230103, -38145.129459515745, -28901.431429556782, -70737.50445097739, -27833.80035564904, -28100.479018745307, -51748.82581816028, -98147.26986256479, -187500.02235174447, -187500.02235174447, -46241.62420530608, -44894.28340128463, -77546.29284695302, -47644.687908254615, -87132.17373277829, -30781.682524881668, 0.0, 0.0, 0.0, 193.0, 0.0, 1.0, 1.0, 0.0, 0.0, 1.0, 1.0, 256.0, 1.0, 1.750527126816527E9, 0.0, 2025-06-21 19:32:06.816
90.0, -42736.62480552492, -38165.71541615909, -28930.265179904127, -70767.03110540284, -27852.687579713773, -28080.0271725687, -51771.75870797142, -98174.76250824482, -187500.02235174447, -187500.02235174447, -46248.82146702069, -44907.51563400217, -77519.42605011775, -47662.05521369639, -87067.3983773468, -30798.4686849676, 0.0, 0.0, 0.0, 193.0, 0.0, 1.0, 1.0, 0.0, 0.0, 1.0, 1.0, 256.0, 1.0, 1.750527126824527E9, 0.0, 2025-06-21 19:32:06.824
92.0, -42699.78913066258, -38137.84279082332, -28909.14278139386, -70741.01367485686, -27845.0209313656, -28127.077594647122, -51726.85405336071, -98140.18435957246, -187500.02235174447, -187500.02235174447, -46247.45801060891, -44907.13565434643, -77547.63395162034, -47649.940568201615, -87124.8647123414, -30787.18105401767, 0.0, 0.0, 0.0, 193.0, 0.0, 1.0, 1.0, 0.0, 0.0, 1.0, 1.0, 256.0, 1.0, 1.750527126832613E9, 0.0, 2025-06-21 19:32:06.832
94.0, -42744.11263991745, -38174.36554126329, -28942.06690097653, -70779.27986136435, -27860.175414106303, -28081.904719102946, -51768.60711200322, -98178.76347050232, -187500.02235174447, -187500.02235174447, -46248.0168042203, -44905.77219793465, -77536.79335555952, -47653.8968269702, -87104.05523825351, -30790.243243008048, 0.0, 0.0, 0.0, 193.0, 0.0, 1.0, 1.0, 0.0, 0.0, 1.0, 1.0, 256.0, 1.0, 1.750527126841632E9, 0.0, 2025-06-21 19:32:06.841
96.0, -42731.260386855654, -38155.970055576574, -28939.652912575355, -70770.74149498243, -27853.29107681407, -28116.639329986494, -51760.2699113214, -98161.59733076065, -187500.02235174447, -187500.02235174447, -46284.181926748985, -44939.769201251176, -77563.52604192807, -47689.570211120874, -87112.77241859108, -30826.520124259012, 0.0, 0.0, 0.0, 193.0, 0.0, 1.0, 1.0, 0.0, 0.0, 1.0, 1.0, 256.0, 1.0, 1.750527126848764E9, 0.0, 2025-06-21 19:32:06.848
98.0, -42722.90083442937, -38151.991445063526, -28926.353624624448, -70757.73277970943, -27848.50780350063, -28108.257425815755, -51752.62561471768, -98146.04051661975, -187500.02235174447, -187500.02235174447, -46242.585330317655, -44896.29505828561, -77550.27145746606, -47644.17381813214, -87136.57702643597, -30778.70974286911, 0.0, 0.0, 0.0, 193.0, 0.0, 1.0, 1.0, 0.0, 0.0, 1.0, 1.0, 256.0, 1.0, 1.750527126856737E9, 0.0, 2025-06-21 19:32:06.856
100.0, -42764.29626516059, -38182.45687275611, -28964.82097683203, -70797.92121624008, -27868.110283387934, -28077.99316382327, -51774.70913823952, -98175.20954313393, -187500.02235174447, -187500.02235174447, -46297.749435633355, -44943.680756530855, -77566.74469312963, -47698.82383332537, -87106.02219176557, -30833.829144695897, 0.0, 0.0, 0.0, 193.0, 0.0, 1.0, 1.0, 0.0, 0.0, 1.0, 1.0, 256.0, 1.0, 1.750527126865708E9, 0.0, 2025-06-21 19:32:06.865
102.0, -42714.183654091794, -38150.940913074126, -28931.315711893527, -70761.68903847803, -27852.374655291398, -28123.300149834176, -51737.538187210346, -98147.62749047608, -187500.02235174447, -187500.02235174447, -46272.31315044322, -44926.894596444916, -77575.9089083563, -47677.120289459264, -87149.87631438689, -30812.14795257425, 0.0, 0.0, 0.0, 193.0, 0.0, 1.0, 1.0, 0.0, 0.0, 1.0, 1.0, 256.0, 1.0, 1.750527126872695E9, 0.0, 2025-06-21 19:32:06.872
104.0, -42729.092267643486, -38162.69793065762, -28925.77247926861, -70768.32750658125, -27845.445614510252, -28064.850338083546, -51752.93853914006, -98157.93164466998, -187500.02235174447, -187500.02235174447, -46241.735964028354, -44907.56033749108, -77537.44155614873, -47662.68106254114, -87108.59264237793, -30797.52991170048, 0.0, 0.0, 0.0, 193.0, 0.0, 1.0, 1.0, 0.0, 0.0, 1.0, 1.0, 256.0, 1.0, 1.750527126880801E9, 0.0, 2025-06-21 19:32:06.880
106.0, -42733.33909908999, -38160.41805272318, -28941.977493998707, -70773.33429733924, -27856.643838482363, -28113.800658440672, -51746.277719292375, -98157.14933361404, -187500.02235174447, -187500.02235174447, -46271.597894620645, -44930.15795113539, -77549.48914641012, -47686.843298297325, -87105.99984002112, -30823.39088003527, 0.0, 0.0, 0.0, 193.0, 0.0, 1.0, 1.0, 0.0, 0.0, 1.0, 1.0, 256.0, 1.0, 1.750527126889794E9, 0.0, 2025-06-21 19:32:06.889
108.0, -42723.19140710728, -38156.327683487856, -28921.883275733388, -70757.03987563132, -27847.434919766776, -28112.28073981771, -51739.16986455559, -98152.29900506724, -187500.02235174447, -187500.02235174447, -46246.83216176417, -44903.760540933676, -77552.46192842268, -47649.67234726815, -87137.49344795865, -30786.957536573118, 0.0, 0.0, 0.0, 193.0, 0.0, 1.0, 1.0, 0.0, 0.0, 1.0, 1.0, 256.0, 1.0, 1.750527126897838E9, 0.0, 2025-06-21 19:32:06.897
110.0, -42743.777363750625, -38169.51521271649, -28932.545057838568, -70769.71331473748, -27849.13365234538, -28069.343038719064, -51759.75582119892, -98161.55262727174, -187500.02235174447, -187500.02235174447, -46270.904990542535, -44931.32024184707, -77544.61646611887, -47682.037673239436, -87083.02224672107, -30821.870961412307, 0.0, 0.0, 0.0, 193.0, 0.0, 1.0, 1.0, 0.0, 0.0, 1.0, 1.0, 256.0, 1.0, 1.750527126904841E9, 0.0, 2025-06-21 19:32:06.904
112.0, -42732.75795373416, -38157.73584338854, -28938.892953263876, -70760.99613439992, -27866.500957787153, -28141.136841909512, -51746.99297511494, -98154.82475219069, -187500.02235174447, -187500.02235174447, -46256.778688046776, -44902.93352638883, -77552.79720458951, -47659.95414971759, -87130.89968334434, -30797.194635533648, 0.0, 0.0, 0.0, 193.0, 0.0, 1.0, 1.0, 0.0, 0.0, 1.0, 1.0, 256.0, 1.0, 1.750527126912905E9, 0.0, 2025-06-21 19:32:06.912
114.0, -42743.777363750625, -38160.35099748981, -28947.721892323723, -70784.13018991116, -27854.006332636636, -28072.74050387627, -51763.71207996751, -98173.39905183305, -187500.02235174447, -187500.02235174447, -46273.94482778846, -44921.865453942475, -77557.80399534751, -47685.524545374465, -87132.68782290076, -30819.635786966777, 0.0, 0.0, 0.0, 193.0, 0.0, 1.0, 1.0, 0.0, 0.0, 1.0, 1.0, 256.0, 1.0, 1.750527126920928E9, 0.0, 2025-06-21 19:32:06.920
116.0, -42742.860942227955, -38165.5589539479, -28944.614999844434, -70776.5529485408, -27863.036437396582, -28108.503295004764, -51760.895760166146, -98165.8218104627, -187500.02235174447, -187500.02235174447, -46292.4744239419, -44946.09474493203, -77568.15285303032, -47704.121196761276, -87118.44976168273, -30840.936999432684, 0.0, 0.0, 0.0, 193.0, 0.0, 1.0, 1.0, 0.0, 0.0, 1.0, 1.0, 256.0, 1.0, 1.750527126928966E9, 0.0, 2025-06-21 19:32:06.928
118.0, -42733.04852641207, -38169.93989586114, -28930.82397351551, -70765.55589026879, -27852.776986691595, -28113.487734018297, -51763.82383868979, -98169.174572131, -187500.02235174447, -187500.02235174447, -46259.52795261478, -44911.53894800413, -77562.81078610549, -47658.83656249483, -87144.22132303969, -30794.512426199013, 0.0, 0.0, 0.0, 193.0, 0.0, 1.0, 1.0, 0.0, 0.0, 1.0, 1.0, 256.0, 1.0, 1.75052712693696E9, 0.0, 2025-06-21 19:32:06.936
120.0, -42745.63255854041, -38175.058445341405, -28945.196145200272, -70782.74438175492, -27857.783777449582, -28075.13214053299, -51794.8257082493, -98188.50883108484, -187500.02235174447, -187500.02235174447, -46271.12850798709, -44927.587500523034, -77541.48722189514, -47693.571173378376, -87092.9017177703, -30827.414194037225, 0.0, 0.0, 0.0, 193.0, 0.0, 1.0, 1.0, 0.0, 0.0, 1.0, 1.0, 256.0, 1.0, 1.750527126944961E9, 0.0, 2025-06-21 19:32:06.944
122.0, -42712.037886624086, -38141.06144202488, -28928.544095581066, -70752.99420988491, -27849.2230593232, -28126.295283591186, -51756.5148182529, -98168.3699093306, -187500.02235174447, -187500.02235174447, -46265.09353698415, -44916.00929689519, -77559.81565234848, -47674.683949313636, -87143.50606721712, -30806.850589138343, 0.0, 0.0, 0.0, 193.0, 0.0, 1.0, 1.0, 0.0, 0.0, 1.0, 1.0, 256.0, 1.0, 1.750527126953039E9, 0.0, 2025-06-21 19:32:06.953
124.0, -42720.10686637245, -38152.617293908275, -28919.938673965775, -70756.92811690904, -27832.995692848646, -28064.202137494343, -51759.04056537635, -98173.66727276651, -187500.02235174447, -187500.02235174447, -46244.93226348547, -44901.100683343495, -77532.32300666845, -47658.9483212171, -87105.21752896518, -30791.47258895309, 0.0, 0.0, 0.0, 193.0, 0.0, 1.0, 1.0, 0.0, 0.0, 1.0, 1.0, 256.0, 1.0, 1.75052712696005E9, 0.0, 2025-06-21 19:32:06.960
126.0, -42718.07285762702, -38141.10614551379, -28925.99599671316, -70757.88924192062, -27838.94125687376, -28108.70446070486, -51748.781114671365, -98163.54193252826, -187500.02235174447, -187500.02235174447, -46263.998301505846, -44921.17254986436, -77542.0013120176, -47677.23204818154, -87094.08636022644, -30813.37729851929, 0.0, 0.0, 0.0, 193.0, 0.0, 1.0, 1.0, 0.0, 0.0, 1.0, 1.0, 256.0, 1.0, 1.750527126969026E9, 0.0, 2025-06-21 19:32:06.969
128.0, -42710.60737497895, -38150.33741597384, -28917.703499520245, -70748.18858482702, -27833.196858548745, -28101.954233879358, -51740.01923084489, -98155.47295277989, -187500.02235174447, -187500.02235174447, -46235.85745523661, -44888.98603784872, -77540.36963467236, -47644.44203906561, -87134.27479675709, -30779.62616439178, 0.0, 0.0, 0.0, 193.0, 0.0, 1.0, 1.0, 0.0, 0.0, 1.0, 1.0, 256.0, 1.0, 1.750527126977056E9, 0.0, 2025-06-21 19:32:06.977
130.0, -42731.394497322384, -38157.713491644085, -28932.701520049755, -70770.6520880046, -27846.585553477475, -28060.201175236845, -51760.62753923268, -98167.5205430413, -187500.02235174447, -187500.02235174447, -46262.791307305255, -44917.88684342943, -77532.7476898131, -47685.39043490773, -87089.01251423509, -30820.73102244509, 0.0, 0.0, 0.0, 193.0, 0.0, 1.0, 1.0, 0.0, 0.0, 1.0, 1.0, 256.0, 1.0, 1.750527126985075E9, 0.0, 2025-06-21 19:32:06.985
132.0, -42707.09815109947, -38136.613444878276, -28926.934769980286, -70757.48691052043, -27851.815861680017, -28128.776327225725, -51738.67812617757, -98153.68481322346, -187500.02235174447, -187500.02235174447, -46261.316092171204, -44909.348477047504, -77555.83704183543, -47672.42642312365, -87138.3204625035, -30808.348156016847, 0.0, 0.0, 0.0, 193.0, 0.0, 1.0, 1.0, 0.0, 0.0, 1.0, 1.0, 256.0, 1.0, 1.750527126993128E9, 0.0, 2025-06-21 19:32:06.993
134.0, -42731.30509034456, -38164.284904513945, -28931.427470615803, -70770.4509223045, -27841.93639063077, -28069.231279996788, -51758.52647525388, -98168.92870294198, -187500.02235174447, -187500.02235174447, -46245.58046407467, -44898.46317749777, -77531.33952991242, -47661.20584740709, -87102.73648533065, -30796.501731455533, 0.0, 0.0, 0.0, 193.0, 0.0, 1.0, 1.0, 0.0, 0.0, 1.0, 1.0, 256.0, 1.0, 1.750527127001204E9, 0.0, 2025-06-21 19:32:07.001
136.0, -42729.11461938794, -38162.27324751297, -28942.558639354545, -70777.22350087446, -27858.208460594233, -28110.716117705837, -51760.180504343574, -98172.32616809919, -187500.02235174447, -187500.02235174447, -46289.18871750697, -44942.4067070969, -77563.21311750569, -47701.0590077709, -87113.10769475791, -30836.5784092639, 0.0, 0.0, 0.0, 193.0, 0.0, 1.0, 1.0, 0.0, 0.0, 1.0, 1.0, 256.0, 1.0, 1.750527127009199E9, 0.0, 2025-06-21 19:32:07.009
138.0, -42693.575345704005, -38128.92444478565, -28907.19817962625, -70743.53942198031, -27828.21241953521, -28101.57425422362, -51733.87250111968, -98149.52738875478, -187500.02235174447, -187500.02235174447, -46238.36085061561, -44898.97726762024, -77547.87982080935, -47649.29236761241, -87135.50414270212, -30784.409437705213, 0.0, 0.0, 0.0, 193.0, 0.0, 1.0, 1.0, 0.0, 0.0, 1.0, 1.0, 256.0, 1.0, 1.750527127016188E9, 0.0, 2025-06-21 19:32:07.016
140.0, -42728.377011820914, -38157.9593608331, -28937.194220685273, -70777.26820436337, -27842.13755633087, -28071.30999223113, -51762.88506542266, -98170.15804888702, -187500.02235174447, -187500.02235174447, -46249.69318505445, -44906.46510201277, -77522.53294259703, -47672.806402779395, -87074.79680476151, -30810.180999062184, 0.0, 0.0, 0.0, 193.0, 0.0, 1.0, 1.0, 0.0, 0.0, 1.0, 1.0, 256.0, 1.0, 1.750527127025176E9, 0.0, 2025-06-21 19:32:07.025
142.0, -42715.323593059016, -38145.33062521584, -28939.6305608309, -70771.99319267193, -27846.496146499652, -28137.13587965201, -51747.70823093751, -98161.8655516941, -187500.02235174447, -187500.02235174447, -46267.50752538533, -44918.37858180745, -77567.057617552, -47678.79667029341, -87149.42927949778, -30816.663004954222, 0.0, 0.0, 0.0, 193.0, 0.0, 1.0, 1.0, 0.0, 0.0, 1.0, 1.0, 256.0, 1.0, 1.750527127033222E9, 0.0, 2025-06-21 19:32:07.033
144.0, -42732.48973280069, -38151.32089272987, -28938.848249774965, -70783.10200966621, -27840.237658052167, -28080.451855713352, -51766.79662070234, -98171.27563610979, -187500.02235174447, -187500.02235174447, -46270.01092076432, -44922.93833767633, -77555.92644881326, -47671.5547050899, -87120.4614186837, -30809.6222054508, 0.0, 0.0, 0.0, 193.0, 0.0, 1.0, 1.0, 0.0, 0.0, 1.0, 1.0, 256.0, 1.0, 1.750527127041281E9, 0.0, 2025-06-21 19:32:07.041
146.0, -42734.054354912565, -38163.27907601346, -28946.49254637868, -70785.42659108956, -27855.861527426427, -28124.55184752367, -51754.57021648529, -98167.87817095258, -187500.02235174447, -187500.02235174447, -46293.904935587045, -44952.7108612908, -77572.57849843246, -47699.44968217012, -87115.63344188136, -30838.00892090904, 0.0, 0.0, 0.0, 193.0, 0.0, 1.0, 1.0, 0.0, 0.0, 1.0, 1.0, 256.0, 1.0, 1.750527127048268E9, 0.0, 2025-06-21 19:32:07.048
148.0, -42720.57625300602, -38156.12651778776, -28933.327368894505, -70768.61807925918, -27837.913076628814, -28117.443992786884, -51740.600376200724, -98162.15612437202, -187500.02235174447, -187500.02235174447, -46255.01290023481, -44911.449541026304, -77565.18007101776, -47656.89196072721, -87143.95310210623, -30793.216025020603, 0.0, 0.0, 0.0, 193.0, 0.0, 1.0, 1.0, 0.0, 0.0, 1.0, 1.0, 256.0, 1.0, 1.750527127057341E9, 0.0, 2025-06-21 19:32:07.057
150.0, -42743.21857013924, -38171.92920111766, -28947.364264412437, -70790.58984405873, -27840.237658052167, -28065.096207272556, -51767.78009745838, -98179.7245955139, -187500.02235174447, -187500.02235174447, -46286.26063898333, -44941.311471618596, -77558.11691976988, -47695.87340305727, -87096.16507246079, -30831.661025483732, 0.0, 0.0, 0.0, 193.0, 0.0, 1.0, 1.0, 0.0, 0.0, 1.0, 1.0, 256.0, 1.0, 1.750527127065385E9, 0.0, 2025-06-21 19:32:07.065
152.0, -42708.886290655886, -38145.71060487159, -28924.409022856835, -70757.86689017617, -27839.768271418605, -28131.011501671255, -51738.164036055095, -98145.79464743074, -187500.02235174447, -187500.02235174447, -46264.82531605069, -44924.45825629929, -77570.58919317594, -47674.79570803591, -87142.47788697218, -30809.175170561695, 0.0, 0.0, 0.0, 193.0, 0.0, 1.0, 1.0, 0.0, 0.0, 1.0, 1.0, 256.0, 1.0, 1.750527127072356E9, 0.0, 2025-06-21 19:32:07.072
154.0, -42734.16611363484, -38159.747500389516, -28933.930865994796, -70776.73176249645, -27837.957780117726, -28068.806596852137, -51756.894797908644, -98162.8713801946, -187500.02235174447, -187500.02235174447, -46246.38512687506, -44904.92283164535, -77538.87206779385, -47655.5508560599, -87105.73161908766, -30789.639745907756, 0.0, 0.0, 0.0, 193.0, 0.0, 1.0, 1.0, 0.0, 0.0, 1.0, 1.0, 256.0, 1.0, 1.750527127080372E9, 0.0, 2025-06-21 19:32:07.080
156.0, -42726.991203664686, -38151.276189240954, -28949.845308046977, -70785.65010853412, -27853.13461460288, -28109.240902571786, -51751.21745481699, -98162.0667173942, -187500.02235174447, -187500.02235174447, -46297.5259181888, -44947.458201343805, -77571.52796644306, -47701.953077549115, -87119.67910762777, -30838.18773486468, 0.0, 0.0, 0.0, 193.0, 0.0, 1.0, 1.0, 0.0, 0.0, 1.0, 1.0, 256.0, 1.0, 1.750527127089375E9, 0.0, 2025-06-21 19:32:07.089
158.0, -42733.11558164544, -38169.69402667213, -28943.54211611058, -70780.82213173177, -27853.08991111397, -28117.533399764707, -51750.09986759423, -98164.90538894002, -187500.02235174447, -187500.02235174447, -46255.325824657186, -44913.975288149755, -77566.43176870725, -47659.84239099531, -87151.97737836569, -30794.512426199013, 0.0, 0.0, 0.0, 193.0, 0.0, 1.0, 1.0, 0.0, 0.0, 1.0, 1.0, 256.0, 1.0, 1.750527127096494E9, 0.0, 2025-06-21 19:32:07.096
160.0, -42745.18552365131, -38166.43067198165, -28950.739377825186, -70795.17195167208, -27846.183222077278, -28067.152567762445, -51765.18729510156, -98173.95784544443, -187500.02235174447, -187500.02235174447, -46286.64061863907, -44953.537875835646, -77563.30252448352, -47702.981257794054, -87105.53045338756, -30839.975874421107, 0.0, 0.0, 0.0, 193.0, 0.0, 1.0, 1.0, 0.0, 0.0, 1.0, 1.0, 256.0, 1.0, 1.750527127104583E9, 0.0, 2025-06-21 19:32:07.104
162.0, -42723.2361105962, -38151.723224130066, -28943.408005643847, -70777.8046462303, -27854.922754159303, -28138.029949430223, -51748.37878327117, -98164.95009242895, -187500.02235174447, -187500.02235174447, -46279.59981913565, -44938.98689019524, -77579.97692584716, -47687.133870975245, -87156.7159481902, -30823.346176546358, 0.0, 0.0, 0.0, 193.0, 0.0, 1.0, 1.0, 0.0, 0.0, 1.0, 1.0, 256.0, 1.0, 1.750527127112494E9, 0.0, 2025-06-21 19:32:07.112
164.0, -42741.47513407173, -38182.16630007819, -28945.5314213671, -70793.42851560457, -27840.55058247454, -28081.010649324733, -51767.48952478046, -98178.87522922459, -187500.02235174447, -187500.02235174447, -46262.34427241615, -44921.68663998683, -77552.52898365606, -47681.36712090577, -87127.83749435395, -30817.06533635442, 0.0, 0.0, 0.0, 193.0, 0.0, 1.0, 1.0, 0.0, 0.0, 1.0, 1.0, 256.0, 1.0, 1.75052712712159E9, 0.0, 2025-06-21 19:32:07.121
166.0, -42723.10200012947, -38159.479279456056, -28947.520726623625, -70787.84057949073, -27845.89264939936, -28103.071821102123, -51760.2699113214, -98165.08420289567, -187500.02235174447, -187500.02235174447, -46289.52399367381, -44951.39210836794, -77567.23643150764, -47713.53128117696, -87126.02700305308, -30849.47536581461, 0.0, 0.0, 0.0, 193.0, 0.0, 1.0, 1.0, 0.0, 0.0, 1.0, 1.0, 256.0, 1.0, 1.750527127128598E9, 0.0, 2025-06-21 19:32:07.128
168.0, -42717.82698843801, -38158.24993351101, -28937.68595906329, -70776.01650667388, -27846.853774410938, -28110.917283405935, -51748.46819024899, -98166.73823198536, -187500.02235174447, -187500.02235174447, -46252.82242927819, -44912.36596254897, -77561.69319888273, -47663.86570499727, -87148.6693201863, -30798.938071601162, 0.0, 0.0, 0.0, 193.0, 0.0, 1.0, 1.0, 0.0, 0.0, 1.0, 1.0, 256.0, 1.0, 1.750527127136597E9, 0.0, 2025-06-21 19:32:07.136
170.0, -42751.823991754536, -38180.98165762206, -28965.69269486579, -70802.77154478688, -27855.436844281776, -28070.684143386385, -51784.722719755504, -98190.00639796334, -187500.02235174447, -187500.02235174447, -46287.35587446164, -44941.780858252154, -77559.90505932631, -47701.953077549115, -87101.97652601916, -30837.15955461974, 0.0, 0.0, 0.0, 193.0, 0.0, 1.0, 1.0, 0.0, 0.0, 1.0, 1.0, 256.0, 1.0, 1.750527127145571E9, 0.0, 2025-06-21 19:32:07.145
172.0, -42707.25461331065, -38136.23346522253, -28934.601418328457, -70763.72304722347, -27846.02675986609, -28119.880332932513, -51741.06976283428, -98152.1648946005, -187500.02235174447, -187500.02235174447, -46287.758205861835, -44933.84598897052, -77584.9613648607, -47690.9560192771, -87162.10271860394, -30825.536647502977, 0.0, 0.0, 0.0, 193.0, 0.0, 1.0, 1.0, 0.0, 0.0, 1.0, 1.0, 256.0, 1.0, 1.750527127152637E9, 0.0, 2025-06-21 19:32:07.152
174.0, -42751.84634349899, -38179.528794232465, -28956.975514528218, -70797.13890518414, -27862.74586471866, -28085.12337030451, -51780.49824005345, -98186.4748223394, -187500.02235174447, -187500.02235174447, -46258.879752025576, -44909.840215425524, -77547.61159987589, -47671.5547050899, -87122.13779951785, -30805.353022259835, 0.0, 0.0, 0.0, 193.0, 0.0, 1.0, 1.0, 0.0, 0.0, 1.0, 1.0, 256.0, 1.0, 1.750527127160677E9, 0.0, 2025-06-21 19:32:07.160
176.0, -42733.47320955672, -38166.676541170666, -28950.269991191628, -70784.5101695669, -27858.56608850552, -28112.593664240085, -51759.53230375437, -98170.49332505386, -187500.02235174447, -187500.02235174447, -46300.99043857938, -44951.68268104585, -77578.32289675748, -47717.15226377872, -87134.47596245719, -30851.934057704697, 0.0, 0.0, 0.0, 193.0, 0.0, 1.0, 1.0, 0.0, 0.0, 1.0, 1.0, 256.0, 1.0, 1.750527127168685E9, 0.0, 2025-06-21 19:32:07.168
178.0, -42725.1360088749, -38158.16052653319, -28931.650988060355, -70765.84646294672, -27847.233754066678, -28101.864826901536, -51750.122219338686, -98160.1668191155, -187500.02235174447, -187500.02235174447, -46255.68345256847, -44903.2464508112, -77559.61448664838, -47659.77533576195, -87152.29030278807, -30791.517292442, 0.0, 0.0, 0.0, 193.0, 0.0, 1.0, 1.0, 0.0, 0.0, 1.0, 1.0, 256.0, 1.0, 1.750527127177717E9, 0.0, 2025-06-21 19:32:07.177
180.0, -42761.099965703484, -38181.74161693354, -28963.837500076, -70805.38669888815, -27859.169585605814, -28071.466454442318, -51792.277609381395, -98194.38733987659, -187500.02235174447, -187500.02235174447, -46284.8748308271, -44941.89261697443, -77557.1557947583, -47702.60127813832, -87103.69761034222, -30837.00309240855, 0.0, 0.0, 0.0, 193.0, 0.0, 1.0, 1.0, 0.0, 0.0, 1.0, 1.0, 256.0, 1.0, 1.750527127184738E9, 0.0, 2025-06-21 19:32:07.184
182.0, -42724.51016003015, -38154.38308172025, -28949.733549324697, -70781.98442244345, -27859.437806539278, -28134.744242995293, -51757.185370586565, -98171.65561576553, -187500.02235174447, -187500.02235174447, -46289.501641929346, -44940.48445707375, -77588.09060908445, -47693.68293210065, -87162.14742209285, -30828.017691137517, 0.0, 0.0, 0.0, 193.0, 0.0, 1.0, 1.0, 0.0, 0.0, 1.0, 1.0, 256.0, 1.0, 1.750527127192769E9, 0.0, 2025-06-21 19:32:07.192
184.0, -42751.6898812878, -38178.32180003188, -28958.026046517618, -70803.15152444263, -27855.5262512596, -28077.657887656438, -51779.2241906195, -98188.9782177184, -187500.02235174447, -187500.02235174447, -46270.36854867561, -44931.096724402516, -77565.44829195122, -47682.171783706166, -87128.79861936554, -30816.975929376596, 0.0, 0.0, 0.0, 193.0, 0.0, 1.0, 1.0, 0.0, 0.0, 1.0, 1.0, 256.0, 1.0, 1.750527127200858E9, 0.0, 2025-06-21 19:32:07.200
186.0, -42720.50919777265, -38143.98952054853, -28940.368168397927, -70777.73759099694, -27844.104509842935, -28094.645213442473, -51749.67518444958, -98158.37867955909, -187500.02235174447, -187500.02235174447, -46295.33544723218, -44953.82844851357, -77575.59598393393, -47710.53614741995, -87125.7140786307, -30847.06137741344, 0.0, 0.0, 0.0, 193.0, 0.0, 1.0, 1.0, 0.0, 0.0, 1.0, 1.0, 256.0, 1.0, 1.750527127208869E9, 0.0, 2025-06-21 19:32:07.208
188.0, -42731.59566302248, -38159.546334689425, -28941.306941665047, -70781.67149802107, -27856.42032103781, -28119.299187576675, -51762.706251467025, -98173.71197625542, -187500.02235174447, -187500.02235174447, -46245.84868500813, -44906.42039852386, -77557.71458836968, -47658.47893458354, -87149.63044519788, -30794.065391309905, 0.0, 0.0, 0.0, 193.0, 0.0, 1.0, 1.0, 0.0, 0.0, 1.0, 1.0, 256.0, 1.0, 1.750527127216896E9, 0.0, 2025-06-21 19:32:07.216
190.0, -42766.08440471702, -38190.011762382004, -28966.74322685519, -70809.29825416784, -27865.919812431315, -28071.622916653505, -51787.56139130132, -98192.21922066441, -187500.02235174447, -187500.02235174447, -46289.03225529579, -44950.96742522329, -77564.88949833983, -47707.96569680759, -87110.58194763446, -30844.423871567713, 0.0, 0.0, 0.0, 193.0, 0.0, 1.0, 1.0, 0.0, 0.0, 1.0, 1.0, 256.0, 1.0, 1.750527127224927E9, 0.0, 2025-06-21 19:32:07.224
192.0, -42722.56555826254, -38150.04684329592, -28946.425491145314, -70780.46450382049, -27863.1258443744, -28132.57612378313, -51746.79180941484, -98166.55941802972, -187500.02235174447, -187500.02235174447, -46291.28978148577, -44946.51942807668, -77592.80682716452, -47693.86174605629, -87163.71204420472, -30828.464726026625, 0.0, 0.0, 0.0, 193.0, 0.0, 1.0, 1.0, 0.0, 0.0, 1.0, 1.0, 256.0, 1.0, 1.750527127233976E9, 0.0, 2025-06-21 19:32:07.233
194.0, -42748.806506253066, -38178.835890154354, -28951.34287492548, -70795.44017260554, -27856.286210571077, -28073.276945743197, -51775.849077206745, -98186.54187757277, -187500.02235174447, -187500.02235174447, -46265.652330595534, -44923.98886966573, -77557.51342266958, -47675.33214990284, -87120.43906693925, -30809.532798472977, 0.0, 0.0, 0.0, 193.0, 0.0, 1.0, 1.0, 0.0, 0.0, 1.0, 1.0, 256.0, 1.0, 1.750527127239907E9, 0.0, 2025-06-21 19:32:07.239
196.0, -42731.97564267822, -38155.92535208766, -28945.889049278387, -70784.1078381667, -27853.916925658814, -28110.47024851683, -51754.6149199742, -98174.69545301146, -187500.02235174447, -187500.02235174447, -46297.25769725534, -44954.789573525144, -77575.28305951155, -47709.284449730454, -87123.63536639635, -30846.18965937968, 0.0, 0.0, 0.0, 193.0, 0.0, 1.0, 1.0, 0.0, 0.0, 1.0, 1.0, 256.0, 1.0, 1.750527127249018E9, 0.0, 2025-06-21 19:32:07.249
198.0, -42726.365354819936, -38161.915619601685, -28930.980435726695, -70768.3498583257, -27841.93639063077, -28110.671414216926, -51742.14264656814, -98164.34659532865, -187500.02235174447, -187500.02235174447, -46251.883656011065, -44905.66043921238, -77557.06638778048, -47656.82490549385, -87146.12122131839, -30794.735943643565, 0.0, 0.0, 0.0, 193.0, 0.0, 1.0, 1.0, 0.0, 0.0, 1.0, 1.0, 256.0, 1.0, 1.750527127256997E9, 0.0, 2025-06-21 19:32:07.256
200.0, -42753.81329701105, -38176.176032564166, -28956.8861075504, -70797.83180926226, -27854.676884970297, -28075.199195766356, -51773.39038531666, -98184.99960720535, -187500.02235174447, -187500.02235174447, -46281.49971741435, -44937.243454127725, -77550.74084409962, -47696.74512109103, -87097.57323236146, -30834.454993540647, 0.0, 0.0, 0.0, 193.0, 0.0, 1.0, 1.0, 0.0, 0.0, 1.0, 1.0, 256.0, 1.0, 1.75052712726503E9, 0.0, 2025-06-21 19:32:07.265
202.0, -42728.399363565375, -38150.717395629574, -28945.039682989085, -70777.42466657456, -27848.194879078255, -28130.720928993338, -51743.416696002096, -98161.32910982719, -187500.02235174447, -187500.02235174447, -46287.11000527263, -44938.6069105395, -77586.12365557237, -47688.743196576026, -87158.25821855763, -30825.648406225257, 0.0, 0.0, 0.0, 193.0, 0.0, 1.0, 1.0, 0.0, 0.0, 1.0, 1.0, 256.0, 1.0, 1.750527127272052E9, 0.0, 2025-06-21 19:32:07.272
204.0, -42763.46925061575, -38194.146835106236, -28968.39725594488, -70810.99698674644, -27863.438768796776, -28081.949422591857, -51779.04537666385, -98194.6779125545, -187500.02235174447, -187500.02235174447, -46280.11390925812, -44937.48932331674, -77570.4103792203, -47683.73640581804, -87131.25731125561, -30820.66396721172, 0.0, 0.0, 0.0, 193.0, 0.0, 1.0, 1.0, 0.0, 0.0, 1.0, 1.0, 256.0, 1.0, 1.750527127281022E9, 0.0, 2025-06-21 19:32:07.281
206.0, -42739.865808470946, -38161.51328820149, -28959.322447696028, -70800.961053486, -27857.873184427404, -28112.973643895824, -51770.70817598202, -98182.78678450428, -187500.02235174447, -187500.02235174447, -46305.28197351479, -44963.03736722915, -77583.59790844892, -47717.398132967726, -87129.17859902127, -30855.398578095268, 0.0, 0.0, 0.0, 193.0, 0.0, 1.0, 1.0, 0.0, 0.0, 1.0, 1.0, 256.0, 1.0, 1.750527127289096E9, 0.0, 2025-06-21 19:32:07.289
208.0, -42738.815276481546, -38174.767872663484, -28950.895840036374, -70795.10489643872, -27852.41935878031, -28115.208818341354, -51761.00751888842, -98180.14927865854, -187500.02235174447, -187500.02235174447, -46272.31315044322, -44931.56611103608, -77581.25097528112, -47683.51288837349, -87169.83642218547, -30819.591083477866, 0.0, 0.0, 0.0, 193.0, 0.0, 1.0, 1.0, 0.0, 0.0, 1.0, 1.0, 256.0, 1.0, 1.750527127296069E9, 0.0, 2025-06-21 19:32:07.296
210.0, -42765.27974191663, -38192.42575078318, -28970.945354812786, -70820.42942290657, -27858.521385016607, -28077.70259114535, -51776.541981284856, -98194.99083697687, -187500.02235174447, -187500.02235174447, -46296.54244143277, -44959.6622538164, -77568.5551844305, -47721.15322603622, -87116.10282851492, -30857.834918240897, 0.0, 0.0, 0.0, 193.0, 0.0, 1.0, 1.0, 0.0, 0.0, 1.0, 1.0, 256.0, 1.0, 1.75052712730509E9, 0.0, 2025-06-21 19:32:07.305
212.0, -42737.25065436967, -38168.59879119382, -28959.54596514058, -70794.79197201633, -27855.36978904841, -28137.113527907557, -51742.65673669061, -98162.49140053886, -187500.02235174447, -187500.02235174447, -46290.79804310776, -44945.40184085391, -77588.7164579292, -47701.14841474872, -87164.11437560491, -30836.5784092639, 0.0, 0.0, 0.0, 193.0, 0.0, 1.0, 1.0, 0.0, 0.0, 1.0, 1.0, 256.0, 1.0, 1.750527127313196E9, 0.0, 2025-06-21 19:32:07.313
214.0, -42777.17086996685, -38200.9641171651, -28983.819959619042, -70825.54797238683, -27862.254126340646, -28082.1282365475, -51779.44770806405, -98187.03361595079, -187500.02235174447, -187500.02235174447, -46303.627944425105, -44956.533009592655, -77591.57748121947, -47709.79853985293, -87152.89379988835, -30843.440394811678, 0.0, 0.0, 0.0, 193.0, 0.0, 1.0, 1.0, 0.0, 0.0, 1.0, 1.0, 256.0, 1.0, 1.750527127320155E9, 0.0, 2025-06-21 19:32:07.320
216.0, -42762.932808748825, -38172.689160429145, -28979.528424683624, -70816.36140541571, -27871.261879356134, -28113.957120651856, -51770.68582423757, -98186.34071187268, -187500.02235174447, -187500.02235174447, -46329.01952612633, -44982.550440138635, -77606.4637430267, -47737.671165188694, -87151.73150917668, -30871.000095725074, 0.0, 0.0, 0.0, 193.0, 0.0, 1.0, 1.0, 0.0, 0.0, 1.0, 1.0, 256.0, 1.0, 1.750527127328225E9, 0.0, 2025-06-21 19:32:07.328
218.0, -42752.00280571017, -38172.93502961815, -28962.228174475214, -70800.1116871967, -27869.56314677753, -28124.440088801395, -51767.15424861363, -98183.5690955602, -187500.02235174447, -187500.02235174447, -46285.27716222729, -44937.19875063882, -77594.32674578748, -47685.81511805238, -87173.16683210932, -30820.90983640073, 0.0, 0.0, 0.0, 193.0, 0.0, 1.0, 1.0, 0.0, 0.0, 1.0, 1.0, 256.0, 1.0, 1.750527127337268E9, 0.0, 2025-06-21 19:32:07.337
220.0, -42774.399253654396, -38191.71049496061, -28979.617831661446, -70820.07179499528, -27860.533042017585, -28073.098131787556, -51788.94719945755, -98195.99666547736, -187500.02235174447, -187500.02235174447, -46312.21101429594, -44965.60781784151, -77582.97205960417, -47722.27081325898, -87122.71894487369, -30858.550174063468, 0.0, 0.0, 0.0, 193.0, 0.0, 1.0, 1.0, 0.0, 0.0, 1.0, 1.0, 256.0, 1.0, 1.750527127345293E9, 0.0, 2025-06-21 19:32:07.345
222.0, -42728.242901354184, -38160.574514934364, -28952.818090059533, -70786.09714342322, -27854.542774503563, -28135.124222651033, -51750.54690248334, -98169.01810991981, -187500.02235174447, -187500.02235174447, -46299.24700251186, -44954.63311131395, -77598.32770804498, -47700.05317927041, -87170.39521579686, -30834.700862729653, 0.0, 0.0, 0.0, 193.0, 0.0, 1.0, 1.0, 0.0, 0.0, 1.0, 1.0, 256.0, 1.0, 1.750527127352246E9, 0.0, 2025-06-21 19:32:07.352
224.0, -42741.542189305095, -38171.0574830839, -28941.15047945386, -70788.24291089093, -27840.46117549672, -28070.17005326391, -51759.219379332, -98171.90148495453, -187500.02235174447, -187500.02235174447, -46265.4735166399, -44928.77214297916, -77556.90992556929, -47673.29814115741, -87120.12614251688, -30808.124638572295, 0.0, 0.0, 0.0, 193.0, 0.0, 1.0, 1.0, 0.0, 0.0, 1.0, 1.0, 256.0, 1.0, 1.750527127360319E9, 0.0, 2025-06-21 19:32:07.360
226.0, -42766.37497739494, -38193.722151961585, -28974.409875203357, -70813.54508561434, -27867.84206245447, -28127.681091747418, -51777.50310629643, -98188.64294155156, -187500.02235174447, -187500.02235174447, -46304.96904909242, -44963.28323641816, -77584.87195788287, -47704.8588043283, -87120.84139833944, -30838.880638942795, 0.0, 0.0, 0.0, 193.0, 0.0, 1.0, 1.0, 0.0, 0.0, 1.0, 1.0, 256.0, 1.0, 1.750527127369383E9, 0.0, 2025-06-21 19:32:07.369
228.0, -42750.72875627622, -38182.09924484482, -28949.24181094668, -70788.39937310212, -27852.128786102392, -28119.321539321132, -51758.86175142071, -98174.13665940007, -187500.02235174447, -187500.02235174447, -46282.48319417038, -44939.94801520682, -77593.96911787619, -47674.192210935624, -87163.91320990481, -30807.34232751636, 0.0, 0.0, 0.0, 193.0, 0.0, 1.0, 1.0, 0.0, 0.0, 1.0, 1.0, 256.0, 1.0, 1.750527127376372E9, 0.0, 2025-06-21 19:32:07.376
230.0, -42785.08338750403, -38204.87567244478, -28983.752904385678, -70822.06110025181, -27868.557318277042, -28088.74435290627, -51791.2717808809, -98197.69539805596, -187500.02235174447, -187500.02235174447, -46311.60751719565, -44968.89352427644, -77582.4132659928, -47712.72661837657, -87115.18640699224, -30846.279066357503, 0.0, 0.0, 0.0, 193.0, 0.0, 1.0, 1.0, 0.0, 0.0, 1.0, 1.0, 256.0, 1.0, 1.750527127384363E9, 0.0, 2025-06-21 19:32:07.384
232.0, -42752.226323154726, -38180.60167796632, -28966.184433243805, -70794.68021329406, -27872.737094490185, -28135.191277884398, -51762.25921657791, -98173.60021753314, -187500.02235174447, -187500.02235174447, -46311.69692417347, -44955.43777411435, -77606.79901919354, -47699.82966182586, -87171.49045127517, -30833.091537128872, 0.0, 0.0, 0.0, 193.0, 0.0, 1.0, 1.0, 0.0, 0.0, 1.0, 1.0, 256.0, 1.0, 1.750527127392371E9, 0.0, 2025-06-21 19:32:07.392
234.0, -42778.66843684536, -38208.63076551328, -28970.25245073467, -70815.35557691522, -27858.119053616414, -28078.440198712375, -51779.17948713058, -98190.36402587463, -187500.02235174447, -187500.02235174447, -46301.99626707986, -44953.537875835646, -77590.57165271898, -47697.16980423568, -87143.86369512841, -30832.91272317323, 0.0, 0.0, 0.0, 193.0, 0.0, 1.0, 1.0, 0.0, 0.0, 1.0, 1.0, 256.0, 1.0, 1.750527127400425E9, 0.0, 2025-06-21 19:32:07.400
236.0, -42746.16900040734, -38165.760119647995, -28949.77825281361, -70786.49947482342, -27845.579724976986, -28106.22341707032, -51754.927844396574, -98167.63230176357, -187500.02235174447, -187500.02235174447, -46306.757188648844, -44957.382375881956, -77581.8097688925, -47703.78592059445, -87117.06395352649, -30841.47344129961, 0.0, 0.0, 0.0, 193.0, 0.0, 1.0, 1.0, 0.0, 0.0, 1.0, 1.0, 256.0, 1.0, 1.750527127408537E9, 0.0, 2025-06-21 19:32:07.408
238.0, -42752.00280571017, -38179.59584946583, -28945.419662644825, -70786.14184691213, -27859.057826883534, -28123.076632389624, -51765.34375731275, -98183.54674381575, -187500.02235174447, -187500.02235174447, -46269.27331319729, -44921.91015743138, -77577.00414383461, -47668.76073703298, -87156.00069236764, -30804.637766437267, 0.0, 0.0, 0.0, 193.0, 0.0, 1.0, 1.0, 0.0, 0.0, 1.0, 1.0, 256.0, 1.0, 1.750527127416598E9, 0.0, 2025-06-21 19:32:07.416
240.0, -42778.869602545456, -38201.09822763184, -28961.937601797297, -70810.48289662396, -27861.740036218172, -28084.475169715308, -51790.71298726952, -98200.86934576862, -187500.02235174447, -187500.02235174447, -46292.8767553421, -44954.63311131395, -77565.89532684033, -47711.60903115381, -87110.1125610009, -30846.591990779878, 0.0, 0.0, 0.0, 193.0, 0.0, 1.0, 1.0, 0.0, 0.0, 1.0, 1.0, 256.0, 1.0, 1.750527127425546E9, 0.0, 2025-06-21 19:32:07.425
242.0, -42752.56159932156, -38181.54045123344, -28952.236944703694, -70789.1593324136, -27854.587477992474, -28139.37105409754, -51766.70721372452, -98175.56717104522, -187500.02235174447, -187500.02235174447, -46288.652275640045, -44948.53108507766, -77590.19167306325, -47695.82869956836, -87164.33789304947, -30829.068223126917, 0.0, 0.0, 0.0, 193.0, 0.0, 1.0, 1.0, 0.0, 0.0, 1.0, 1.0, 256.0, 1.0, 1.750527127432561E9, 0.0, 2025-06-21 19:32:07.432
244.0, -42788.32439045005, -38210.84358821435, -28973.135825769405, -70815.64614959314, -27864.019914152614, -28082.307050503143, -51782.53224879888, -98195.90725849954, -187500.02235174447, -187500.02235174447, -46291.69211288597, -44952.912026990896, -77584.00023984912, -47692.90062104471, -87140.30976776002, -30826.073089369907, 0.0, 0.0, 0.0, 193.0, 0.0, 1.0, 1.0, 0.0, 0.0, 1.0, 1.0, 256.0, 1.0, 1.750527127440576E9, 0.0, 2025-06-21 19:32:07.440
246.0, -42776.053282744084, -38202.685201488166, -28983.55173868558, -70814.64032109265, -27871.820672967515, -28123.970702167837, -51769.09885038124, -98185.93838047248, -187500.02235174447, -187500.02235174447, -46333.86985467313, -44983.39980642794, -77609.34711806144, -47721.7120196476, -87136.08528805796, -30857.276124629516, 0.0, 0.0, 0.0, 193.0, 0.0, 1.0, 1.0, 0.0, 0.0, 1.0, 1.0, 256.0, 1.0, 1.750527127448634E9, 0.0, 2025-06-21 19:32:07.448
248.0, -42745.76666900715, -38173.73969241854, -28945.643180089377, -70777.53642529684, -27844.618599965408, -28105.776382181215, -51748.73641118246, -98163.58663601716, -187500.02235174447, -187500.02235174447, -46293.05556929774, -44938.584558795046, -77598.55122548953, -47676.852068525804, -87167.75770995114, -30810.71744092911, 0.0, 0.0, 0.0, 193.0, 0.0, 1.0, 1.0, 0.0, 0.0, 1.0, 1.0, 256.0, 1.0, 1.750527127456645E9, 0.0, 2025-06-21 19:32:07.456
250.0, -42797.55566091009, -38208.42959981318, -28986.45746546477, -70825.59267587576, -27870.390161322375, -28094.80167565366, -51801.82180426381, -98211.62053485162, -187500.02235174447, -187500.02235174447, -46302.95739209144, -44953.22495141327, -77574.83602462245, -47703.74121710554, -87104.23405220915, -30838.00892090904, 0.0, 0.0, 0.0, 193.0, 0.0, 1.0, 1.0, 0.0, 0.0, 1.0, 1.0, 256.0, 1.0, 1.750527127464687E9, 0.0, 2025-06-21 19:32:07.464
252.0, -42766.486736117215, -38193.81155893941, -28960.797662830075, -70793.74144002693, -27861.56122226253, -28151.75392052578, -51764.807315445825, -98185.08901418318, -187500.02235174447, -187500.02235174447, -46311.58516545119, -44957.874114259976, -77610.84468493995, -47707.63042064076, -87176.96662866672, -30840.378205821304, 0.0, 0.0, 0.0, 193.0, 0.0, 1.0, 1.0, 0.0, 0.0, 1.0, 1.0, 256.0, 1.0, 1.75052712747261E9, 0.0, 2025-06-21 19:32:07.472
254.0, -42782.82586131404, -38217.057373172924, -28965.670343121332, -70813.58978910325, -27860.08600712848, -28087.246786027765, -51783.42631857709, -98195.57198233271, -187500.02235174447, -187500.02235174447, -46287.78055760629, -44950.52039033418, -77583.79907414902, -47693.77233907847, -87139.50510495962, -30825.760164947533, 0.0, 0.0, 0.0, 193.0, 0.0, 1.0, 1.0, 0.0, 0.0, 1.0, 1.0, 256.0, 1.0, 1.750527127481625E9, 0.0, 2025-06-21 19:32:07.481
0.0, -42775.94152402181, -38201.25468984302, -28971.21357574625, -70811.75694605791, -27858.23081233869, -28117.913379420446, -51771.26696959341, -98185.08901418318, -187500.02235174447, -187500.02235174447, -46319.140055077085, -44981.58931512706, -77602.6639464693, -47721.13087429177, -87133.80541012352, -30854.81743273943, 0.0, 0.0, 0.0, 193.0, 0.0, 1.0, 1.0, 0.0, 0.0, 1.0, 1.0, 256.0, 1.0, 1.750527127487661E9, 0.0, 2025-06-21 19:32:07.487
2.0, -42783.205840969786, -38213.19052138216, -28977.15913977136, -70815.19911470402, -27876.112207902934, -28136.398272084985, -51771.13285912667, -98189.58171481869, -187500.02235174447, -187500.02235174447, -46301.660990913035, -44952.1073641905, -77612.29754832954, -47691.06777799938, -87178.95593392324, -30823.99437713556, 0.0, 0.0, 0.0, 193.0, 0.0, 1.0, 1.0, 0.0, 0.0, 1.0, 1.0, 256.0, 1.0, 1.750527127496715E9, 0.0, 2025-06-21 19:32:07.496
4.0, -42797.62271614346, -38220.90187321924, -28987.6421079209, -70825.70443459802, -27869.09376014397, -28094.153475064457, -51781.90639995413, -98193.64973230955, -187500.02235174447, -187500.02235174447, -46329.913595904545, -44985.478518662276, -77605.92730115978, -47729.37866799578, -87131.7714013781, -30861.67941828721, 0.0, 0.0, 0.0, 193.0, 0.0, 1.0, 1.0, 0.0, 0.0, 1.0, 1.0, 256.0, 1.0, 1.750527127505793E9, 0.0, 2025-06-21 19:32:07.505
6.0, -42779.09311999001, -38209.43542831366, -28977.20384326027, -70803.73266979845, -27862.14236761837, -28156.492490350305, -51766.59545500224, -98183.16676416002, -187500.02235174447, -187500.02235174447, -46316.05551434225, -44964.75845155221, -77618.8242577105, -47703.45064442762, -87175.75963446613, -30834.790269707475, 0.0, 0.0, 0.0, 193.0, 0.0, 1.0, 1.0, 0.0, 0.0, 1.0, 1.0, 256.0, 1.0, 1.75052712751277E9, 0.0, 2025-06-21 19:32:07.512
8.0, -42807.65864940389, -38233.55296058094, -28974.946317070284, -70818.50717288342, -27876.626298025407, -28106.379879281507, -51791.785871003376, -98205.78672954878, -187500.02235174447, -187500.02235174447, -46308.81354913874, -44961.69626256183, -77603.0662778695, -47699.11440600329, -87149.27281728659, -30830.409327794234, 0.0, 0.0, 0.0, 193.0, 0.0, 1.0, 1.0, 0.0, 0.0, 1.0, 1.0, 256.0, 1.0, 1.750527127519832E9, 0.0, 2025-06-21 19:32:07.519
10.0, -42793.331181208036, -38219.449009829645, -28975.907442081865, -70809.58882684575, -27878.436789326286, -28135.86183021806, -51778.218362119005, -98190.69930204145, -187500.02235174447, -187500.02235174447, -46329.39950578207, -44986.50669890722, -77611.80580995153, -47723.969545837586, -87142.88021837237, -30857.946676963173, 0.0, 0.0, 0.0, 193.0, 0.0, 1.0, 1.0, 0.0, 0.0, 1.0, 1.0, 256.0, 1.0, 1.750527127528812E9, 0.0, 2025-06-21 19:32:07.528
12.0, -42774.28749493212, -38205.59092826735, -28950.24763944717, -70785.85127423421, -27865.38337056439, -28130.877391204525, -51762.86271367821, -98181.26686588132, -187500.02235174447, -187500.02235174447, -46289.81456635172, -44945.44654434283, -77598.43946676725, -47677.92495225966, -87171.87043093091, -30810.09159208436, 0.0, 0.0, 0.0, 193.0, 0.0, 1.0, 1.0, 0.0, 0.0, 1.0, 1.0, 256.0, 1.0, 1.750527127536862E9, 0.0, 2025-06-21 19:32:07.536
14.0, -42797.041570787624, -38229.39553611226, -28967.011447788653, -70805.74432679944, -27867.41737930982, -28087.78322789469, -51786.51085931192, -98196.22018292191, -187500.02235174447, -187500.02235174447, -46304.387903736584, -44954.454297358316, -77572.26557401009, -47701.41663568219, -87103.4070376643, -30833.382109806793, 0.0, 0.0, 0.0, 193.0, 0.0, 1.0, 1.0, 0.0, 0.0, 1.0, 1.0, 256.0, 1.0, 1.750527127543869E9, 0.0, 2025-06-21 19:32:07.543
16.0, -42778.91430603436, -38210.150684136235, -28969.11251176745, -70798.30119589582, -27875.061675913537, -28155.464310105363, -51762.99682414494, -98185.98308396139, -187500.02235174447, -187500.02235174447, -46315.11674107513, -44961.40568988391, -77612.14108611835, -47703.54005140544, -87175.73728272168, -30835.170249363215, 0.0, 0.0, 0.0, 193.0, 0.0, 1.0, 1.0, 0.0, 0.0, 1.0, 1.0, 256.0, 1.0, 1.750527127552933E9, 0.0, 2025-06-21 19:32:07.552
18.0, -42800.953126067296, -38216.67739351719, -28981.987116573706, -70819.31183568381, -27874.391123579877, -28098.64617569997, -51807.25327816645, -98218.10254074365, -187500.02235174447, -187500.02235174447, -46291.468595441416, -44946.98881471024, -77583.68731542675, -47689.637266354235, -87138.92395960378, -30821.58038873439, 0.0, 0.0, 0.0, 193.0, 0.0, 1.0, 1.0, 0.0, 0.0, 1.0, 1.0, 256.0, 1.0, 1.750527127560934E9, 0.0, 2025-06-21 19:32:07.560
20.0, -42811.726666894756, -38231.74246928006, -29005.903483140886, -70837.34969345924, -27907.29289141809, -28147.551792568185, -51829.806188321854, -98239.13553227611, -187500.02235174447, -187500.02235174447, -46355.72986075042, -45008.23259451778, -77634.58223755148, -47759.1735433547, -87180.05116940156, -30891.02725875703, 0.0, 0.0, 0.0, 193.0, 0.0, 1.0, 1.0, 0.0, 0.0, 1.0, 1.0, 256.0, 1.0, 1.750527127568936E9, 0.0, 2025-06-21 19:32:07.568
22.0, -42793.1523672524, -38220.38778309677, -28978.343782227494, -70810.10291696822, -27890.32791737651, -28145.71894952285, -51811.0307229794, -98224.60689838015, -187500.02235174447, -187500.02235174447, -46309.48410147239, -44955.72834679227, -77617.08082164297, -47704.52352816147, -87200.14538766687, -30835.57258076341, 0.0, 0.0, 0.0, 193.0, 0.0, 1.0, 1.0, 0.0, 0.0, 1.0, 1.0, 256.0, 1.0, 1.750527127575916E9, 0.0, 2025-06-21 19:32:07.575
24.0, -42815.079428563055, -38238.246826916555, -28991.061924822563, -70826.97848403198, -27886.103437674457, -28102.244806557275, -51835.28236571341, -98233.5922996512, -187500.02235174447, -187500.02235174447, -46329.22069182643, -44979.80117557063, -77599.08766735646, -47732.217339541596, -87137.98518633666, -30864.026351455017, 0.0, 0.0, 0.0, 193.0, 0.0, 1.0, 1.0, 0.0, 0.0, 1.0, 1.0, 256.0, 1.0, 1.750527127584953E9, 0.0, 2025-06-21 19:32:07.584
26.0, -42779.204878712284, -38212.63172777078, -28966.631468132913, -70791.50626558141, -27868.199690365756, -28158.615906073563, -51763.08623112276, -98193.73913928737, -187500.02235174447, -187500.02235174447, -46325.33148829121, -44965.16078295241, -77618.6230920104, -47706.15520550671, -87179.20180311226, -30837.561886019932, 0.0, 0.0, 0.0, 193.0, 0.0, 1.0, 1.0, 0.0, 0.0, 1.0, 1.0, 256.0, 1.0, 1.750527127592941E9, 0.0, 2025-06-21 19:32:07.592
28.0, -42808.70918139329, -38241.5772368404, -28977.78498861611, -70819.20007696153, -27871.865376456426, -28098.3332512776, -51789.193068646564, -98205.85378478216, -187500.02235174447, -187500.02235174447, -46306.623078182114, -44953.98491072475, -77594.66202195431, -47691.805385566404, -87140.28741601556, -30823.212066079628, 0.0, 0.0, 0.0, 193.0, 0.0, 1.0, 1.0, 0.0, 0.0, 1.0, 1.0, 256.0, 1.0, 1.750527127599972E9, 0.0, 2025-06-21 19:32:07.599
30.0, -42807.725704637254, -38232.79300126946, -28990.458427722268, -70824.87742005318, -27883.778856251105, -28142.209725643366, -51780.78881273136, -98200.15408994605, -187500.02235174447, -187500.02235174447, -46341.514151276846, -44994.933306566876, -77621.46176355622, -47730.1162755628, -87145.65183468483, -30863.400502610268, 0.0, 0.0, 0.0, 193.0, 0.0, 1.0, 1.0, 0.0, 0.0, 1.0, 1.0, 256.0, 1.0, 1.750527127608041E9, 0.0, 2025-06-21 19:32:07.608
32.0, -42791.096006762506, -38217.5714632954, -28969.090160022995, -70803.73266979845, -27870.680734000296, -28134.945408695392, -51779.78298423088, -98194.56615383222, -187500.02235174447, -187500.02235174447, -46306.17604329301, -44958.72348054928, -77617.90783618782, -47693.213545467086, -87183.80626247004, -30823.927321902196, 0.0, 0.0, 0.0, 193.0, 0.0, 1.0, 1.0, 0.0, 0.0, 1.0, 1.0, 256.0, 1.0, 1.750527127617017E9, 0.0, 2025-06-21 19:32:07.617
34.0, -42813.20188202881, -38234.491733848066, -28989.519654455147, -70825.68208285357, -27879.55437654905, -28101.0825158456, -51800.70421704104, -98210.77116856232, -187500.02235174447, -187500.02235174447, -46329.01952612633, -44983.4668616613, -77603.35685054742, -47728.238729028555, -87134.09598280145, -30858.617229296833, 0.0, 0.0, 0.0, 193.0, 0.0, 1.0, 1.0, 0.0, 0.0, 1.0, 1.0, 256.0, 1.0, 1.750527127624099E9, 0.0, 2025-06-21 19:32:07.624
36.0, -42773.549887365094, -38198.75129446403, -28964.30688670956, -70785.13601841165, -27869.451388055255, -28144.623714044537, -51759.129972354174, -98178.58465654668, -187500.02235174447, -187500.02235174447, -46316.32373527572, -44960.37750963897, -77614.19744660825, -47701.37193219327, -87177.83834670048, -30830.319920816415, 0.0, 0.0, 0.0, 193.0, 0.0, 1.0, 1.0, 0.0, 0.0, 1.0, 1.0, 256.0, 1.0, 1.750527127632108E9, 0.0, 2025-06-21 19:32:07.632
38.0, -42798.449730688306, -38225.61809129931, -28972.197052502284, -70806.68310006656, -27871.93243168979, -28087.917338361425, -51790.75769075843, -98202.4786713694, -187500.02235174447, -187500.02235174447, -46297.41415946653, -44942.74198326373, -77584.02259159357, -47688.810251809395, -87143.41666023931, -30817.49001949907, 0.0, 0.0, 0.0, 193.0, 0.0, 1.0, 1.0, 0.0, 0.0, 1.0, 1.0, 256.0, 1.0, 1.750527127641169E9, 0.0, 2025-06-21 19:32:07.641
40.0, -42802.495396434715, -38225.1710564102, -28989.631413177423, -70818.6636350946, -27891.51255983264, -28146.43420534542, -51796.14446117216, -98206.77020630482, -187500.02235174447, -187500.02235174447, -46338.60842449766, -44983.802137828134, -77611.13525761786, -47732.284394774964, -87155.26308480062, -30862.148804920773, 0.0, 0.0, 0.0, 193.0, 0.0, 1.0, 1.0, 0.0, 0.0, 1.0, 1.0, 256.0, 1.0, 1.750527127649118E9, 0.0, 2025-06-21 19:32:07.649
42.0, -42800.64020164492, -38227.987376211575, -28974.991020559195, -70806.92896925556, -27890.66319354334, -28144.020216944245, -51785.52738255589, -98201.60695333565, -187500.02235174447, -187500.02235174447, -46303.337371747184, -44949.71572753379, -77609.23535933916, -47689.659618098696, -87184.70033224826, -30817.825295665898, 0.0, 0.0, 0.0, 193.0, 0.0, 1.0, 1.0, 0.0, 0.0, 1.0, 1.0, 256.0, 1.0, 1.750527127656175E9, 0.0, 2025-06-21 19:32:07.656
44.0, -42840.13573409745, -38263.280780706504, -29004.294157540106, -70847.94442033106, -27905.52710360612, -28110.492600261285, -51818.80913004984, -98227.4902734149, -187500.02235174447, -187500.02235174447, -46342.96701466644, -45001.46001594782, -77616.63378675387, -47741.35920302382, -87144.89187537336, -30871.469482358636, 0.0, 0.0, 0.0, 193.0, 0.0, 1.0, 1.0, 0.0, 0.0, 1.0, 1.0, 256.0, 1.0, 1.75052712766421E9, 0.0, 2025-06-21 19:32:07.664
46.0, -42794.314657964074, -38217.347945850845, -28978.00850606066, -70811.95811175801, -27887.9809842087, -28169.791778301216, -51773.9715306725, -98194.2755811543, -187500.02235174447, -187500.02235174447, -46327.74547669238, -44984.53974539516, -77632.03413868358, -47721.801426625425, -87193.95395445275, -30854.504508317055, 0.0, 0.0, 0.0, 193.0, 0.0, 1.0, 1.0, 0.0, 0.0, 1.0, 1.0, 256.0, 1.0, 1.750527127673254E9, 0.0, 2025-06-21 19:32:07.673
48.0, -42815.705277407804, -38241.5772368404, -28983.037648563106, -70830.44300442254, -27882.795379495074, -28106.64810021497, -51801.30771414134, -98211.5311278738, -187500.02235174447, -187500.02235174447, -46299.40346472305, -44962.053890473115, -77595.13140858787, -47699.38262693675, -87147.35056726343, -30832.979778406596, 0.0, 0.0, 0.0, 193.0, 0.0, 1.0, 1.0, 0.0, 0.0, 1.0, 1.0, 256.0, 1.0, 1.750527127680263E9, 0.0, 2025-06-21 19:32:07.680
50.0, -42804.93173658034, -38238.31388214992, -28995.26405278016, -70830.97944628948, -27888.3833156089, -28151.95508622588, -51795.8762402387, -98209.11713947263, -187500.02235174447, -187500.02235174447, -46346.69975599048, -45005.259812505225, -77627.38497583687, -47745.918958892704, -87163.98026513819, -30879.605517340366, 0.0, 0.0, 0.0, 193.0, 0.0, 1.0, 1.0, 0.0, 0.0, 1.0, 1.0, 256.0, 1.0, 1.750527127688293E9, 0.0, 2025-06-21 19:32:07.688
52.0, -42804.37294296896, -38232.68124254719, -28991.821884134042, -70824.72095784199, -27895.55822557905, -28160.493452607807, -51798.290228639875, -98218.4825203994, -187500.02235174447, -187500.02235174447, -46316.70371493146, -44964.82550678558, -77625.59683628046, -47702.89185081624, -87200.45831208925, -30833.829144695897, 0.0, 0.0, 0.0, 193.0, 0.0, 1.0, 1.0, 0.0, 0.0, 1.0, 1.0, 256.0, 1.0, 1.750527127696291E9, 0.0, 2025-06-21 19:32:07.696
54.0, -42833.318452038584, -38258.8327835599, -29009.63622446492, -70850.98425757697, -27902.286100660098, -28111.923111906424, -51822.27365044042, -98234.17344500702, -187500.02235174447, -187500.02235174447, -46346.07390714573, -45001.12473978099, -77618.60074026595, -47746.25423505953, -87153.65375919983, -30877.795026039486, 0.0, 0.0, 0.0, 193.0, 0.0, 1.0, 1.0, 0.0, 0.0, 1.0, 1.0, 256.0, 1.0, 1.750527127705292E9, 0.0, 2025-06-21 19:32:07.705
56.0, -42780.50127989069, -38210.37420158079, -28969.20191874527, -70799.2623209074, -27881.767199250127, -28165.612002088073, -51769.25531259243, -98187.79357526226, -187500.02235174447, -187500.02235174447, -46337.55789250826, -44985.74673959574, -77638.13616491988, -47731.233862785564, -87208.72845753771, -30860.83005199791, 0.0, 0.0, 0.0, 193.0, 0.0, 1.0, 1.0, 0.0, 0.0, 1.0, 1.0, 256.0, 1.0, 1.750527127712333E9, 0.0, 2025-06-21 19:32:07.712
58.0, -42833.05023110512, -38252.14961196776, -28995.196997546795, -70838.89196382665, -27898.508655847152, -28117.086364875602, -51819.16675796113, -98230.2395379829, -187500.02235174447, -187500.02235174447, -46304.522014203314, -44958.90229450492, -77595.66785045479, -47703.405940938705, -87156.9171138903, -30832.957426662142, 0.0, 0.0, 0.0, 193.0, 0.0, 1.0, 1.0, 0.0, 0.0, 1.0, 1.0, 256.0, 1.0, 1.750527127720372E9, 0.0, 2025-06-21 19:32:07.720
60.0, -42821.98611759974, -38249.176829955206, -29000.02497434914, -70832.32055095679, -27911.137391464403, -28141.650932031982, -51804.21344092053, -98216.56027037624, -187500.02235174447, -187500.02235174447, -46359.12732590763, -45006.8244346171, -77630.60362703844, -47750.679880461685, -87165.58959073896, -30882.73476156411, 0.0, 0.0, 0.0, 193.0, 0.0, 1.0, 1.0, 0.0, 0.0, 1.0, 1.0, 256.0, 1.0, 1.750527127728392E9, 0.0, 2025-06-21 19:32:07.728
62.0, -42811.2572802612, -38243.007748485536, -28988.424418976836, -70820.69764384003, -27898.84393201398, -28159.66643806296, -51791.45059483655, -98206.79255804927, -187500.02235174447, -187500.02235174447, -46329.555967993256, -44973.09565223404, -77632.25765612813, -47703.204775238606, -87202.82759700151, -30832.085708628383, 0.0, 0.0, 0.0, 193.0, 0.0, 1.0, 1.0, 0.0, 0.0, 1.0, 1.0, 256.0, 1.0, 1.750527127736415E9, 0.0, 2025-06-21 19:32:07.736
64.0, -42839.554588741616, -38263.90662955125, -29003.4447912508, -70842.84822259525, -27913.73019382122, -28121.04262364419, -51814.696409070064, -98224.71865710244, -187500.02235174447, -187500.02235174447, -46354.165238638554, -45004.790425871666, -77618.6677954993, -47733.64785118674, -87133.35837523441, -30867.35676137886, 0.0, 0.0, 0.0, 193.0, 0.0, 1.0, 1.0, 0.0, 0.0, 1.0, 1.0, 256.0, 1.0, 1.750527127744432E9, 0.0, 2025-06-21 19:32:07.744
66.0, -42794.06878877506, -38228.5238180785, -28978.746113627687, -70811.13109721316, -27893.412458111343, -28187.784932587736, -51783.40396683264, -98202.05398822475, -187500.02235174447, -187500.02235174447, -46338.74253496439, -44985.92555355139, -77638.44908934225, -47710.91612707569, -87188.34366659448, -30843.932133189697, 0.0, 0.0, 0.0, 193.0, 0.0, 1.0, 1.0, 0.0, 0.0, 1.0, 1.0, 256.0, 1.0, 1.750527127752565E9, 0.0, 2025-06-21 19:32:07.752
68.0, -42833.676079949866, -38263.39253942878, -28994.21352079076, -70841.90944932813, -27887.42219059732, -28114.247693329777, -51813.64587708067, -98227.42321818152, -187500.02235174447, -187500.02235174447, -46315.854348642155, -44973.7662045677, -77611.58229250698, -47700.72373160407, -87155.0172156116, -30834.589104007377, 0.0, 0.0, 0.0, 193.0, 0.0, 1.0, 1.0, 0.0, 0.0, 1.0, 1.0, 256.0, 1.0, 1.750527127761533E9, 0.0, 2025-06-21 19:32:07.761
70.0, -42822.276690277664, -38249.73562356659, -29009.83739016502, -70849.10671104274, -27893.010126711146, -28154.033798460223, -51806.02393222141, -98221.14237798958, -187500.02235174447, -187500.02235174447, -46363.70943352097, -45023.8788156365, -77644.30524638954, -47754.21145608562, -87163.10854710444, -30889.17206396724, 0.0, 0.0, 0.0, 193.0, 0.0, 1.0, 1.0, 0.0, 0.0, 1.0, 1.0, 256.0, 1.0, 1.750527127767566E9, 0.0, 2025-06-21 19:32:07.767
72.0, -42804.68586739134, -38240.7278705511, -28988.223253276738, -70828.14077474366, -27881.633088783397, -28152.08919669261, -51795.71977802751, -98210.99468600687, -187500.02235174447, -187500.02235174447, -46322.17989232301, -44976.403710413426, -77639.20904865373, -47710.67025788668, -87212.10357095046, -30840.758185477043, 0.0, 0.0, 0.0, 193.0, 0.0, 1.0, 1.0, 0.0, 0.0, 1.0, 1.0, 256.0, 1.0, 1.75052712777656E9, 0.0, 2025-06-21 19:32:07.776
74.0, -42851.646882491936, -38278.81524310294, -29026.802364206596, -70874.49829274396, -27909.14808620788, -28111.364318295044, -51849.90040658718, -98258.7380121634, -187500.02235174447, -187500.02235174447, -46360.55783755277, -45019.810798145634, -77630.46951657171, -47762.03456664498, -87154.9725121227, -30896.481084404124, 0.0, 0.0, 0.0, 193.0, 0.0, 1.0, 1.0, 0.0, 0.0, 1.0, 1.0, 256.0, 1.0, 1.750527127784588E9, 0.0, 2025-06-21 19:32:07.784
76.0, -42793.130015507944, -38230.066088445914, -28984.334049741516, -70816.58492286026, -27897.815751769038, -28179.87241505056, -51788.29899886835, -98205.16088070403, -187500.02235174447, -187500.02235174447, -46347.4373635575, -44999.29189673566, -77648.23915341368, -47744.957833881126, -87218.69733556478, -30877.191528939195, 0.0, 0.0, 0.0, 193.0, 0.0, 1.0, 1.0, 0.0, 0.0, 1.0, 1.0, 256.0, 1.0, 1.750527127792619E9, 0.0, 2025-06-21 19:32:07.792
78.0, -42877.95488571583, -38305.5926329604, -29033.396128820914, -70875.99585962246, -27931.1422027519, -28135.57125754014, -51853.163761277654, -98259.87795113063, -187500.02235174447, -187500.02235174447, -46333.17695059502, -44984.87502156199, -77622.48994380116, -47727.456417972615, -87182.06282640253, -30858.036083940995, 0.0, 0.0, 0.0, 193.0, 0.0, 1.0, 1.0, 0.0, 0.0, 1.0, 1.0, 256.0, 1.0, 1.750527127800687E9, 0.0, 2025-06-21 19:32:07.800
80.0, -42867.67308326639, -38290.77342638653, -29029.93160843034, -70861.46722572652, -27929.644635873396, -28184.275708708254, -51825.22408070852, -98236.5874334082, -187500.02235174447, -187500.02235174447, -46405.14956774111, -45050.499743282766, -77671.01558101363, -47787.91788672422, -87195.00448644215, -30921.716203894164, 0.0, 0.0, 0.0, 193.0, 0.0, 1.0, 1.0, 0.0, 0.0, 1.0, 1.0, 256.0, 1.0, 1.750527127808674E9, 0.0, 2025-06-21 19:32:07.808
82.0, -42876.50202232624, -38300.85406313587, -29019.60510249199, -70848.50321394244, -27931.410423685364, -28196.926796069958, -51828.889766799184, -98234.79929385177, -187500.02235174447, -187500.02235174447, -46346.3868315681, -44989.323018708594, -77656.3304849065, -47723.768380137495, -87235.30468169507, -30852.694017016176, 0.0, 0.0, 0.0, 193.0, 0.0, 1.0, 1.0, 0.0, 0.0, 1.0, 1.0, 256.0, 1.0, 1.750527127816743E9, 0.0, 2025-06-21 19:32:07.816
84.0, -42932.44843869787, -38342.80828747848, -29043.61087603699, -70879.8850631577, -27925.733080593716, -28130.966798182348, -51853.76725837794, -98259.72148891944, -187500.02235174447, -187500.02235174447, -46394.711303080476, -45041.9837286453, -77656.91163026233, -47776.78671798548, -87170.9316576638, -30909.802724099485, 0.0, 0.0, 0.0, 193.0, 0.0, 1.0, 1.0, 0.0, 0.0, 1.0, 1.0, 256.0, 1.0, 1.750527127823762E9, 0.0, 2025-06-21 19:32:07.823
86.0, -42896.931516758385, -38313.37104003084, -29006.35051802999, -70837.84143183725, -27910.958577508758, -28217.602159691116, -51798.424339106605, -98209.85474703966, -187500.02235174447, -187500.02235174447, -46377.723977294445, -45021.01779234622, -77677.45288341676, -47747.796505426944, -87227.1909984578, -30878.197357439683, 0.0, 0.0, 0.0, 193.0, 0.0, 1.0, 1.0, 0.0, 0.0, 1.0, 1.0, 256.0, 1.0, 1.750527127832775E9, 0.0, 2025-06-21 19:32:07.832
88.0, -42989.75831148128, -38390.663372357296, -29034.826640466054, -70879.01334512394, -27917.932321778815, -28137.247638374287, -51837.67400237012, -98244.63406141211, -187500.02235174447, -187500.02235174447, -46360.20020964149, -45009.68545790738, -77652.70950230474, -47737.13472332177, -87194.31158236404, -30866.753264278566, 0.0, 0.0, 0.0, 193.0, 0.0, 1.0, 1.0, 0.0, 0.0, 1.0, 1.0, 256.0, 1.0, 1.750527127840811E9, 0.0, 2025-06-21 19:32:07.840
90.0, -42996.776759240245, -38384.04725599853, -29023.807230449587, -70864.79763565036, -27905.840028028495, -28178.799531316705, -51831.99665927848, -98243.73999163389, -187500.02235174447, -187500.02235174447, -46407.94353579802, -45054.85833345155, -77678.90574680635, -47783.42518608871, -87184.07448340351, -30916.530599180533, 0.0, 0.0, 0.0, 193.0, 0.0, 1.0, 1.0, 0.0, 0.0, 1.0, 1.0, 256.0, 1.0, 1.750527127848862E9, 0.0, 2025-06-21 19:32:07.848
92.0, -43029.007974744796, -38411.45049470073, -29019.828619936543, -70857.60037393575, -27902.82254252703, -28183.046362763213, -51818.94324051658, -98241.77303812183, -187500.02235174447, -187500.02235174447, -46362.144811409096, -45004.991591571765, -77676.22353747173, -47729.132798806764, -87235.57290262854, -30857.656104285255, 0.0, 0.0, 0.0, 193.0, 0.0, 1.0, 1.0, 0.0, 0.0, 1.0, 1.0, 256.0, 1.0, 1.750527127855864E9, 0.0, 2025-06-21 19:32:07.855
94.0, -43104.646277981556, -38467.195745372264, -29049.08705342854, -70890.52449351842, -27909.416307141342, -28126.630559758018, -51843.21723499504, -98256.25696852888, -187500.02235174447, -187500.02235174447, -46410.37987594365, -45060.02158642073, -77677.20701422775, -47788.54373556897, -87174.9773234102, -30921.291520749513, 0.0, 0.0, 0.0, 193.0, 0.0, 1.0, 1.0, 0.0, 0.0, 1.0, 1.0, 256.0, 1.0, 1.750527127864907E9, 0.0, 2025-06-21 19:32:07.864
96.0, -43089.84942315214, -38457.763309212125, -29029.059890396584, -70855.11933030121, -27919.206371212767, -28222.16191556, -51802.470004853014, -98223.17638673501, -187500.02235174447, -187500.02235174447, -46409.77637884336, -45045.045917635674, -77710.4440582328, -47760.604054999836, -87238.7468503412, -30890.043782000994, 0.0, 0.0, 0.0, 193.0, 0.0, 1.0, 1.0, 0.0, 0.0, 1.0, 1.0, 256.0, 1.0, 1.750527127872933E9, 0.0, 2025-06-21 19:32:07.872
98.0, -43158.67044433003, -38512.94976627228, -29047.477727827758, -70883.99778413746, -27913.46197288775, -28134.18544938391, -51842.233758239, -98256.25696852888, -187500.02235174447, -187500.02235174447, -46398.89107929362, -45031.21018781784, -77686.25947073216, -47745.53897923696, -87204.0345912021, -30873.816415526442, 0.0, 0.0, 0.0, 193.0, 0.0, 1.0, 1.0, 0.0, 0.0, 1.0, 1.0, 256.0, 1.0, 1.750527127879981E9, 0.0, 2025-06-21 19:32:07.879
100.0, -43166.3370926782, -38522.27044371014, -29052.03748369664, -70884.91420566014, -27929.10819400647, -28197.32912747015, -51830.76731333343, -98239.3366979762, -187500.02235174447, -187500.02235174447, -46451.060050852306, -45082.59684832059, -77717.26134029166, -47798.26674440703, -87204.25810864665, -30929.986349342627, 0.0, 0.0, 0.0, 193.0, 0.0, 1.0, 1.0, 0.0, 0.0, 1.0, 1.0, 256.0, 1.0, 1.750527127888005E9, 0.0, 2025-06-21 19:32:07.888
102.0, -43182.3409417082, -38552.02061558016, -29037.330035845047, -70867.81512115183, -27921.08391774701, -28200.793647860726, -51817.848005038264, -98223.17638673501, -187500.02235174447, -187500.02235174447, -46400.5004048944, -45028.03624010518, -77711.00285184418, -47737.49235123305, -87250.63797839142, -30863.042874698986, 0.0, 0.0, 0.0, 193.0, 0.0, 1.0, 1.0, 0.0, 0.0, 1.0, 1.0, 256.0, 1.0, 1.75052712789705E9, 0.0, 2025-06-21 19:32:07.897
104.0, -43236.4545150345, -38606.38005809546, -29070.410617638903, -70906.21541812604, -27923.47555440373, -28136.867658718547, -51848.55930191986, -98252.03248882682, -187500.02235174447, -187500.02235174447, -46456.379766032675, -45090.35290364658, -77716.50138098019, -47792.611753059835, -87183.91802119232, -30923.839619617418, 0.0, 0.0, 0.0, 193.0, 0.0, 1.0, 1.0, 0.0, 0.0, 1.0, 1.0, 256.0, 1.0, 1.750527127904059E9, 0.0, 2025-06-21 19:32:07.904
106.0, -43205.31853500826, -38586.55406076361, -29050.048178440116, -70871.45845549804, -27927.878848061428, -28249.29693332874, -51812.41653113563, -98224.67395361351, -187500.02235174447, -187500.02235174447, -46442.588739703744, -45068.336435358106, -77739.68013998034, -47769.45534580414, -87250.99560630269, -30896.7940088265, 0.0, 0.0, 0.0, 193.0, 0.0, 1.0, 1.0, 0.0, 0.0, 1.0, 1.0, 256.0, 1.0, 1.750527127912084E9, 0.0, 2025-06-21 19:32:07.912
108.0, -43274.251314908426, -38651.284712706176, -29075.260946185703, -70911.35631935076, -27938.0935952775, -28154.078501949134, -51868.56411320736, -98269.01981461285, -187500.02235174447, -187500.02235174447, -46429.870597108675, -45061.3850428325, -77718.11070658096, -47766.43786030267, -87225.46991413474, -30893.68711634721, 0.0, 0.0, 0.0, 193.0, 0.0, 1.0, 1.0, 0.0, 0.0, 1.0, 1.0, 256.0, 1.0, 1.75052712792012E9, 0.0, 2025-06-21 19:32:07.920
110.0, -43247.00453841741, -38635.79495379865, -29059.346504133526, -70890.90447317416, -27927.67768236133, -28202.693546139428, -51849.40866820916, -98248.99265158089, -187500.02235174447, -187500.02235174447, -46466.39334754865, -45103.92041253095, -77738.09316612402, -47810.69431432418, -87215.72455355222, -30943.93383788274, 0.0, 0.0, 0.0, 193.0, 0.0, 1.0, 1.0, 0.0, 0.0, 1.0, 1.0, 256.0, 1.0, 1.750527127929121E9, 0.0, 2025-06-21 19:32:07.929
112.0, -43244.121163382675, -38643.26043644672, -29042.895620214418, -70873.00072586545, -27911.070336231034, -28198.983156559847, -51835.483531413505, -98230.61951763864, -187500.02235174447, -187500.02235174447, -46408.077646264755, -45038.630966977, -77722.80457291658, -47746.09777284834, -87260.33863548502, -30871.402427125267, 0.0, 0.0, 0.0, 193.0, 0.0, 1.0, 1.0, 0.0, 0.0, 1.0, 1.0, 256.0, 1.0, 1.750527127936091E9, 0.0, 2025-06-21 19:32:07.936
114.0, -43306.59428913525, -38703.09605635358, -29080.200681710325, -70921.86163924476, -27923.900237548383, -28149.541097824706, -51873.90618013217, -98264.32594827724, -187500.02235174447, -187500.02235174447, -46462.68295796907, -45096.20906069387, -77725.44207876231, -47794.48929959408, -87186.04143691558, -30927.84058187492, 0.0, 0.0, 0.0, 193.0, 0.0, 1.0, 1.0, 0.0, 0.0, 1.0, 1.0, 256.0, 1.0, 1.750527127944144E9, 0.0, 2025-06-21 19:32:07.944
116.0, -43251.02785241936, -38672.47416644981, -29050.36110286249, -70881.47203701401, -27920.078089246523, -28250.369817062598, -51820.32904867281, -98229.54663390477, -187500.02235174447, -187500.02235174447, -46461.31950155729, -45090.419958879946, -77762.6577332804, -47783.93927621118, -87263.57963843104, -30913.6472241458, 0.0, 0.0, 0.0, 193.0, 0.0, 1.0, 1.0, 0.0, 0.0, 1.0, 1.0, 256.0, 1.0, 1.750527127953189E9, 0.0, 2025-06-21 19:32:07.953
118.0, -43321.5252544314, -38731.97451018984, -29078.546652620633, -70919.42529909912, -27931.76805159665, -28161.074597963645, -51876.05194759989, -98268.25985530137, -187500.02235174447, -187500.02235174447, -46440.84530363623, -45074.99725520578, -77732.59463698801, -47765.23086610209, -87219.6361088319, -30895.184683225714, 0.0, 0.0, 0.0, 193.0, 0.0, 1.0, 1.0, 0.0, 0.0, 1.0, 1.0, 256.0, 1.0, 1.750527127960212E9, 0.0, 2025-06-21 19:32:07.960
120.0, -43294.05496049583, -38717.80350420517, -29067.527242604167, -70898.92874943362, -27932.52801090813, -28211.52248519927, -51848.78281936441, -98247.80800912477, -187500.02235174447, -187500.02235174447, -46491.047321682854, -45123.58994765162, -77759.34967510101, -47821.020820262536, -87226.31928042404, -30953.187460087236, 0.0, 0.0, 0.0, 193.0, 0.0, 1.0, 1.0, 0.0, 0.0, 1.0, 1.0, 256.0, 1.0, 1.750527127968283E9, 0.0, 2025-06-21 19:32:07.968
122.0, -43301.27457395489, -38730.72281250034, -29059.637076811443, -70889.31749931783, -27929.443470173297, -28214.763488145294, -51843.306641972864, -98241.48246544391, -187500.02235174447, -187500.02235174447, -46415.6548876351, -45046.722298469824, -77729.46539276426, -47745.65073795924, -87261.76914713015, -30869.748398035576, 0.0, 0.0, 0.0, 193.0, 0.0, 1.0, 1.0, 0.0, 0.0, 1.0, 1.0, 256.0, 1.0, 1.750527127976274E9, 0.0, 2025-06-21 19:32:07.976
124.0, -43362.63011248471, -38779.71783634637, -29103.513551177213, -70937.06082547437, -27949.336522738522, -28162.505109608785, -51888.23364832803, -98277.73699495042, -187500.02235174447, -187500.02235174447, -46495.875298485196, -45128.12735177605, -77756.3098378551, -47827.8381023214, -87221.17837919932, -30959.781224701554, 0.0, 0.0, 0.0, 193.0, 0.0, 1.0, 1.0, 0.0, 0.0, 1.0, 1.0, 256.0, 1.0, 1.750527127985284E9, 0.0, 2025-06-21 19:32:07.985
126.0, -43310.84112058176, -38745.20674290738, -29062.833376268554, -70886.21060683855, -27939.278237733633, -28249.699264728937, -51829.22504296602, -98225.34450594719, -187500.02235174447, -187500.02235174447, -46478.8209174658, -45096.9466682609, -77773.90066074142, -47792.56704957093, -87276.00720834818, -30920.82213411595, 0.0, 0.0, 0.0, 193.0, 0.0, 1.0, 1.0, 0.0, 0.0, 1.0, 1.0, 256.0, 1.0, 1.750527127992274E9, 0.0, 2025-06-21 19:32:07.992
128.0, -43362.92068516263, -38793.57591790866, -29091.488312660258, -70928.1424794367, -27941.692226134805, -28159.75584504078, -51874.24145629901, -98266.4493640005, -187500.02235174447, -187500.02235174447, -46462.37003354669, -45084.92142974394, -77748.5537825291, -47775.53502029598, -87235.28232995061, -30904.103029263384, 0.0, 0.0, 0.0, 193.0, 0.0, 1.0, 1.0, 0.0, 0.0, 1.0, 1.0, 256.0, 1.0, 1.750527128000419E9, 0.0, 2025-06-21 19:32:08.000
130.0, -43346.71567043253, -38787.54094690573, -29085.430989912868, -70918.79945025437, -27932.43860393031, -28215.88107536806, -51850.19097926509, -98257.53101796283, -187500.02235174447, -187500.02235174447, -46513.86845277172, -45139.23616877034, -77781.23203292275, -47823.92654704172, -87229.62733860343, -30958.685989223242, 0.0, 0.0, 0.0, 193.0, 0.0, 1.0, 1.0, 0.0, 0.0, 1.0, 1.0, 256.0, 1.0, 1.750527128008383E9, 0.0, 2025-06-21 19:32:08.008
132.0, -43347.54268497738, -38802.427208712965, -29075.08213223006, -70906.4836390595, -27925.82248757154, -28230.43206100846, -51850.61566240975, -98242.53299743331, -187500.02235174447, -187500.02235174447, -46456.46917301049, -45085.83785126661, -77772.17957641835, -47763.822706201405, -87275.4037112479, -30892.100142490883, 0.0, 0.0, 0.0, 193.0, 0.0, 1.0, 1.0, 0.0, 0.0, 1.0, 1.0, 256.0, 1.0, 1.7505271280164E9, 0.0, 2025-06-21 19:32:08.016
134.0, -43381.58439178281, -38833.27261606129, -29102.977109310283, -70945.3980261562, -27934.360853953465, -28163.1980136869, -51880.47759300203, -98273.80308792628, -187500.02235174447, -187500.02235174447, -46502.35730437724, -45142.79009613873, -77768.37977986096, -47821.33374468491, -87210.04721046057, -30956.070835121973, 0.0, 0.0, 0.0, 193.0, 0.0, 1.0, 1.0, 0.0, 0.0, 1.0, 1.0, 256.0, 1.0, 1.750527128024432E9, 0.0, 2025-06-21 19:32:08.024
136.0, -43324.20746376603, -38785.68575211594, -29063.906260002408, -70892.24557784147, -27928.616455628453, -28247.598200750137, -51814.94227825908, -98212.60401160766, -187500.02235174447, -187500.02235174447, -46474.752899974934, -45110.134197489526, -77777.58869857654, -47790.68950303668, -87270.3969204899, -30919.83865735992, 0.0, 0.0, 0.0, 193.0, 0.0, 1.0, 1.0, 0.0, 0.0, 1.0, 1.0, 256.0, 1.0, 1.750527128032502E9, 0.0, 2025-06-21 19:32:08.032
138.0, -43403.10912169327, -38859.15593614053, -29113.303615248635, -70954.31637219386, -27956.69024666432, -28183.24752846331, -51886.020825626954, -98272.66314895907, -187500.02235174447, -187500.02235174447, -46470.6178272507, -45104.21098520887, -77761.22722163526, -47780.54181105397, -87237.15987648486, -30910.763849111063, 0.0, 0.0, 0.0, 193.0, 0.0, 1.0, 1.0, 0.0, 0.0, 1.0, 1.0, 256.0, 1.0, 1.750527128040525E9, 0.0, 2025-06-21 19:32:08.040
140.0, -43368.91095267665, -38831.52917999377, -29100.630176142477, -70932.63518007222, -27945.424967458843, -28225.73819467285, -51852.672022899635, -98247.87506435813, -187500.02235174447, -187500.02235174447, -46530.67696460211, -45162.8619626596, -77801.19214072134, -47838.209311748666, -87243.55247539908, -30972.767588230086, 0.0, 0.0, 0.0, 193.0, 0.0, 1.0, 1.0, 0.0, 0.0, 1.0, 1.0, 256.0, 1.0, 1.750527128047549E9, 0.0, 2025-06-21 19:32:08.047
142.0, -43373.29189458989, -38839.84402893115, -29092.494141160747, -70928.81303177036, -27944.53089768063, -28243.485479770363, -51850.77212462093, -98255.5417127063, -187500.02235174447, -187500.02235174447, -46474.19410636355, -45103.09339798611, -77789.88215802696, -47775.51266855153, -87288.07715035405, -30904.5947676414, 0.0, 0.0, 0.0, 193.0, 0.0, 1.0, 1.0, 0.0, 0.0, 1.0, 1.0, 256.0, 1.0, 1.750527128056572E9, 0.0, 2025-06-21 19:32:08.056
144.0, -43400.47161584754, -38861.59227628616, -29108.27447274619, -70947.43203490163, -27939.81467960056, -28158.23592641782, -51870.66517718616, -98263.70009943249, -187500.02235174447, -187500.02235174447, -46527.14538897817, -45161.431451014454, -77791.24561443873, -47835.90708206977, -87223.99469900069, -30971.60529751841, 0.0, 0.0, 0.0, 193.0, 0.0, 1.0, 1.0, 0.0, 0.0, 1.0, 1.0, 256.0, 1.0, 1.750527128064623E9, 0.0, 2025-06-21 19:32:08.064
146.0, -43343.29585353087, -38808.75275239381, -29074.121007218484, -70896.24654009897, -27930.426946929332, -28246.43591003846, -51830.1861679776, -98228.63021238211, -187500.02235174447, -187500.02235174447, -46482.464251812016, -45106.2449939543, -77781.4555503673, -47784.47571807811, -87264.27254250915, -30914.40718345728, 0.0, 0.0, 0.0, 193.0, 0.0, 1.0, 1.0, 0.0, 0.0, 1.0, 1.0, 256.0, 1.0, 1.750527128072701E9, 0.0, 2025-06-21 19:32:08.072
148.0, -43424.27622369245, -38886.31330565373, -29121.327891508092, -70952.17060472615, -27962.501700222696, -28183.605156374593, -51891.6981687186, -98284.28605607583, -187500.02235174447, -187500.02235174447, -46486.48756581397, -45111.58706087912, -77772.76072177419, -47796.21038391714, -87252.44846969229, -30923.370232983856, 0.0, 0.0, 0.0, 193.0, 0.0, 1.0, 1.0, 0.0, 0.0, 1.0, 1.0, 256.0, 1.0, 1.750527128079685E9, 0.0, 2025-06-21 19:32:08.079
150.0, -43394.973086711536, -38861.48051756388, -29104.161751766416, -70934.17745043963, -27951.661104161874, -28235.751776188827, -51864.339633505304, -98264.9965006109, -187500.02235174447, -187500.02235174447, -46537.69541236108, -45162.72785219287, -77801.28154769917, -47849.34048048741, -87254.08014703753, -30979.80838773351, 0.0, 0.0, 0.0, 193.0, 0.0, 1.0, 1.0, 0.0, 0.0, 1.0, 1.0, 256.0, 1.0, 1.750527128088715E9, 0.0, 2025-06-21 19:32:08.088
152.0, -43377.47167080303, -38860.98877918587, -29088.13555099196, -70921.30284563337, -27942.608647657475, -28242.59140999215, -51848.55930191986, -98238.95671832046, -187500.02235174447, -187500.02235174447, -46475.91519068661, -45104.88153754253, -77788.78692254865, -47779.334816853385, -87290.15586258839, -30906.740535109107, 0.0, 0.0, 0.0, 193.0, 0.0, 1.0, 1.0, 0.0, 0.0, 1.0, 1.0, 256.0, 1.0, 1.750527128096697E9, 0.0, 2025-06-21 19:32:08.096
154.0, -43421.43755214662, -38879.250154405854, -29113.70594664883, -70958.58555538482, -27951.638752417417, -28177.458426649384, -51875.51550573296, -98268.57277972375, -187500.02235174447, -187500.02235174447, -46522.31741217583, -45155.97762536736, -77784.09305621304, -47826.675811609726, -87214.94224249628, -30962.84341369193, 0.0, 0.0, 0.0, 193.0, 0.0, 1.0, 1.0, 0.0, 0.0, 1.0, 1.0, 256.0, 1.0, 1.750527128103747E9, 0.0, 2025-06-21 19:32:08.103
156.0, -43368.91095267665, -38852.0704331482, -29082.18998696685, -70913.61384554075, -27944.687359891817, -28277.21426215342, -51825.06761849733, -98227.87025307064, -187500.02235174447, -187500.02235174447, -46504.123092189206, -45136.93393909144, -77806.40009717943, -47800.390160130286, -87279.51643222767, -30932.825020888453, 0.0, 0.0, 0.0, 193.0, 0.0, 1.0, 1.0, 0.0, 0.0, 1.0, 1.0, 256.0, 1.0, 1.750527128112775E9, 0.0, 2025-06-21 19:32:08.112
158.0, -43420.52113062396, -38894.918727269025, -29108.118010535007, -70950.67303784765, -27952.666932662363, -28198.804342604202, -51863.713784660555, -98260.50379997538, -187500.02235174447, -187500.02235174447, -46489.505051315435, -45124.394610452015, -77781.0085154782, -47790.3318751254, -87244.80417308857, -30922.342052738913, 0.0, 0.0, 0.0, 193.0, 0.0, 1.0, 1.0, 0.0, 0.0, 1.0, 1.0, 256.0, 1.0, 1.750527128120842E9, 0.0, 2025-06-21 19:32:08.120
160.0, -43406.081903705825, -38880.300686395254, -29108.430934957378, -70939.22894468653, -27957.807833887084, -28247.151165861032, -51851.77795312142, -98248.36680273614, -187500.02235174447, -187500.02235174447, -46538.097743761275, -45170.886238919054, -77808.74703034724, -47842.83612285091, -87243.79834458808, -30977.215585376693, 0.0, 0.0, 0.0, 193.0, 0.0, 1.0, 1.0, 0.0, 0.0, 1.0, 1.0, 256.0, 1.0, 1.750527128128045E9, 0.0, 2025-06-21 19:32:08.128
162.0, -43397.0965024348, -38881.150052684556, -29097.456228429823, -70929.68474980412, -27950.364702983465, -28240.244476824344, -51863.06558407135, -98255.47465747294, -187500.02235174447, -187500.02235174447, -46484.94529544655, -45110.4471219119, -77797.12412323047, -47784.38631110029, -87290.84876666652, -30911.434401444723, 0.0, 0.0, 0.0, 193.0, 0.0, 1.0, 1.0, 0.0, 0.0, 1.0, 1.0, 256.0, 1.0, 1.75052712813586E9, 0.0, 2025-06-21 19:32:08.135
164.0, -43439.363651199776, -38899.880814538104, -29124.412432242923, -70956.32802919485, -27962.546403711607, -28177.905461538492, -51898.26958158846, -98285.11307062067, -187500.02235174447, -187500.02235174447, -46544.91502582014, -45167.667587717486, -77799.13578023146, -47850.18984677671, -87234.63412936141, -30980.4118848338, 0.0, 0.0, 0.0, 193.0, 0.0, 1.0, 1.0, 0.0, 0.0, 1.0, 1.0, 256.0, 1.0, 1.750527128144894E9, 0.0, 2025-06-21 19:32:08.144
166.0, -43348.548513477865, -38826.053002602224, -29059.055931455605, -70879.10275210175, -27936.70778712127, -28246.50296527183, -51823.86062429674, -98220.22595646692, -187500.02235174447, -187500.02235174447, -46497.976362463996, -45110.71534284537, -77788.69751557082, -47793.43876760468, -87273.63792343592, -30918.78812537052, 0.0, 0.0, 0.0, 193.0, 0.0, 1.0, 1.0, 0.0, 0.0, 1.0, 1.0, 256.0, 1.0, 1.750527128152961E9, 0.0, 2025-06-21 19:32:08.152
168.0, -43425.21499695957, -38902.22774770591, -29112.56600768161, -70949.93543028062, -27968.715485181274, -28193.57403440166, -51897.777843210446, -98288.35407356669, -187500.02235174447, -187500.02235174447, -46479.82674596629, -45104.83683405362, -77766.43517809334, -47782.486412821585, -87237.22693171822, -30908.30515722098, 0.0, 0.0, 0.0, 193.0, 0.0, 1.0, 1.0, 0.0, 0.0, 1.0, 1.0, 256.0, 1.0, 1.750527128159989E9, 0.0, 2025-06-21 19:32:08.159
170.0, -43385.65240927367, -38860.16176464102, -29100.69723137584, -70928.38834862571, -27961.741740911217, -28235.908238400014, -51853.61079616676, -98247.87506435813, -187500.02235174447, -187500.02235174447, -46535.102610004265, -45163.331349293156, -77802.91322504441, -47839.99745130509, -87246.90523706737, -30968.543108528032, 0.0, 0.0, 0.0, 193.0, 0.0, 1.0, 1.0, 0.0, 0.0, 1.0, 1.0, 256.0, 1.0, 1.750527128168033E9, 0.0, 2025-06-21 19:32:08.168
172.0, -43369.11211837675, -38855.758470983325, -29081.00534451072, -70908.87527571623, -27942.228668001735, -28235.416500021995, -51836.89169131419, -98237.12387527512, -187500.02235174447, -187500.02235174447, -46464.47109752549, -45088.16243268996, -77774.2582886527, -47765.18616261318, -87282.19864156231, -30889.373229667337, 0.0, 0.0, 0.0, 193.0, 0.0, 1.0, 1.0, 0.0, 0.0, 1.0, 1.0, 256.0, 1.0, 1.750527128177048E9, 0.0, 2025-06-21 19:32:08.177
174.0, -43449.60075016031, -38916.108181012656, -29151.92742966741, -70984.13359929725, -27988.273261579667, -28205.01812756278, -51902.0023229125, -98304.33557085223, -187500.02235174447, -187500.02235174447, -46535.90727280465, -45160.87265740307, -77790.28448942715, -47838.7904571045, -87228.46504789175, -30972.27584985207, 0.0, 0.0, 0.0, 193.0, 0.0, 1.0, 1.0, 0.0, 0.0, 1.0, 1.0, 256.0, 1.0, 1.750527128184041E9, 0.0, 2025-06-21 19:32:08.184
176.0, -43386.41236858516, -38868.23074438939, -29109.23559775777, -70933.61865682824, -27969.430741003842, -28281.706962788936, -51864.272578271935, -98270.80795416927, -187500.02235174447, -187500.02235174447, -46539.39414493968, -45156.29054978974, -77831.03171956918, -47827.61458487685, -87305.98089766275, -30959.155375856804, 0.0, 0.0, 0.0, 193.0, 0.0, 1.0, 1.0, 0.0, 0.0, 1.0, 1.0, 256.0, 1.0, 1.75052712819206E9, 0.0, 2025-06-21 19:32:08.192
178.0, -43434.468619164065, -38914.09652401168, -29131.296769535158, -70974.254128248, -27977.477369007753, -28204.794610118224, -51926.67864879115, -98320.98762047144, -187500.02235174447, -187500.02235174447, -46508.526385846904, -45144.62293918407, -77799.00166976472, -47818.003334761066, -87269.16757454486, -30948.895925151817, 0.0, 0.0, 0.0, 193.0, 0.0, 1.0, 1.0, 0.0, 0.0, 1.0, 1.0, 256.0, 1.0, 1.750527128200086E9, 0.0, 2025-06-21 19:32:08.200
180.0, -43380.846784215784, -38861.88284896408, -29105.793429111654, -70939.76538655345, -27958.947772854302, -28248.715787972902, -51876.92366563364, -98279.63689322912, -187500.02235174447, -187500.02235174447, -46543.93154906411, -45181.369207068594, -77811.85392282653, -47857.52121895805, -87257.29879823909, -30990.13489367186, 0.0, 0.0, 0.0, 193.0, 0.0, 1.0, 1.0, 0.0, 0.0, 1.0, 1.0, 256.0, 1.0, 1.750527128209075E9, 0.0, 2025-06-21 19:32:08.209
182.0, -43377.24815335848, -38861.905200708534, -29095.936309806864, -70926.46609860256, -27965.09450257951, -28254.415482809007, -51859.82458112533, -98264.75063142189, -187500.02235174447, -187500.02235174447, -46474.90936218612, -45104.5462613757, -77783.9589457463, -47779.93831395368, -87288.03244686514, -30904.035974030015, 0.0, 0.0, 0.0, 193.0, 0.0, 1.0, 1.0, 0.0, 0.0, 1.0, 1.0, 256.0, 1.0, 1.750527128216077E9, 0.0, 2025-06-21 19:32:08.216
184.0, -43421.01286900197, -38887.989686487876, -29129.32981602309, -70966.25220373299, -27984.62992723345, -28193.1046477681, -51897.353160065795, -98296.46775680396, -187500.02235174447, -187500.02235174447, -46543.08218277481, -45175.44599478794, -77799.26989069818, -47856.42598347974, -87241.20554223127, -30988.23499539316, 0.0, 0.0, 0.0, 193.0, 0.0, 1.0, 1.0, 0.0, 0.0, 1.0, 1.0, 256.0, 1.0, 1.750527128224086E9, 0.0, 2025-06-21 19:32:08.224
186.0, -43357.5339147489, -38829.53987473725, -29092.09180976055, -70915.51374381945, -27976.605650973997, -28269.525262060793, -51848.51459843095, -98257.32985226273, -187500.02235174447, -187500.02235174447, -46498.24458339746, -45119.79015109422, -77792.00557375021, -47814.360000414854, -87290.37938003294, -30941.631608203843, 0.0, 0.0, 0.0, 193.0, 0.0, 1.0, 1.0, 0.0, 0.0, 1.0, 1.0, 256.0, 1.0, 1.750527128232201E9, 0.0, 2025-06-21 19:32:08.232
188.0, -43413.30151716489, -38870.04123569027, -29102.32890872108, -70936.34556965179, -27979.06434286408, -28182.062886007177, -51884.12092734825, -98299.64170451662, -187500.02235174447, -187500.02235174447, -46491.94139146106, -45113.86693881356, -77772.71601828528, -47808.95087825667, -87262.88673435293, -30936.758927912586, 0.0, 0.0, 0.0, 193.0, 0.0, 1.0, 1.0, 0.0, 0.0, 1.0, 1.0, 256.0, 1.0, 1.750527128240131E9, 0.0, 2025-06-21 19:32:08.240
190.0, -43400.851595503285, -38869.10246242314, -29106.732202378775, -70932.25520041648, -27987.043915634626, -28244.58071524867, -51875.113174332764, -98276.10531760518, -187500.02235174447, -187500.02235174447, -46532.39804892517, -45159.419794013476, -77795.22422495177, -47849.40753572078, -87254.16955401535, -30981.551823801023, 0.0, 0.0, 0.0, 193.0, 0.0, 1.0, 1.0, 0.0, 0.0, 1.0, 1.0, 256.0, 1.0, 1.750527128248231E9, 0.0, 2025-06-21 19:32:08.248
192.0, -43372.53193527841, -38855.73611923887, -29087.57675738058, -70910.81987748384, -27964.714522923772, -28249.74396821785, -51848.67106064213, -98264.86239014416, -187500.02235174447, -187500.02235174447, -46465.83455393727, -45088.72122630134, -77769.98910546173, -47777.34551159686, -87290.2005660773, -30902.940738551708, 0.0, 0.0, 0.0, 193.0, 0.0, 1.0, 1.0, 0.0, 0.0, 1.0, 1.0, 256.0, 1.0, 1.750527128256245E9, 0.0, 2025-06-21 19:32:08.256
194.0, -43415.98372649953, -38884.25694516384, -29122.266664775216, -70953.82463381585, -27968.2013950588, -28198.178493759453, -51871.53689521991, -98282.02852988584, -187500.02235174447, -187500.02235174447, -46525.75958082194, -45153.58598871064, -77776.73933228724, -47839.259843738066, -87227.25805369116, -30971.94057368524, 0.0, 0.0, 0.0, 193.0, 0.0, 1.0, 1.0, 0.0, 0.0, 1.0, 1.0, 256.0, 1.0, 1.750527128265322E9, 0.0, 2025-06-21 19:32:08.265
196.0, -43346.939187877084, -38834.8148864287, -29085.006306768217, -70908.45059257158, -27944.70971163627, -28279.69530578796, -51827.54866213187, -98238.44262819798, -187500.02235174447, -187500.02235174447, -46496.076464185295, -45118.06906677116, -77789.18925394885, -47806.76040730005, -87288.5018334987, -30934.344939511415, 0.0, 0.0, 0.0, 193.0, 0.0, 1.0, 1.0, 0.0, 0.0, 1.0, 1.0, 256.0, 1.0, 1.750527128272276E9, 0.0, 2025-06-21 19:32:08.272
198.0, -43405.031371716424, -38885.754512042346, -29124.278321776193, -70962.96649729807, -27970.905956137893, -28214.24939802282, -51893.151032108195, -98309.69998952151, -187500.02235174447, -187500.02235174447, -46489.303885615336, -45119.65604062749, -77774.63826830844, -47804.860509021346, -87258.10346103949, -30935.864858134373, 0.0, 0.0, 0.0, 193.0, 0.0, 1.0, 1.0, 0.0, 0.0, 1.0, 1.0, 256.0, 1.0, 1.750527128280327E9, 0.0, 2025-06-21 19:32:08.280
200.0, -43363.21125784055, -38839.37464229759, -29113.817705371108, -70939.9442005091, -27981.791255687625, -28253.655523497528, -51875.113174332764, -98273.445460015, -187500.02235174447, -187500.02235174447, -46540.24351122898, -45167.64523597303, -77803.71788784479, -47861.45512598218, -87261.81385061906, -30996.46043735271, 0.0, 0.0, 0.0, 193.0, 0.0, 1.0, 1.0, 0.0, 0.0, 1.0, 1.0, 256.0, 1.0, 1.750527128288319E9, 0.0, 2025-06-21 19:32:08.288
202.0, -43343.318205275325, -38824.42132525698, -29092.449437671836, -70917.6371595427, -27972.939964883324, -28244.424253037483, -51856.36006073476, -98252.30070976028, -187500.02235174447, -187500.02235174447, -46465.27576032589, -45087.558935589666, -77771.57607931807, -47784.431014589194, -87294.55915624609, -30908.573378154444, 0.0, 0.0, 0.0, 193.0, 0.0, 1.0, 1.0, 0.0, 0.0, 1.0, 1.0, 256.0, 1.0, 1.750527128296392E9, 0.0, 2025-06-21 19:32:08.296
204.0, -43377.96340918105, -38845.566075511706, -29121.506705463733, -70952.61763961526, -27987.423895290365, -28185.505054653295, -51898.4483955441, -98292.71266373548, -187500.02235174447, -187500.02235174447, -46521.64685984217, -45149.428564241956, -77775.08530319754, -47854.41432647876, -87238.344518941, -30985.306916869515, 0.0, 0.0, 0.0, 193.0, 0.0, 1.0, 1.0, 0.0, 0.0, 1.0, 1.0, 256.0, 1.0, 1.750527128304359E9, 0.0, 2025-06-21 19:32:08.304
206.0, -43334.221045282015, -38817.78285715376, -29107.51451343471, -70924.45444160157, -28001.68430825285, -28292.70402106095, -51873.12386907624, -98274.11601234866, -187500.02235174447, -187500.02235174447, -46505.1289206897, -45122.69587787341, -77795.29128018515, -47826.3405354429, -87305.01977265117, -30951.93576239774, 0.0, 0.0, 0.0, 193.0, 0.0, 1.0, 1.0, 0.0, 0.0, 1.0, 1.0, 256.0, 1.0, 1.75052712831241E9, 0.0, 2025-06-21 19:32:08.312
208.0, -43395.42012160065, -38854.55147678274, -29140.595095228568, -70966.60983164428, -28002.287805353142, -28205.1075345406, -51909.62426777175, -98311.93516396703, -187500.02235174447, -187500.02235174447, -46505.173624178606, -45124.30520347419, -77781.50025385621, -47824.41828541974, -87280.00817060568, -30948.4041867738, 0.0, 0.0, 0.0, 193.0, 0.0, 1.0, 1.0, 0.0, 0.0, 1.0, 1.0, 256.0, 1.0, 1.750527128321468E9, 0.0, 2025-06-21 19:32:08.321
210.0, -43354.091746102786, -38825.62831945757, -29119.22682752929, -70940.70415982058, -27983.311174310587, -28249.140471117553, -51880.432889513126, -98283.39198629762, -187500.02235174447, -187500.02235174447, -46551.55349392337, -45167.77934643976, -77807.18240823537, -47864.87494288385, -87270.57573444555, -30993.08532393996, 0.0, 0.0, 0.0, 193.0, 0.0, 1.0, 1.0, 0.0, 0.0, 1.0, 1.0, 256.0, 1.0, 1.750527128327532E9, 0.0, 2025-06-21 19:32:08.327
212.0, -43341.19478955207, -38819.03455484326, -29106.888664589962, -70927.15900268067, -27979.44432251982, -28259.422273566997, -51853.163761277654, -98272.32787279223, -187500.02235174447, -187500.02235174447, -46478.77621397689, -45097.751331061285, -77784.6071463355, -47791.784738514994, -87307.63492675245, -30913.177837512238, 0.0, 0.0, 0.0, 193.0, 0.0, 1.0, 1.0, 0.0, 0.0, 1.0, 1.0, 256.0, 1.0, 1.75052712833658E9, 0.0, 2025-06-21 19:32:08.336
214.0, -43380.95854293806, -38844.04615688875, -29138.76225218323, -70966.67688687764, -27984.764037700184, -28200.078392038155, -51880.87992440223, -98294.88078294764, -187500.02235174447, -187500.02235174447, -46532.19688322507, -45159.12922133556, -77787.13289345895, -47859.95755910368, -87251.48734468072, -30987.698553526232, 0.0, 0.0, 0.0, 193.0, 0.0, 1.0, 1.0, 0.0, 0.0, 1.0, 1.0, 256.0, 1.0, 1.75052712834453E9, 0.0, 2025-06-21 19:32:08.344
216.0, -43309.81294033682, -38792.12305451906, -29091.175388237883, -70913.36797635174, -27967.843767147515, -28278.465959842917, -51832.37663893421, -98247.42802946903, -187500.02235174447, -187500.02235174447, -46489.68386527108, -45115.43156092543, -77784.2048149353, -47816.41636090474, -87298.22484233676, -30940.13404132534, 0.0, 0.0, 0.0, 193.0, 0.0, 1.0, 1.0, 0.0, 0.0, 1.0, 1.0, 256.0, 1.0, 1.750527128353569E9, 0.0, 2025-06-21 19:32:08.353
218.0, -43379.25981035946, -38842.414479543506, -29125.3735572545, -70960.26193621897, -27980.91953765387, -28193.48462742384, -51894.6485989867, -98299.59700102771, -187500.02235174447, -187500.02235174447, -46488.946257704054, -45114.29162195821, -77767.91039322739, -47816.61752660484, -87270.46397572327, -30941.60925645939, 0.0, 0.0, 0.0, 193.0, 0.0, 1.0, 1.0, 0.0, 0.0, 1.0, 1.0, 256.0, 1.0, 1.750527128360589E9, 0.0, 2025-06-21 19:32:08.360
220.0, -43345.59808320976, -38820.599176955126, -29104.921711077895, -70939.40775864218, -27979.69019170883, -28252.15795661902, -51881.86340115826, -98279.74865195139, -187500.02235174447, -187500.02235174447, -46537.74011584999, -45163.063128359696, -77798.19700696433, -47868.250056296594, -87271.15687980139, -30997.2651001531, 0.0, 0.0, 0.0, 193.0, 0.0, 1.0, 1.0, 0.0, 0.0, 1.0, 1.0, 256.0, 1.0, 1.750527128368608E9, 0.0, 2025-06-21 19:32:08.368
222.0, -43345.9333593766, -38817.71580192039, -29078.546652620633, -70915.31257811935, -27974.59399397302, -28250.235706595864, -51872.877999887234, -98273.93719839302, -187500.02235174447, -187500.02235174447, -46465.07459462579, -45088.385950134514, -77769.78793976163, -47786.71089252364, -87295.4979295132, -30912.3955264563, 0.0, 0.0, 0.0, 193.0, 0.0, 1.0, 1.0, 0.0, 0.0, 1.0, 1.0, 256.0, 1.0, 1.750527128376651E9, 0.0, 2025-06-21 19:32:08.376
224.0, -43375.77293822443, -38836.044232373744, -29105.86048434502, -70947.25322094599, -27983.065305121578, -28182.889900552025, -51896.012055398474, -98309.92350696606, -187500.02235174447, -187500.02235174447, -46510.44863587006, -45142.38776473854, -77765.69757052632, -47843.596082162396, -87227.30275718008, -30976.030942920563, 0.0, 0.0, 0.0, 193.0, 0.0, 1.0, 1.0, 0.0, 0.0, 1.0, 1.0, 256.0, 1.0, 1.750527128383727E9, 0.0, 2025-06-21 19:32:08.383
226.0, -43321.1229230312, -38794.939374320435, -29076.26677468619, -70898.50406628897, -27970.883604393435, -28265.233727125375, -51835.59529013578, -98267.63400645662, -187500.02235174447, -187500.02235174447, -46478.128013387686, -45102.445197396904, -77771.64313455143, -47802.044189219974, -87279.87406013896, -30931.32745400995, 0.0, 0.0, 0.0, 193.0, 0.0, 1.0, 1.0, 0.0, 0.0, 1.0, 1.0, 256.0, 1.0, 1.750527128392707E9, 0.0, 2025-06-21 19:32:08.392
228.0, -43386.3900168407, -38848.628264502084, -29118.153943795438, -70947.43203490163, -27989.368497057974, -28194.378697202053, -51894.961523409074, -98309.87880347716, -187500.02235174447, -187500.02235174447, -46483.62654252369, -45108.01078176627, -77762.94830595831, -47806.671000322225, -87258.70695813978, -30934.143773811316, 0.0, 0.0, 0.0, 193.0, 0.0, 1.0, 1.0, 0.0, 0.0, 1.0, 1.0, 256.0, 1.0, 1.750527128400714E9, 0.0, 2025-06-21 19:32:08.400
230.0, -43357.1315833487, -38825.44950550193, -29118.712737406822, -70940.54769760939, -27988.25090983521, -28245.050101882232, -51881.751642435986, -98290.61159975668, -187500.02235174447, -187500.02235174447, -46533.87326405922, -45154.524761977766, -77794.28545168466, -47855.129582301335, -87261.25505700769, -30984.166977902292, 0.0, 0.0, 0.0, 193.0, 0.0, 1.0, 1.0, 0.0, 0.0, 1.0, 1.0, 256.0, 1.0, 1.750527128407716E9, 0.0, 2025-06-21 19:32:08.407
232.0, -43354.62818796971, -38826.79061016925, -29105.458152944822, -70930.37765388223, -27975.979802129248, -28248.29110482825, -51861.009223581466, -98276.08296586073, -187500.02235174447, -187500.02235174447, -46481.65958901162, -45100.05356074018, -77787.64698358142, -47799.07140720742, -87314.78748497814, -30921.26916900506, 0.0, 0.0, 0.0, 193.0, 0.0, 1.0, 1.0, 0.0, 0.0, 1.0, 1.0, 256.0, 1.0, 1.750527128415783E9, 0.0, 2025-06-21 19:32:08.415
234.0, -43384.981856940016, -38839.59815974214, -29132.503763735745, -70964.19584324311, -27976.02450561816, -28190.422438433463, -51877.10247958929, -98296.28894284832, -187500.02235174447, -187500.02235174447, -46535.61670012673, -45161.096174847626, -77791.24561443873, -47861.85745738238, -87251.42028944734, -30991.788922761552, 0.0, 0.0, 0.0, 193.0, 0.0, 1.0, 1.0, 0.0, 0.0, 1.0, 1.0, 256.0, 1.0, 1.750527128424764E9, 0.0, 2025-06-21 19:32:08.424
236.0, -43326.91202484513, -38801.82371161267, -29096.070420273594, -70919.8946857327, -27970.704790437794, -28282.757494778336, -51830.16381623314, -98252.65833767157, -187500.02235174447, -187500.02235174447, -46499.94331597607, -45126.67448838645, -77798.97931802027, -47823.94889878618, -87307.88079594146, -30951.578134486455, 0.0, 0.0, 0.0, 193.0, 0.0, 1.0, 1.0, 0.0, 0.0, 1.0, 1.0, 256.0, 1.0, 1.750527128433018E9, 0.0, 2025-06-21 19:32:08.433
238.0, -43381.204412127074, -38847.28715983476, -29128.748670667253, -70963.77116009846, -27992.83301744855, -28189.885996566536, -51896.81671819887, -98306.12371040866, -187500.02235174447, -187500.02235174447, -46492.70135077254, -45123.43348544044, -77776.29229739813, -47820.305564439965, -87277.52712697115, -30945.789032672532, 0.0, 0.0, 0.0, 193.0, 0.0, 1.0, 1.0, 0.0, 0.0, 1.0, 1.0, 256.0, 1.0, 1.750527128439798E9, 0.0, 2025-06-21 19:32:08.439
240.0, -43333.23756852598, -38794.3582289646, -29102.95475756583, -70930.53411609342, -27979.153749841902, -28237.53991574525, -51873.68266268762, -98280.97799789644, -187500.02235174447, -187500.02235174447, -46538.00833678345, -45165.8123929277, -77799.18048372037, -47865.254922539585, -87270.12869955644, -30995.789885019054, 0.0, 0.0, 0.0, 193.0, 0.0, 1.0, 1.0, 0.0, 0.0, 1.0, 1.0, 256.0, 1.0, 1.750527128447814E9, 0.0, 2025-06-21 19:32:08.447
242.0, -43318.5748241633, -38774.01814151027, -29082.27939394467, -70904.1814093806, -27970.525976482153, -28230.38735751955, -51872.90035163169, -98275.39006178261, -187500.02235174447, -187500.02235174447, -46455.329234043274, -45071.35392085957, -77756.48865181072, -47773.21043887263, -87288.01009512068, -30896.235215215114, 0.0, 0.0, 0.0, 193.0, 0.0, 1.0, 1.0, 0.0, 0.0, 1.0, 1.0, 256.0, 1.0, 1.750527128456875E9, 0.0, 2025-06-21 19:32:08.456
244.0, -43349.15201057816, -38800.54966217872, -29112.67776640389, -70937.99959874149, -27979.801950431105, -28174.507996381286, -51908.43962531562, -98312.69512327852, -187500.02235174447, -187500.02235174447, -46516.97534525101, -45134.89993034601, -77765.87638448196, -47844.84777985189, -87238.12100149645, -30972.566422529988, 0.0, 0.0, 0.0, 193.0, 0.0, 1.0, 1.0, 0.0, 0.0, 1.0, 1.0, 256.0, 1.0, 1.750527128463916E9, 0.0, 2025-06-21 19:32:08.463
246.0, -43278.855774266216, -38748.06776619766, -29062.967486735284, -70881.4273335251, -27963.64163918992, -28259.511680544816, -51844.848912340276, -98254.0888493167, -187500.02235174447, -187500.02235174447, -46469.723757472486, -45086.77662453373, -77762.0542361801, -47791.3824071148, -87279.49408048321, -30917.53642768102, 0.0, 0.0, 0.0, 193.0, 0.0, 1.0, 1.0, 0.0, 0.0, 1.0, 1.0, 256.0, 1.0, 1.75052712847191E9, 0.0, 2025-06-21 19:32:08.471
248.0, -43353.35413853576, -38806.02583957027, -29105.167580266905, -70935.71972080704, -27982.238290576734, -28180.788836573225, -51887.496040761005, -98302.32391385126, -187500.02235174447, -187500.02235174447, -46466.46040278202, -45088.028322223225, -77746.56447727258, -47790.48833733658, -87250.14624001339, -30918.11757303686, 0.0, 0.0, 0.0, 193.0, 0.0, 1.0, 1.0, 0.0, 0.0, 1.0, 1.0, 256.0, 1.0, 1.750527128479986E9, 0.0, 2025-06-21 19:32:08.479
250.0, -43311.39991419315, -38776.00744676679, -29096.964490051807, -70926.0414154579, -27970.77184567116, -28229.269770296785, -51855.823618867835, -98274.76421293787, -187500.02235174447, -187500.02235174447, -46515.522481861415, -45138.230340269845, -77775.33117238655, -47841.42796295023, -87249.47568767973, -30974.309858597502, 0.0, 0.0, 0.0, 193.0, 0.0, 1.0, 1.0, 0.0, 0.0, 1.0, 1.0, 256.0, 1.0, 1.750527128489018E9, 0.0, 2025-06-21 19:32:08.489
252.0, -43320.519425930914, -38788.32325796167, -29099.222016241794, -70927.67309280313, -27971.06241834908, -28243.0160931368, -51857.432944468615, -98267.3434337787, -187500.02235174447, -187500.02235174447, -46462.37003354669, -45083.80384252118, -77766.18930890433, -47781.10060466536, -87293.97801089025, -30908.88630257682, 0.0, 0.0, 0.0, 193.0, 0.0, 1.0, 1.0, 0.0, 0.0, 1.0, 1.0, 256.0, 1.0, 1.750527128495965E9, 0.0, 2025-06-21 19:32:08.495
254.0, -43366.11698461974, -38822.05204034472, -29139.94689463936, -70973.8517968478, -27980.87483416496, -28195.89861582501, -51890.53587800692, -98301.4074923286, -187500.02235174447, -187500.02235174447, -46536.622528627224, -45161.14087833654, -77788.47399812627, -47861.56688470446, -87249.11805976846, -30992.37006811739, 0.0, 0.0, 0.0, 193.0, 0.0, 1.0, 1.0, 0.0, 0.0, 1.0, 1.0, 256.0, 1.0, 1.750527128504046E9, 0.0, 2025-06-21 19:32:08.504
0.0, -43302.682733855574, -38772.2523536983, -29090.013097526207, -70917.77127000944, -27962.412293244877, -28272.36393360662, -51826.20755746455, -98243.56117767826, -187500.02235174447, -187500.02235174447, -46501.82086251031, -45122.80763659569, -77796.07359124107, -47825.334706942405, -87306.58439476305, -30949.99116063013, 0.0, 0.0, 0.0, 193.0, 0.0, 1.0, 1.0, 0.0, 0.0, 1.0, 1.0, 256.0, 1.0, 1.750527128513089E9, 0.0, 2025-06-21 19:32:08.513
2.0, -43368.262752087445, -38824.242511301345, -29122.95956885333, -70962.78768334242, -27973.230537561245, -28186.57793838715, -51889.5971047398, -98291.05863464579, -187500.02235174447, -187500.02235174447, -46489.95208620454, -45120.773627850256, -77775.17471017537, -47823.8371400639, -87276.87892638195, -30949.4547187632, 0.0, 0.0, 0.0, 193.0, 0.0, 1.0, 1.0, 0.0, 0.0, 1.0, 1.0, 256.0, 1.0, 1.750527128520109E9, 0.0, 2025-06-21 19:32:08.520
4.0, -43333.55049294836, -38790.71489461838, -29108.09565879055, -70935.45149987358, -27970.593031715518, -28242.479651269874, -51865.01018583896, -98270.85265765818, -187500.02235174447, -187500.02235174447, -46531.101647746764, -45156.894046890025, -77795.40303890742, -47862.97504460515, -87269.5475542006, -30991.252480894625, 0.0, 0.0, 0.0, 193.0, 0.0, 1.0, 1.0, 0.0, 0.0, 1.0, 1.0, 256.0, 1.0, 1.750527128528107E9, 0.0, 2025-06-21 19:32:08.528
6.0, -43334.511617959935, -38790.29021147373, -29100.76428660921, -70923.89564799018, -27978.036162619137, -28233.427194765474, -51861.52331370393, -98272.93136989253, -187500.02235174447, -187500.02235174447, -46469.67905398358, -45087.06719721165, -77774.39239911943, -47795.919811239226, -87314.92159544487, -30915.368308468856, 0.0, 0.0, 0.0, 193.0, 0.0, 1.0, 1.0, 0.0, 0.0, 1.0, 1.0, 256.0, 1.0, 1.750527128536176E9, 0.0, 2025-06-21 19:32:08.536
8.0, -43383.84191797279, -38837.00535738532, -29128.793374156165, -70968.50972992298, -27982.864139421483, -28181.90642379599, -51905.444491558614, -98303.7097220075, -187500.02235174447, -187500.02235174447, -46530.02876401291, -45156.17879106746, -77784.33892540204, -47868.85355339689, -87259.95865582928, -30996.4157338638, 0.0, 0.0, 0.0, 193.0, 0.0, 1.0, 1.0, 0.0, 0.0, 1.0, 1.0, 256.0, 1.0, 1.750527128545157E9, 0.0, 2025-06-21 19:32:08.545
10.0, -43332.745830147964, -38792.97242080837, -29082.83818755605, -70909.47877281651, -27970.704790437794, -28267.155977148534, -51829.336801688296, -98240.00725030986, -187500.02235174447, -187500.02235174447, -46495.71883627401, -45117.532624904234, -77791.13385571646, -47824.708858097656, -87308.21607210828, -30950.21467807468, 0.0, 0.0, 0.0, 193.0, 0.0, 1.0, 1.0, 0.0, 0.0, 1.0, 1.0, 256.0, 1.0, 1.750527128552184E9, 0.0, 2025-06-21 19:32:08.552
