%OpenBCI Raw EXG Data
%Number of channels = 16
%Sample Rate = 125 Hz
%Board = OpenBCI_GUI$BoardCytonSerialDaisy
Sample Index, EXG Channel 0, EXG Channel 1, EXG Channel 2, EXG Channel 3, EXG Channel 4, EXG Channel 5, EXG Channel 6, EXG Channel 7, EXG Channel 8, EXG Channel 9, EXG Channel 10, EXG Channel 11, EXG Channel 12, EXG Channel 13, EXG Channel 14, EXG Channel 15, Accel Channel 0, Accel Channel 1, Accel Channel 2, Not Used, Digital Channel 0 (D11), Digital Channel 1 (D12), Digital Channel 2 (D13), Digital Channel 3 (D17), Not Used, Digital Channel 4 (D18), Analog Channel 0, Analog Channel 1, Analog Channel 2, Timestamp, Marker Channel, Timestamp (Formatted)
0.0, -21142.716245975047, -20551.24438419871, -13654.211301113522, -33362.75021585825, -14469.312366165206, -13759.063334353368, -25295.178627393085, -48418.237080363884, -93750.01117587223, -93750.01117587223, -21211.11258400829, -20743.82701442564, -38049.776917669406, -22494.63915760984, -41733.657328326386, -14418.28333357374, 0.0, 0.0, 0.0, 193.0, 0.0, 1.0, 1.0, 0.0, 0.0, 1.0, 1.0, 256.0, 1.0, 1.7505249905633E9, 0.0, 2025-06-21 18:56:30.563
2.0, -42292.80856762035, -41117.91147207159, -27308.847285371696, -66735.93869637712, -28938.043586974574, -27502.81572375485, -50600.86257468016, -96842.53148347515, -187500.02235174447, -187500.02235174447, -42826.70233567981, -42050.269788535814, -76717.69132825034, -45418.67767795059, -83901.09496129691, -29120.389118240968, 0.0, 0.0, 0.0, 193.0, 0.0, 1.0, 1.0, 0.0, 0.0, 1.0, 1.0, 256.0, 1.0, 1.750524990569295E9, 0.0, 2025-06-21 18:56:30.569
4.0, -42289.12052978522, -41115.63159413714, -27305.203951025484, -66731.89303063072, -28928.4770403477, -27490.365802093245, -50599.52147001284, -96841.39154450793, -187500.02235174447, -187500.02235174447, -42843.48849576575, -42066.698320710464, -76724.0615754201, -45450.595969032765, -83894.38943796033, -29145.735996453288, 0.0, 0.0, 0.0, 193.0, 0.0, 1.0, 1.0, 0.0, 0.0, 1.0, 1.0, 256.0, 1.0, 1.750524990576374E9, 0.0, 2025-06-21 18:56:30.576
6.0, -42298.32944850081, -41120.88425408414, -27325.544038479813, -66737.57037372237, -28943.944447510774, -27510.415316869658, -50592.92770539853, -96843.73847767574, -187500.02235174447, -187500.02235174447, -42824.62362344547, -42044.21246578842, -76714.8526567045, -45416.15193082714, -83902.88310085335, -29117.796315884152, 0.0, 0.0, 0.0, 193.0, 0.0, 1.0, 1.0, 0.0, 0.0, 1.0, 1.0, 256.0, 1.0, 1.750524990582371E9, 0.0, 2025-06-21 18:56:30.582
8.0, -42322.31287030135, -41136.86575136969, -27352.03085565935, -66767.83463571485, -28957.377845928415, -27510.3929651252, -50638.480560598444, -96869.35357682152, -187500.02235174447, -187500.02235174447, -42865.52731579868, -42081.1822511175, -76745.25102916373, -45461.41421334913, -83924.02785110807, -29157.67182799242, 0.0, 0.0, 0.0, 193.0, 0.0, 1.0, 1.0, 0.0, 0.0, 1.0, 1.0, 256.0, 1.0, 1.750524990589405E9, 0.0, 2025-06-21 18:56:30.589
10.0, -42298.55296594536, -41114.37989644765, -27331.064919360273, -66737.19039406662, -28953.689808093288, -27498.591244052797, -50611.90433644108, -96851.02514636816, -187500.02235174447, -187500.02235174447, -42867.226048377284, -42079.058835394244, -76746.63683731995, -45455.64746327966, -83924.6089964639, -29153.894383179475, 0.0, 0.0, 0.0, 193.0, 0.0, 1.0, 1.0, 0.0, 0.0, 1.0, 1.0, 256.0, 1.0, 1.750524990595403E9, 0.0, 2025-06-21 18:56:30.595
12.0, -42302.84450088078, -41120.07959128375, -27329.88027690414, -66738.82207141187, -28953.175717970815, -27521.948817008593, -50617.31345859927, -96854.46731501429, -187500.02235174447, -187500.02235174447, -42843.62260623248, -42053.5778467152, -76729.113069667, -45425.42790477609, -83915.71300217068, -29127.876952633498, 0.0, 0.0, 0.0, 193.0, 0.0, 1.0, 1.0, 0.0, 0.0, 1.0, 1.0, 256.0, 1.0, 1.750524990602398E9, 0.0, 2025-06-21 18:56:30.602
14.0, -42300.58697469079, -41115.60924239269, -27316.849209886695, -66732.38476900873, -28943.385653899393, -27504.760325522464, -50627.81877849326, -96855.47314351477, -187500.02235174447, -187500.02235174447, -42855.64784474944, -42060.46218400743, -76726.11793590998, -45455.11102141273, -83909.23099627865, -29150.765138955732, 0.0, 0.0, 0.0, 193.0, 0.0, 1.0, 1.0, 0.0, 0.0, 1.0, 1.0, 256.0, 1.0, 1.750524990610413E9, 0.0, 2025-06-21 18:56:30.610
16.0, -42280.89508782567, -41099.47128289596, -27304.22047426945, -66717.2973415014, -28934.780232284098, -27503.285110388413, -50594.82760367723, -96838.86579738448, -187500.02235174447, -187500.02235174447, -42827.52935022466, -42042.91606461001, -76715.09852589351, -45416.8671866497, -83904.64888866531, -29119.159772295927, 0.0, 0.0, 0.0, 193.0, 0.0, 1.0, 1.0, 0.0, 0.0, 1.0, 1.0, 256.0, 1.0, 1.750524990618504E9, 0.0, 2025-06-21 18:56:30.618
18.0, -42312.52280622993, -41128.64030941013, -27335.714082206978, -66755.92115592016, -28961.647029119376, -27505.319119133845, -50622.275545868346, -96862.22337034027, -187500.02235174447, -187500.02235174447, -42844.53902775515, -42061.78093693029, -76722.5640085416, -45442.88461719568, -83906.14645554381, -29136.90705739344, 0.0, 0.0, 0.0, 193.0, 0.0, 1.0, 1.0, 0.0, 0.0, 1.0, 1.0, 256.0, 1.0, 1.750524990626505E9, 0.0, 2025-06-21 18:56:30.626
20.0, -42280.828032592304, -41104.83570156524, -27304.39928822509, -66717.72202464605, -28935.339025895482, -27508.53777033541, -50600.05791187977, -96843.71612593129, -187500.02235174447, -187500.02235174447, -42840.78393468665, -42059.12107934011, -76720.44059281834, -45436.223797348, -83903.77717063155, -29132.61552245802, 0.0, 0.0, 0.0, 193.0, 0.0, 1.0, 1.0, 0.0, 0.0, 1.0, 1.0, 256.0, 1.0, 1.750524990633593E9, 0.0, 2025-06-21 18:56:30.633
22.0, -42305.19143404859, -41121.62186165117, -27327.01925361386, -66738.15151907821, -28954.02508426012, -27498.09950567478, -50622.45435982399, -96856.0095853817, -187500.02235174447, -187500.02235174447, -42827.95403336931, -42042.40197448754, -76712.52807528115, -45416.66602094961, -83906.54878694401, -29115.4717344608, 0.0, 0.0, 0.0, 193.0, 0.0, 1.0, 1.0, 0.0, 0.0, 1.0, 1.0, 256.0, 1.0, 1.750524990641593E9, 0.0, 2025-06-21 18:56:30.641
24.0, -42297.2342130225, -41105.238032965426, -27316.089250575216, -66729.79196665192, -28948.146575468374, -27502.547502821388, -50616.955830687984, -96843.42555325337, -187500.02235174447, -187500.02235174447, -42849.255245835215, -42061.736233441385, -76722.94398819734, -45450.55126554385, -83910.19212129022, -29142.4279382739, 0.0, 0.0, 0.0, 193.0, 0.0, 1.0, 1.0, 0.0, 0.0, 1.0, 1.0, 256.0, 1.0, 1.750524990649547E9, 0.0, 2025-06-21 18:56:30.649
26.0, -42289.634619907694, -41102.24289920842, -27302.052355057283, -66715.82212636735, -28939.898781764365, -27502.860427243762, -50596.615743233655, -96835.73655316074, -187500.02235174447, -187500.02235174447, -42825.85296939051, -42041.75377389834, -76714.11504913749, -45407.90413712313, -83903.57600493146, -29111.403716969937, 0.0, 0.0, 0.0, 193.0, 0.0, 1.0, 1.0, 0.0, 0.0, 1.0, 1.0, 256.0, 1.0, 1.7505249906567E9, 0.0, 2025-06-21 18:56:30.656
28.0, -42311.382867262706, -41128.014460565384, -27327.801564669797, -66748.41096978319, -28951.454633647758, -27498.43478184161, -50627.081170926234, -96856.4119167819, -187500.02235174447, -187500.02235174447, -42837.36411778499, -42056.483573494384, -76719.34535734003, -45430.524102511896, -83897.67514439525, -29129.66509218992, 0.0, 0.0, 0.0, 193.0, 0.0, 1.0, 1.0, 0.0, 0.0, 1.0, 1.0, 256.0, 1.0, 1.750524990665612E9, 0.0, 2025-06-21 18:56:30.665
30.0, -42287.60061116226, -41102.95815503099, -27312.222398784448, -66719.4431089691, -28950.29234293608, -27512.11404944826, -50598.04625487879, -96841.23508229674, -187500.02235174447, -187500.02235174447, -42847.42240278988, -42061.02097761881, -76725.40268008741, -45439.86713169422, -83911.62263293537, -29138.829307416596, 0.0, 0.0, 0.0, 193.0, 0.0, 1.0, 1.0, 0.0, 0.0, 1.0, 1.0, 256.0, 1.0, 1.750524990673729E9, 0.0, 2025-06-21 18:56:30.673
32.0, -42294.21672752103, -41117.79971334931, -27307.997919082394, -66726.19333579461, -28935.741357295676, -27501.809895254362, -50611.077321896235, -96846.80066666612, -187500.02235174447, -187500.02235174447, -42823.751905411715, -42039.02686107479, -76707.70009847882, -45408.6193929457, -83895.797597861, -29110.621405914, 0.0, 0.0, 0.0, 193.0, 0.0, 1.0, 1.0, 0.0, 0.0, 1.0, 1.0, 256.0, 1.0, 1.750524990681677E9, 0.0, 2025-06-21 18:56:30.681
34.0, -42292.07096005332, -41114.17873074755, -27307.12620104864, -66724.36049274927, -28929.080537447997, -27491.05870617136, -50599.87909792413, -96839.87162588497, -187500.02235174447, -187500.02235174447, -42835.30775729511, -42052.23674204788, -76709.01885140168, -45433.00514614644, -83883.81706283297, -29127.832249144587, 0.0, 0.0, 0.0, 193.0, 0.0, 1.0, 1.0, 0.0, 0.0, 1.0, 1.0, 256.0, 1.0, 1.750524990689788E9, 0.0, 2025-06-21 18:56:30.689
36.0, -42289.18758501859, -41112.859977824686, -27303.46051495797, -66716.38091997874, -28950.91819178083, -27501.362860365258, -50586.87038265114, -96838.32935551756, -187500.02235174447, -187500.02235174447, -42829.22808280326, -42049.75569841334, -76715.7020229938, -45411.793340658354, -83907.39815323331, -29113.795353626654, 0.0, 0.0, 0.0, 193.0, 0.0, 1.0, 1.0, 0.0, 0.0, 1.0, 1.0, 256.0, 1.0, 1.750524990698792E9, 0.0, 2025-06-21 18:56:30.698
38.0, -42296.27308801092, -41112.65881212459, -27305.561578936766, -66729.07671082935, -28935.54019159558, -27498.97122370854, -50619.86155746717, -96844.4090300094, -187500.02235174447, -187500.02235174447, -42824.735382167746, -42049.50982922433, -76707.09660137852, -45413.670887192595, -83878.27383020805, -29113.48242920428, 0.0, 0.0, 0.0, 193.0, 0.0, 1.0, 1.0, 0.0, 0.0, 1.0, 1.0, 256.0, 1.0, 1.750524990707831E9, 0.0, 2025-06-21 18:56:30.707
40.0, -42289.90284084116, -41110.6024516347, -27304.756916136375, -66720.15836479169, -28944.92792426681, -27521.792354797406, -50612.46313005246, -96845.39250676543, -187500.02235174447, -187500.02235174447, -42831.46325724879, -42050.98504435838, -76713.04216540363, -45418.58827097277, -83888.53328091303, -29120.85850487453, 0.0, 0.0, 0.0, 193.0, 0.0, 1.0, 1.0, 0.0, 0.0, 1.0, 1.0, 256.0, 1.0, 1.750524990713799E9, 0.0, 2025-06-21 18:56:30.713
42.0, -42305.41495149314, -41120.839550595236, -27319.64317794361, -66738.48679524503, -28942.849212032466, -27499.86529348675, -50615.68178125403, -96851.18160857935, -187500.02235174447, -187500.02235174447, -42827.08231533555, -42050.29214028027, -76718.11601139499, -45413.22385230349, -83902.61487991987, -29120.5232287077, 0.0, 0.0, 0.0, 193.0, 0.0, 1.0, 1.0, 0.0, 0.0, 1.0, 1.0, 256.0, 1.0, 1.750524990720829E9, 0.0, 2025-06-21 18:56:30.720
44.0, -42304.677343926116, -41123.901739585606, -27316.849209886695, -66733.1000248313, -28941.172831198317, -27499.798238253385, -50609.53505152882, -96845.7054311878, -187500.02235174447, -187500.02235174447, -42853.47972553727, -42071.928628913, -76731.19178190133, -45445.85739920824, -83901.18436827474, -29143.09849060756, 0.0, 0.0, 0.0, 193.0, 0.0, 1.0, 1.0, 0.0, 0.0, 1.0, 1.0, 256.0, 1.0, 1.750524990729859E9, 0.0, 2025-06-21 18:56:30.729
46.0, -42286.483023939494, -41111.76474234638, -27300.621843412144, -66712.40230946569, -28935.45078461776, -27509.901226747184, -50588.09972859618, -96833.00964033719, -187500.02235174447, -187500.02235174447, -42825.45063799032, -42042.93841635447, -76712.9527584258, -45400.684523664066, -83891.19313850322, -29105.704022133832, 0.0, 0.0, 0.0, 193.0, 0.0, 1.0, 1.0, 0.0, 0.0, 1.0, 1.0, 256.0, 1.0, 1.750524990736859E9, 0.0, 2025-06-21 18:56:30.736
48.0, -42299.491739212484, -41122.31476572929, -27314.904608119086, -66732.18360330863, -28939.78702304209, -27488.465903814544, -50610.42912130703, -96847.29240504414, -187500.02235174447, -187500.02235174447, -42830.61389095949, -42049.93451236898, -76708.14713336792, -45420.398762273646, -83884.88994656682, -29117.99748158425, 0.0, 0.0, 0.0, 193.0, 0.0, 1.0, 1.0, 0.0, 0.0, 1.0, 1.0, 256.0, 1.0, 1.750524990744863E9, 0.0, 2025-06-21 18:56:30.744
50.0, -42304.72204741502, -41122.96296631849, -27324.560561723778, -66726.7968328949, -28949.510031880145, -27514.885665760718, -50600.795519446794, -96848.54410273363, -187500.02235174447, -187500.02235174447, -42846.17070510038, -42058.65169270655, -76721.53582829665, -45439.554207271845, -83909.14158930082, -29135.25302830375, 0.0, 0.0, 0.0, 193.0, 0.0, 1.0, 1.0, 0.0, 0.0, 1.0, 1.0, 256.0, 1.0, 1.750524990753924E9, 0.0, 2025-06-21 18:56:30.753
52.0, -42305.90668987116, -41120.79484710632, -27323.17475356755, -66734.5528882209, -28944.838517288987, -27506.593168567797, -50613.178385875035, -96847.00183236621, -187500.02235174447, -187500.02235174447, -42835.352460784015, -42046.51469546732, -76717.8030869726, -45419.23647156197, -83911.77909514656, -29117.796315884152, 0.0, 0.0, 0.0, 193.0, 0.0, 1.0, 1.0, 0.0, 0.0, 1.0, 1.0, 256.0, 1.0, 1.750524990761918E9, 0.0, 2025-06-21 18:56:30.761
54.0, -42311.60638470726, -41129.42262046607, -27327.55569548079, -66746.42166452667, -28951.67815109231, -27481.179235122116, -50627.48350232643, -96861.77633545117, -187500.02235174447, -187500.02235174447, -42855.64784474944, -42075.88488768159, -76734.79041275864, -45453.4793440675, -83904.87240610986, -29148.731130210297, 0.0, 0.0, 0.0, 193.0, 0.0, 1.0, 1.0, 0.0, 0.0, 1.0, 1.0, 256.0, 1.0, 1.750524990769004E9, 0.0, 2025-06-21 18:56:30.769
56.0, -42274.99422728947, -41093.056332237284, -27291.68114563002, -66706.18852450712, -28928.611150814435, -27493.20447363907, -50590.13373734162, -96830.48389321375, -187500.02235174447, -187500.02235174447, -42826.99290835773, -42053.555494970744, -76722.2063806303, -45413.22385230349, -83904.47007470966, -29118.109240306527, 0.0, 0.0, 0.0, 193.0, 0.0, 1.0, 1.0, 0.0, 0.0, 1.0, 1.0, 256.0, 1.0, 1.750524990778024E9, 0.0, 2025-06-21 18:56:30.778
58.0, -42310.824073651325, -41121.733620373445, -27333.143631594616, -66751.67432447366, -28953.600401115466, -27498.144209163693, -50634.39019136312, -96859.40705053891, -187500.02235174447, -187500.02235174447, -42828.24460604723, -42052.504962981344, -76712.66218574789, -45427.52896875489, -83896.26698449458, -29124.94887410985, 0.0, 0.0, 0.0, 193.0, 0.0, 1.0, 1.0, 0.0, 0.0, 1.0, 1.0, 256.0, 1.0, 1.750524990786084E9, 0.0, 2025-06-21 18:56:30.786
60.0, -42282.83968959328, -41101.862919552674, -27301.40415446808, -66711.24001875402, -28924.252560645647, -27503.39686911069, -50598.06860662325, -96842.21855905278, -187500.02235174447, -187500.02235174447, -42849.21054234631, -42065.84895442116, -76730.05184293412, -45444.38218407419, -83912.62846143586, -29144.841926675075, 0.0, 0.0, 0.0, 193.0, 0.0, 1.0, 1.0, 0.0, 0.0, 1.0, 1.0, 256.0, 1.0, 1.750524990794099E9, 0.0, 2025-06-21 18:56:30.794
62.0, -42300.09523631278, -41123.052373296305, -27314.658738930077, -66731.13307131923, -28943.519764366123, -27503.82155225534, -50613.938345186514, -96855.69666095934, -187500.02235174447, -187500.02235174447, -42822.835483889045, -42034.57886392819, -76705.91195892238, -45406.18305280007, -83893.0036298041, -29110.442591958355, 0.0, 0.0, 0.0, 193.0, 0.0, 1.0, 1.0, 0.0, 0.0, 1.0, 1.0, 256.0, 1.0, 1.750524990801076E9, 0.0, 2025-06-21 18:56:30.801
64.0, -42291.46746295303, -41100.633573607636, -27309.137858049617, -66726.77448115045, -28933.39442412787, -27484.44258981259, -50611.077321896235, -96847.69473644433, -187500.02235174447, -187500.02235174447, -42850.931626669364, -42065.938361398985, -76721.5581800411, -45440.91766368361, -83892.22131874815, -29136.638836459977, 0.0, 0.0, 0.0, 193.0, 0.0, 1.0, 1.0, 0.0, 0.0, 1.0, 1.0, 256.0, 1.0, 1.75052499080921E9, 0.0, 2025-06-21 18:56:30.809
66.0, -42284.09138728278, -41106.51208239938, -27305.852151614687, -66720.13601304723, -28938.11064220794, -27500.804066753873, -50598.090958367706, -96844.72195443178, -187500.02235174447, -187500.02235174447, -42827.931681624854, -42047.2746547788, -76712.66218574789, -45406.27245977789, -83898.27864149555, -29109.727336135787, 0.0, 0.0, 0.0, 193.0, 0.0, 1.0, 1.0, 0.0, 0.0, 1.0, 1.0, 256.0, 1.0, 1.750524990818193E9, 0.0, 2025-06-21 18:56:30.818
68.0, -42289.07582629631, -41102.46641665297, -27302.611148668668, -66724.53930670492, -28928.85702000344, -27466.136511103694, -50610.183252118026, -96837.34587876152, -187500.02235174447, -187500.02235174447, -42830.27861479266, -42050.538009469274, -76711.03050840265, -45425.22673907599, -83891.7966356035, -29124.5241909652, 0.0, 0.0, 0.0, 193.0, 0.0, 1.0, 1.0, 0.0, 0.0, 1.0, 1.0, 256.0, 1.0, 1.75052499082524E9, 0.0, 2025-06-21 18:56:30.825
70.0, -42305.437303237595, -41111.541224901826, -27324.717023934965, -66737.503318489, -28947.990113257187, -27508.694232546597, -50612.15020563009, -96863.49741977423, -187500.02235174447, -187500.02235174447, -42838.23583581875, -42058.00349211735, -76720.2617788627, -45429.87590192269, -83899.9997258186, -29131.58734221308, 0.0, 0.0, 0.0, 193.0, 0.0, 1.0, 1.0, 0.0, 0.0, 1.0, 1.0, 256.0, 1.0, 1.750524990833273E9, 0.0, 2025-06-21 18:56:30.833
72.0, -42300.22934677951, -41124.23701575244, -27314.97166335245, -66732.0494928419, -28935.29432240657, -27508.82834301333, -50609.2444788509, -96853.93087314736, -187500.02235174447, -187500.02235174447, -42835.03953636164, -42053.823715904204, -76722.98869168625, -45420.6222797182, -83911.62263293537, -29127.4746212333, 0.0, 0.0, 0.0, 193.0, 0.0, 1.0, 1.0, 0.0, 0.0, 1.0, 1.0, 256.0, 1.0, 1.750524990841286E9, 0.0, 2025-06-21 18:56:30.841
74.0, -42293.25560250945, -41102.22054746396, -27322.951236122997, -66738.21857431157, -28928.030005458597, -27490.522264304433, -50613.044275408305, -96853.79676268063, -187500.02235174447, -187500.02235174447, -42845.05311787762, -42063.30085555326, -76720.48529630725, -45444.80686721884, -83902.48076945315, -29142.897324907462, 0.0, 0.0, 0.0, 193.0, 0.0, 1.0, 1.0, 0.0, 0.0, 1.0, 1.0, 256.0, 1.0, 1.750524990850326E9, 0.0, 2025-06-21 18:56:30.850
76.0, -42280.09042502528, -41092.60929734818, -27305.181599281026, -66718.7949083799, -28926.19716241326, -27482.47563630052, -50600.23672583541, -96844.92312013188, -187500.02235174447, -187500.02235174447, -42834.436039261345, -42055.12011708261, -76721.78169748565, -45421.18107332958, -83910.2591765236, -29127.027586344197, 0.0, 0.0, 0.0, 193.0, 0.0, 1.0, 1.0, 0.0, 0.0, 1.0, 1.0, 256.0, 1.0, 1.750524990858335E9, 0.0, 2025-06-21 18:56:30.858
78.0, -42304.85615788176, -41125.1087337862, -27307.193256282004, -66729.63550444072, -28926.800659513556, -27481.894490944684, -50617.71578999946, -96852.18743707985, -187500.02235174447, -187500.02235174447, -42828.40106825842, -42051.63324494758, -76708.54946476812, -45417.15775932762, -83878.60910637488, -29117.014004828216, 0.0, 0.0, 0.0, 193.0, 0.0, 1.0, 1.0, 0.0, 0.0, 1.0, 1.0, 256.0, 1.0, 1.750524990866352E9, 0.0, 2025-06-21 18:56:30.866
80.0, -42277.16234650163, -41098.37604741765, -27298.096096288693, -66708.82603035284, -28918.798734998556, -27499.30649987537, -50592.413615276055, -96839.26812878468, -187500.02235174447, -187500.02235174447, -42832.91612063839, -42055.25422754935, -76715.29969159361, -45426.43373327658, -83890.79080710303, -29128.65926368943, 0.0, 0.0, 0.0, 193.0, 0.0, 1.0, 1.0, 0.0, 0.0, 1.0, 1.0, 256.0, 1.0, 1.75052499087548E9, 0.0, 2025-06-21 18:56:30.875
82.0, -42280.828032592304, -41109.26134696738, -27302.16411377956, -66717.7443763905, -28919.15636290984, -27501.698136532086, -50599.23089733493, -96843.29144278663, -187500.02235174447, -187500.02235174447, -42813.51480645118, -42037.08225930718, -76703.45326703231, -45403.85847137672, -83890.5002344251, -29108.96737682431, 0.0, 0.0, 0.0, 193.0, 0.0, 1.0, 1.0, 0.0, 0.0, 1.0, 1.0, 256.0, 1.0, 1.750524990881413E9, 0.0, 2025-06-21 18:56:30.881
84.0, -42285.96893381702, -41112.792922591325, -27311.238922028417, -66728.51791721796, -28924.073746690006, -27504.805029011375, -50611.47965329643, -96847.27005329968, -187500.02235174447, -187500.02235174447, -42832.84906540502, -42059.25518980684, -76715.29969159361, -45434.90504442514, -83885.78401634503, -29132.794336413663, 0.0, 0.0, 0.0, 193.0, 0.0, 1.0, 1.0, 0.0, 0.0, 1.0, 1.0, 256.0, 1.0, 1.750524990889378E9, 0.0, 2025-06-21 18:56:30.889
86.0, -42268.28870395288, -41100.79003581882, -27300.97947132343, -66710.50241118699, -28921.10096467745, -27516.4949913615, -50586.53510648431, -96835.40127699391, -187500.02235174447, -187500.02235174447, -42819.30390826511, -42050.29214028027, -76717.62427301696, -45405.60190744423, -83900.67027815226, -29111.828400114588, 0.0, 0.0, 0.0, 193.0, 0.0, 1.0, 1.0, 0.0, 0.0, 1.0, 1.0, 256.0, 1.0, 1.75052499089746E9, 0.0, 2025-06-21 18:56:30.897
88.0, -42270.79209933187, -41098.95719277349, -27299.325442233738, -66720.94067584761, -28913.836647729477, -27493.3385841058, -50609.49034803991, -96844.47608524277, -187500.02235174447, -187500.02235174447, -42820.7567716547, -42053.5778467152, -76710.82934270255, -45418.990602372956, -83889.87438558035, -29121.014967085717, 0.0, 0.0, 0.0, 193.0, 0.0, 1.0, 1.0, 0.0, 0.0, 1.0, 1.0, 256.0, 1.0, 1.750524990905451E9, 0.0, 2025-06-21 18:56:30.905
90.0, -42241.4219071176, -41073.87853549463, -27277.10780824516, -66696.3984604357, -28896.156417865328, -27495.01496493995, -50588.14443208509, -96830.52859670266, -187500.02235174447, -187500.02235174447, -42805.490530191724, -42041.686718664976, -76696.0548396176, -45415.66019244912, -83882.11833025436, -29121.126725807993, 0.0, 0.0, 0.0, 193.0, 0.0, 1.0, 1.0, 0.0, 0.0, 1.0, 1.0, 256.0, 1.0, 1.750524990912523E9, 0.0, 2025-06-21 18:56:30.912
92.0, -42255.034119490876, -41084.62972457764, -27292.150532263582, -66715.57625717834, -28904.024231913598, -27491.192816638093, -50592.10069085368, -96840.49747472972, -187500.02235174447, -187500.02235174447, -42791.9006695629, -42025.43700044596, -76685.90714763489, -45397.13059629567, -83878.54205114151, -29106.508684934222, 0.0, 0.0, 0.0, 193.0, 0.0, 1.0, 1.0, 0.0, 0.0, 1.0, 1.0, 256.0, 1.0, 1.75052499092155E9, 0.0, 2025-06-21 18:56:30.921
94.0, -42259.19154395957, -41080.15937568658, -27291.323517718738, -66719.89014385821, -28904.985356925175, -27483.615575267744, -50594.20175483248, -96837.01060259469, -187500.02235174447, -187500.02235174447, -42814.878262862956, -42052.862590892626, -76698.26766231867, -45434.1227333692, -83878.43029241923, -29135.588304470577, 0.0, 0.0, 0.0, 193.0, 0.0, 1.0, 1.0, 0.0, 0.0, 1.0, 1.0, 256.0, 1.0, 1.750524990929542E9, 0.0, 2025-06-21 18:56:30.929
96.0, -42253.93888401257, -41085.5461461003, -27284.59564263769, -66701.51700991596, -28909.835685471975, -27508.426011613134, -50584.590504716696, -96831.31090775858, -187500.02235174447, -187500.02235174447, -42797.98034405474, -42038.19984652995, -76695.80897042858, -45395.52127069489, -83878.43029241923, -29104.89935933344, 0.0, 0.0, 0.0, 193.0, 0.0, 1.0, 1.0, 0.0, 0.0, 1.0, 1.0, 256.0, 1.0, 1.750524990938642E9, 0.0, 2025-06-21 18:56:30.938
98.0, -42271.93203829909, -41099.583041618236, -27300.93476783452, -66725.67924567215, -28913.881351218388, -27501.228749898524, -50614.854766709184, -96844.38667826494, -187500.02235174447, -187500.02235174447, -42807.07750404805, -42044.23481753288, -76698.31236580758, -45410.675753435586, -83873.15528072778, -29114.220036771305, 0.0, 0.0, 0.0, 193.0, 0.0, 1.0, 1.0, 0.0, 0.0, 1.0, 1.0, 256.0, 1.0, 1.750524990946603E9, 0.0, 2025-06-21 18:56:30.946
100.0, -42259.303302681845, -41083.17686118804, -27298.31961373325, -66709.69774838659, -28920.07278443251, -27516.226770428035, -50597.91214441206, -96843.51496023119, -187500.02235174447, -187500.02235174447, -42825.003603101206, -42059.97044562941, -76717.46781080579, -45423.9750413865, -83891.52841467004, -29128.972188111806, 0.0, 0.0, 0.0, 193.0, 0.0, 1.0, 1.0, 0.0, 0.0, 1.0, 1.0, 256.0, 1.0, 1.75052499095669E9, 0.0, 2025-06-21 18:56:30.956
102.0, -42261.73964282747, -41082.12632919864, -27301.515913190357, -66720.35953049178, -28926.890066491374, -27496.19960739608, -50600.460243279966, -96845.57132072108, -187500.02235174447, -187500.02235174447, -42809.51384419368, -42041.597311687154, -76706.73897346723, -45404.26080277691, -83895.32821122745, -29112.81187687062, 0.0, 0.0, 0.0, 193.0, 0.0, 1.0, 1.0, 0.0, 0.0, 1.0, 1.0, 256.0, 1.0, 1.750524990962794E9, 0.0, 2025-06-21 18:56:30.962
104.0, -42246.96513974251, -41078.17007043005, -27287.054334527773, -66707.86490534127, -28901.409077812325, -27484.44258981259, -50601.510775269366, -96837.94937586182, -187500.02235174447, -187500.02235174447, -42815.10178030751, -42052.81788740372, -76700.45813327529, -45426.36667804321, -83874.78695807302, -29129.061595089628, 0.0, 0.0, 0.0, 193.0, 0.0, 1.0, 1.0, 0.0, 0.0, 1.0, 1.0, 256.0, 1.0, 1.750524990969739E9, 0.0, 2025-06-21 18:56:30.969
106.0, -42239.857285005724, -41073.7444250279, -27281.421694925037, -66696.17494299113, -28903.107810390928, -27502.145171421194, -50583.09293783819, -96834.46250372678, -187500.02235174447, -187500.02235174447, -42791.27482071815, -42030.13086678158, -76687.87410114695, -45386.66997989058, -83875.45751040668, -29094.12581850598, 0.0, 0.0, 0.0, 193.0, 0.0, 1.0, 1.0, 0.0, 0.0, 1.0, 1.0, 256.0, 1.0, 1.750524990977773E9, 0.0, 2025-06-21 18:56:30.977
108.0, -42256.6210933472, -41094.17391946005, -27292.821084597243, -66718.5937426798, -28906.013537170118, -27499.77588650893, -50621.33677260122, -96851.31571904609, -187500.02235174447, -187500.02235174447, -42808.28449824864, -42046.51469546732, -76695.67485996186, -45406.5183289669, -83871.63536210482, -29107.08983029006, 0.0, 0.0, 0.0, 193.0, 0.0, 1.0, 1.0, 0.0, 0.0, 1.0, 1.0, 256.0, 1.0, 1.750524990985806E9, 0.0, 2025-06-21 18:56:30.985
110.0, -42240.416078617105, -41076.448986106996, -27286.227319982925, -66701.71817561606, -28910.036851172074, -27514.148058193692, -50588.569115229744, -96838.77639040667, -187500.02235174447, -187500.02235174447, -42815.638222174435, -42054.00252985985, -76704.79437169962, -45415.19080581556, -83882.43125467673, -29115.784658883174, 0.0, 0.0, 0.0, 193.0, 0.0, 1.0, 1.0, 0.0, 0.0, 1.0, 1.0, 256.0, 1.0, 1.750524990992798E9, 0.0, 2025-06-21 18:56:30.992
112.0, -42243.701785052035, -41079.10884369718, -27291.368221207646, -66715.62096066725, -28912.696708762254, -27499.574720808832, -50601.73429271392, -96840.11749507398, -187500.02235174447, -187500.02235174447, -42791.38657944043, -42031.047288304246, -76688.76817092516, -45391.296790992834, -83883.41473143277, -29094.058763272616, 0.0, 0.0, 0.0, 193.0, 0.0, 1.0, 1.0, 0.0, 0.0, 1.0, 1.0, 256.0, 1.0, 1.750524991000844E9, 0.0, 2025-06-21 18:56:31.000
114.0, -42256.39757590265, -41080.0476169643, -27305.293358003302, -66724.56165844937, -28912.62965352889, -27502.100467932283, -50615.97235393195, -96842.71029743079, -187500.02235174447, -187500.02235174447, -42815.68292566334, -42056.59533221666, -76702.11216236498, -45424.46677976451, -83878.0503127635, -29123.026624086695, 0.0, 0.0, 0.0, 193.0, 0.0, 1.0, 1.0, 0.0, 0.0, 1.0, 1.0, 256.0, 1.0, 1.75052499100989E9, 0.0, 2025-06-21 18:56:31.009
116.0, -42249.73675605497, -41074.77260527285, -27306.634462670623, -66716.4479752121, -28923.20202865625, -27509.320081391346, -50588.211487318455, -96825.99119257822, -187500.02235174447, -187500.02235174447, -42822.09787632202, -42055.589503716175, -76716.37257532748, -45406.38421850016, -83903.64306016482, -29109.883798346975, 0.0, 0.0, 0.0, 193.0, 0.0, 1.0, 1.0, 0.0, 0.0, 1.0, 1.0, 256.0, 1.0, 1.750524991016913E9, 0.0, 2025-06-21 18:56:31.016
118.0, -42267.66285510813, -41095.447968894005, -27318.03385234283, -66740.67726620164, -28915.602435541445, -27507.196665668092, -50624.66718252507, -96843.33614627554, -187500.02235174447, -187500.02235174447, -42825.920024623876, -42063.79259393127, -76717.1101828945, -45418.632974461674, -83890.41082744728, -29117.416336228413, 0.0, 0.0, 0.0, 193.0, 0.0, 1.0, 1.0, 0.0, 0.0, 1.0, 1.0, 256.0, 1.0, 1.750524991024954E9, 0.0, 2025-06-21 18:56:31.024
120.0, -42251.56959910031, -41086.931954256535, -27307.34971849319, -66722.19237353711, -28920.81039199953, -27509.364784880258, -50589.2396675634, -96835.37892524946, -187500.02235174447, -187500.02235174447, -42837.00648987371, -42075.504908025854, -76728.15194465542, -45425.94199489856, -83891.61782164787, -29128.14517356696, 0.0, 0.0, 0.0, 193.0, 0.0, 1.0, 1.0, 0.0, 0.0, 1.0, 1.0, 256.0, 1.0, 1.750524991034965E9, 0.0, 2025-06-21 18:56:31.034
122.0, -42250.96610200001, -41081.27696290934, -27303.236997513413, -66724.6957689161, -28916.6753192753, -27511.979938981527, -50591.720711197944, -96832.87552987046, -187500.02235174447, -187500.02235174447, -42814.99002158523, -42053.488439737375, -76711.87987469195, -45401.89151786465, -83889.29324022452, -29106.86631284551, 0.0, 0.0, 0.0, 193.0, 0.0, 1.0, 1.0, 0.0, 0.0, 1.0, 1.0, 256.0, 1.0, 1.75052499104303E9, 0.0, 2025-06-21 18:56:31.043
124.0, -42248.99914848794, -41079.91350649756, -27303.68403240252, -66726.506260217, -28914.23897912967, -27486.051915413373, -50594.20175483248, -96836.36240200548, -187500.02235174447, -187500.02235174447, -42825.204768801304, -42068.06177712224, -76711.7010607363, -45430.47939902299, -83877.55857438548, -29130.46975499031, 0.0, 0.0, 0.0, 193.0, 0.0, 1.0, 1.0, 0.0, 0.0, 1.0, 1.0, 256.0, 1.0, 1.750524991050028E9, 0.0, 2025-06-21 18:56:31.050
126.0, -42242.89712225165, -41074.951419228484, -27309.473134216445, -66717.78907987941, -28912.830819228988, -27498.211264397058, -50575.62745519012, -96829.41100947988, -187500.02235174447, -187500.02235174447, -42805.021143558166, -42041.91023610953, -76701.86629317598, -45393.621372416186, -83881.40307443179, -29099.825513342086, 0.0, 0.0, 0.0, 193.0, 0.0, 1.0, 1.0, 0.0, 0.0, 1.0, 1.0, 256.0, 1.0, 1.750524991057051E9, 0.0, 2025-06-21 18:56:31.057
128.0, -42252.88835202317, -41076.38193087363, -27330.148497837603, -66750.42262678416, -28923.53730482308, -27513.410450626667, -50618.18517663302, -96853.95322489181, -187500.02235174447, -187500.02235174447, -42841.230969575765, -42074.76730045883, -76727.8166684886, -45440.56003577233, -83907.80048463351, -29140.95272313985, 0.0, 0.0, 0.0, 193.0, 0.0, 1.0, 1.0, 0.0, 0.0, 1.0, 1.0, 256.0, 1.0, 1.750524991065051E9, 0.0, 2025-06-21 18:56:31.065
130.0, -42242.36068038472, -41076.65015180709, -27302.5440934353, -66718.92901884664, -28918.709328020734, -27530.68834909062, -50592.10069085368, -96836.76473340568, -187500.02235174447, -187500.02235174447, -42834.25722530571, -42069.224067833915, -76723.36867134199, -45435.642651992166, -83899.5079874406, -29140.99742662876, 0.0, 0.0, 0.0, 193.0, 0.0, 1.0, 1.0, 0.0, 0.0, 1.0, 1.0, 256.0, 1.0, 1.75052499107312E9, 0.0, 2025-06-21 18:56:31.073
132.0, -42261.44907014955, -41096.006762505385, -27308.40025048259, -66729.68020792965, -28911.936749450775, -27514.72920354953, -50594.46997576595, -96835.26716652718, -187500.02235174447, -187500.02235174447, -42813.06777156208, -42050.8732856361, -76710.06938339108, -45399.008142829916, -83887.90743206828, -29109.81674311361, 0.0, 0.0, 0.0, 193.0, 0.0, 1.0, 1.0, 0.0, 0.0, 1.0, 1.0, 256.0, 1.0, 1.750524991081158E9, 0.0, 2025-06-21 18:56:31.081
134.0, -42256.50933462493, -41087.401340890094, -27306.25448301488, -66730.7530916635, -28908.360470337924, -27508.426011613134, -50591.027807119826, -96832.29438451462, -187500.02235174447, -187500.02235174447, -42830.300966537114, -42071.168669601524, -76717.44545906133, -45429.18299784458, -83880.39724593131, -29132.90609513594, 0.0, 0.0, 0.0, 193.0, 0.0, 1.0, 1.0, 0.0, 0.0, 1.0, 1.0, 256.0, 1.0, 1.750524991089186E9, 0.0, 2025-06-21 18:56:31.089
136.0, -42248.30624440983, -41084.92029725556, -27306.209779525972, -66725.76865264996, -28915.222455885705, -27508.515418590956, -50593.57590598773, -96837.72585841727, -187500.02235174447, -187500.02235174447, -42814.34182099603, -42059.61281771813, -76715.54556078263, -45405.57955569978, -83896.13287402784, -29114.71177514932, 0.0, 0.0, 0.0, 193.0, 0.0, 1.0, 1.0, 0.0, 0.0, 1.0, 1.0, 256.0, 1.0, 1.75052499109816E9, 0.0, 2025-06-21 18:56:31.098
138.0, -42255.7717270579, -41091.71522756997, -27314.16700055206, -66739.80554816789, -28914.171923896305, -27494.97026145104, -50630.34452561671, -96855.69666095934, -187500.02235174447, -187500.02235174447, -42820.80147514361, -42064.731367198394, -76711.79046771413, -45422.00808787443, -83884.48761516662, -29126.088813077073, 0.0, 0.0, 0.0, 193.0, 0.0, 1.0, 1.0, 0.0, 0.0, 1.0, 1.0, 256.0, 1.0, 1.750524991106242E9, 0.0, 2025-06-21 18:56:31.106
140.0, -42249.75910779943, -41080.204079175484, -27315.910436619575, -66730.17194630766, -28919.335176865483, -27527.626160100244, -50629.4504558385, -96864.32443431907, -187500.02235174447, -187500.02235174447, -42839.35342304152, -42078.36593131613, -76727.74961325522, -45441.85643695074, -83909.38745848983, -29145.445423775367, 0.0, 0.0, 0.0, 193.0, 0.0, 1.0, 1.0, 0.0, 0.0, 1.0, 1.0, 256.0, 1.0, 1.750524991114263E9, 0.0, 2025-06-21 18:56:31.114
142.0, -42251.92722701159, -41089.25653567988, -27311.708308661975, -66729.65785618518, -28923.984339712184, -27519.132497207225, -50622.78963599082, -96859.38469879446, -187500.02235174447, -187500.02235174447, -42819.03568733164, -42057.22118106141, -76715.14322938243, -45413.31325928131, -83906.43702822174, -29120.09854556305, 0.0, 0.0, 0.0, 193.0, 0.0, 1.0, 1.0, 0.0, 0.0, 1.0, 1.0, 256.0, 1.0, 1.750524991124302E9, 0.0, 2025-06-21 18:56:31.124
144.0, -42261.85140154975, -41086.9990094899, -27325.20876231298, -66741.41487376868, -28925.079575190495, -27505.363822622756, -50624.153092402594, -96861.10578311751, -187500.02235174447, -187500.02235174447, -42837.00648987371, -42072.643884735575, -76721.08879340754, -45434.65917523613, -83887.66156287928, -29137.801127171653, 0.0, 0.0, 0.0, 193.0, 0.0, 1.0, 1.0, 0.0, 0.0, 1.0, 1.0, 256.0, 1.0, 1.750524991131333E9, 0.0, 2025-06-21 18:56:31.131
146.0, -42242.584197829274, -41069.721111025945, -27303.92990159153, -66718.92901884664, -28909.14278139386, -27528.96726476756, -50598.20271708998, -96843.49260848673, -187500.02235174447, -187500.02235174447, -42824.19894030082, -42062.585599730686, -76722.63106377496, -45406.22775628898, -83895.73054262764, -29118.95860659583, 0.0, 0.0, 0.0, 193.0, 0.0, 1.0, 1.0, 0.0, 0.0, 1.0, 1.0, 256.0, 1.0, 1.750524991137356E9, 0.0, 2025-06-21 18:56:31.137
148.0, -42251.41313688912, -41072.4927273384, -27306.410945226067, -66732.54123121992, -28910.81916222801, -27509.498895346987, -50612.53018528583, -96848.47704750026, -187500.02235174447, -187500.02235174447, -42824.42245774537, -42061.19979157446, -76715.16558112689, -45417.09070409426, -83879.88315580883, -29126.088813077073, 0.0, 0.0, 0.0, 193.0, 0.0, 1.0, 1.0, 0.0, 0.0, 1.0, 1.0, 256.0, 1.0, 1.750524991145371E9, 0.0, 2025-06-21 18:56:31.145
150.0, -42233.218816902496, -41063.50732606737, -27297.537302677312, -66713.02815831044, -28897.899853932842, -27512.2928634039, -50583.09293783819, -96832.51790195917, -187500.02235174447, -187500.02235174447, -42822.88018737795, -42060.529239240794, -76712.25985434769, -45418.34240178375, -83884.04058027752, -29127.340510766568, 0.0, 0.0, 0.0, 193.0, 0.0, 1.0, 1.0, 0.0, 0.0, 1.0, 1.0, 256.0, 1.0, 1.750524991152355E9, 0.0, 2025-06-21 18:56:31.152
152.0, -42242.31597689581, -41077.343055885205, -27303.63932891361, -66724.91928636066, -28909.34394709396, -27492.265700371947, -50592.9947606319, -96842.77735266417, -187500.02235174447, -187500.02235174447, -42810.36321048298, -42049.6215879466, -76706.78367695614, -45399.07519806328, -83884.77818784454, -29111.00138556974, 0.0, 0.0, 0.0, 193.0, 0.0, 1.0, 1.0, 0.0, 0.0, 1.0, 1.0, 256.0, 1.0, 1.750524991160446E9, 0.0, 2025-06-21 18:56:31.160
154.0, -42238.58323557177, -41074.124404683644, -27304.846323114198, -66727.78030965095, -28911.132086650385, -27505.475581345032, -50591.63130422012, -96836.83178863904, -187500.02235174447, -187500.02235174447, -42830.725649681764, -42069.5816957452, -76713.62331075947, -45441.2752915949, -83890.58964140293, -29143.411415029936, 0.0, 0.0, 0.0, 193.0, 0.0, 1.0, 1.0, 0.0, 0.0, 1.0, 1.0, 256.0, 1.0, 1.750524991169441E9, 0.0, 2025-06-21 18:56:31.169
156.0, -42232.34709886874, -41063.21675338945, -27301.247692256893, -66722.23707702602, -28907.689918004267, -27536.209229971082, -50594.2911618103, -96840.2069020518, -187500.02235174447, -187500.02235174447, -42804.01531505767, -42045.441811733464, -76701.86629317598, -45402.7185324095, -83888.01919079057, -29115.315272249612, 0.0, 0.0, 0.0, 193.0, 0.0, 1.0, 1.0, 0.0, 0.0, 1.0, 1.0, 256.0, 1.0, 1.750524991177528E9, 0.0, 2025-06-21 18:56:31.177
158.0, -42249.17796244359, -41085.32262865575, -27307.5955876822, -66735.17873706565, -28905.410040069826, -27506.30259588988, -50615.570022531756, -96848.2088265668, -187500.02235174447, -187500.02235174447, -42826.545873468625, -42068.75468120035, -76719.09948815101, -45429.18299784458, -83893.47301643765, -29136.48237424879, 0.0, 0.0, 0.0, 193.0, 0.0, 1.0, 1.0, 0.0, 0.0, 1.0, 1.0, 256.0, 1.0, 1.750524991185537E9, 0.0, 2025-06-21 18:56:31.185
160.0, -42223.69697376454, -41055.438346319, -27285.512064160357, -66701.06997502685, -28895.01647889811, -27511.532904092423, -50587.25036230688, -96826.28176525615, -187500.02235174447, -187500.02235174447, -42813.8053791291, -42055.790669416274, -76708.54946476812, -45410.34047726876, -83879.57023138646, -29118.57862694009, 0.0, 0.0, 0.0, 193.0, 0.0, 1.0, 1.0, 0.0, 0.0, 1.0, 1.0, 256.0, 1.0, 1.750524991194514E9, 0.0, 2025-06-21 18:56:31.194
162.0, -42243.433564118575, -41075.75608202888, -27302.901721346585, -66723.86875437126, -28917.792906498067, -27507.464886601556, -50600.50494676888, -96838.55287296211, -187500.02235174447, -187500.02235174447, -42807.9045185929, -42047.52052396781, -76707.83420894554, -45387.34053222425, -83884.01822853307, -29097.970318552296, 0.0, 0.0, 0.0, 193.0, 0.0, 1.0, 1.0, 0.0, 0.0, 1.0, 1.0, 256.0, 1.0, 1.750524991202599E9, 0.0, 2025-06-21 18:56:31.202
164.0, -42243.9700059855, -41076.98542797392, -27303.661680658064, -66726.39450149471, -28911.6238250284, -27503.77684876643, -50608.10453988368, -96843.5596637201, -187500.02235174447, -187500.02235174447, -42829.92098688138, -42072.62153299112, -76717.3560520835, -45421.6728117076, -83878.40794067478, -29126.357034010536, 0.0, 0.0, 0.0, 193.0, 0.0, 1.0, 1.0, 0.0, 0.0, 1.0, 1.0, 256.0, 1.0, 1.75052499121065E9, 0.0, 2025-06-21 18:56:31.210
166.0, -42232.19063665756, -41065.63074179062, -27299.705421889477, -66710.65887339818, -28901.409077812325, -27524.496915876498, -50581.61772270414, -96830.5062449582, -187500.02235174447, -187500.02235174447, -42814.99002158523, -42053.51079148183, -76712.3045578366, -45392.88376484916, -83888.13094951284, -29102.910054076918, 0.0, 0.0, 0.0, 193.0, 0.0, 1.0, 1.0, 0.0, 0.0, 1.0, 1.0, 256.0, 1.0, 1.750524991216673E9, 0.0, 2025-06-21 18:56:31.216
168.0, -42249.31207291032, -41083.40037863259, -27315.64221568611, -66735.71517893257, -28912.6743570178, -27504.782677266918, -50600.41553979106, -96840.69864042982, -187500.02235174447, -187500.02235174447, -42825.629451945955, -42062.853820664146, -76713.84682820403, -45415.079047093284, -83885.96283030068, -29117.639853672965, 0.0, 0.0, 0.0, 193.0, 0.0, 1.0, 1.0, 0.0, 0.0, 1.0, 1.0, 256.0, 1.0, 1.750524991224644E9, 0.0, 2025-06-21 18:56:31.224
170.0, -42231.341270368255, -41062.74736675589, -27292.709325874966, -66708.40134720819, -28899.71034523372, -27514.10335470478, -50579.29314128079, -96825.6112129225, -187500.02235174447, -187500.02235174447, -42828.26695779168, -42064.820774176216, -76717.37840382796, -45422.499826252446, -83889.94144081372, -29126.558199710635, 0.0, 0.0, 0.0, 193.0, 0.0, 1.0, 1.0, 0.0, 0.0, 1.0, 1.0, 256.0, 1.0, 1.750524991233791E9, 0.0, 2025-06-21 18:56:31.233
172.0, -42242.584197829274, -41071.71041628247, -27301.426506212534, -66721.07478631435, -28905.655909258832, -27509.58830232481, -50590.35725478617, -96830.61800368047, -187500.02235174447, -187500.02235174447, -42802.51774817917, -42041.99964308735, -76700.63694723093, -45389.061616547304, -83877.49151915211, -29100.026679042185, 0.0, 0.0, 0.0, 193.0, 0.0, 1.0, 1.0, 0.0, 0.0, 1.0, 1.0, 256.0, 1.0, 1.750524991240752E9, 0.0, 2025-06-21 18:56:31.240
174.0, -42256.12935496919, -41081.61223907617, -27317.720927920454, -66740.63256271274, -28919.357528609937, -27513.49985760449, -50615.07828415374, -96845.7054311878, -187500.02235174447, -187500.02235174447, -42829.965690370285, -42070.16284110103, -76717.17723812786, -45430.99348914546, -83882.99004828812, -29136.214153315326, 0.0, 0.0, 0.0, 193.0, 0.0, 1.0, 1.0, 0.0, 0.0, 1.0, 1.0, 256.0, 1.0, 1.750524991248785E9, 0.0, 2025-06-21 18:56:31.248
176.0, -42246.02636647539, -41072.53743082732, -27312.69178541801, -66723.68994041561, -28914.797772741054, -27527.581456611333, -50586.15512682857, -96829.34395424652, -187500.02235174447, -187500.02235174447, -42833.609024716505, -42070.27459982331, -76731.16943015688, -45415.771951171395, -83907.9569468447, -29127.29580727766, 0.0, 0.0, 0.0, 193.0, 0.0, 1.0, 1.0, 0.0, 0.0, 1.0, 1.0, 256.0, 1.0, 1.750524991257799E9, 0.0, 2025-06-21 18:56:31.257
178.0, -42259.25859919293, -41083.13215769913, -27329.589704226222, -66752.03195238495, -28926.219514157718, -27516.45028787259, -50616.68760975452, -96845.99600386573, -187500.02235174447, -187500.02235174447, -42840.04632711963, -42078.67885573851, -76731.59411330153, -45431.32876531229, -83899.5079874406, -29137.71172019383, 0.0, 0.0, 0.0, 193.0, 0.0, 1.0, 1.0, 0.0, 0.0, 1.0, 1.0, 256.0, 1.0, 1.750524991264813E9, 0.0, 2025-06-21 18:56:31.264
180.0, -42231.69889827954, -41065.250762134885, -27299.30309048928, -66715.6433124117, -28896.603452754433, -27508.53777033541, -50579.02492034733, -96825.0524193111, -187500.02235174447, -187500.02235174447, -42831.59736771553, -42073.269733580324, -76724.73212775376, -45424.69029720906, -83889.78497860253, -29132.637874202475, 0.0, 0.0, 0.0, 193.0, 0.0, 1.0, 1.0, 0.0, 0.0, 1.0, 1.0, 256.0, 1.0, 1.750524991273849E9, 0.0, 2025-06-21 18:56:31.273
182.0, -42252.95540725654, -41084.048579221795, -27313.161172051572, -66735.80458591039, -28914.73071750769, -27526.01683449946, -50594.26881006585, -96839.04461134013, -187500.02235174447, -187500.02235174447, -42818.38748674244, -42059.85868690714, -76716.12670613846, -45402.69618066504, -83891.81898734797, -29112.945987337353, 0.0, 0.0, 0.0, 193.0, 0.0, 1.0, 1.0, 0.0, 0.0, 1.0, 1.0, 256.0, 1.0, 1.750524991282879E9, 0.0, 2025-06-21 18:56:31.282
184.0, -42252.59777934525, -41084.58502108872, -27314.59168369671, -66738.12916733374, -28919.4245838433, -27513.835133771317, -50600.3931880466, -96842.21855905278, -187500.02235174447, -187500.02235174447, -42834.99483287273, -42080.17642261701, -76721.66993876339, -45437.162570615124, -83886.47692042314, -29141.556220240145, 0.0, 0.0, 0.0, 193.0, 0.0, 1.0, 1.0, 0.0, 0.0, 1.0, 1.0, 256.0, 1.0, 1.75052499129088E9, 0.0, 2025-06-21 18:56:31.290
186.0, -42230.60366280123, -41064.55785805677, -27303.438163213512, -66720.6948066586, -28899.95621442273, -27519.043090229407, -50576.05213833477, -96829.12043680197, -187500.02235174447, -187500.02235174447, -42816.554643697105, -42060.484535751886, -76714.27151134868, -45411.21219530251, -83901.63140316385, -29122.266664775216, 0.0, 0.0, 0.0, 193.0, 0.0, 1.0, 1.0, 0.0, 0.0, 1.0, 1.0, 256.0, 1.0, 1.75052499129791E9, 0.0, 2025-06-21 18:56:31.297
188.0, -42250.22849443299, -41078.77356753035, -27312.982358095927, -66740.65491445719, -28902.660775501823, -27502.413392354658, -50611.77022597435, -96840.11749507398, -187500.02235174447, -187500.02235174447, -42820.35444025451, -42062.89852415306, -76710.13643862444, -45419.25882330642, -83885.09111226692, -29126.893475877463, 0.0, 0.0, 0.0, 193.0, 0.0, 1.0, 1.0, 0.0, 0.0, 1.0, 1.0, 256.0, 1.0, 1.750524991304946E9, 0.0, 2025-06-21 18:56:31.304
190.0, -42234.001127958436, -41060.8921719661, -27302.63350041312, -66721.27595201445, -28911.310900606026, -27513.7457267935, -50595.699321710985, -96831.40031473641, -187500.02235174447, -187500.02235174447, -42831.97734737126, -42076.17546035951, -76725.24621787622, -45426.187864087566, -83893.6518303933, -29136.549429482155, 0.0, 0.0, 0.0, 193.0, 0.0, 1.0, 1.0, 0.0, 0.0, 1.0, 1.0, 256.0, 1.0, 1.750524991313013E9, 0.0, 2025-06-21 18:56:31.313
192.0, -42247.16630544261, -41077.36540762966, -27314.234055785426, -66733.83763239832, -28914.261330874127, -27525.145116465705, -50604.081225881724, -96841.43624799684, -187500.02235174447, -187500.02235174447, -42811.033762816645, -42055.63420720508, -76712.5057235367, -45400.8633376197, -83894.81412110498, -29114.644719915956, 0.0, 0.0, 0.0, 193.0, 0.0, 1.0, 1.0, 0.0, 0.0, 1.0, 1.0, 256.0, 1.0, 1.750524991321048E9, 0.0, 2025-06-21 18:56:31.321
194.0, -42238.85145650524, -41069.162317414564, -27307.997919082394, -66727.02035033946, -28904.270101102604, -27516.316177405857, -50600.169670602045, -96832.58495719254, -187500.02235174447, -187500.02235174447, -42826.81409440209, -42067.57003874422, -76712.77394447017, -45434.39095430267, -83889.78497860253, -29139.253990561247, 0.0, 0.0, 0.0, 193.0, 0.0, 1.0, 1.0, 0.0, 0.0, 1.0, 1.0, 256.0, 1.0, 1.750524991329035E9, 0.0, 2025-06-21 18:56:31.329
196.0, -42232.25769189092, -41050.766831727844, -27308.891988860607, -66720.96302759206, -28907.220531370705, -27532.230619458034, -50586.2892372953, -96841.2574340412, -187500.02235174447, -187500.02235174447, -42822.72372516677, -42063.502021253356, -76718.45128756181, -45417.69420119455, -83908.98512708965, -29129.776850912196, 0.0, 0.0, 0.0, 193.0, 0.0, 1.0, 1.0, 0.0, 0.0, 1.0, 1.0, 256.0, 1.0, 1.750524991337072E9, 0.0, 2025-06-21 18:56:31.337
198.0, -42249.155610699134, -41075.95724772898, -27320.626654699645, -66745.72876044855, -28921.9279792223, -27519.02073848495, -50625.09186566972, -96859.9658441503, -187500.02235174447, -187500.02235174447, -42818.81216988709, -42059.165782829026, -76707.16365661188, -45424.98086988698, -83888.46622567967, -29132.257894546736, 0.0, 0.0, 0.0, 193.0, 0.0, 1.0, 1.0, 0.0, 0.0, 1.0, 1.0, 256.0, 1.0, 1.750524991347051E9, 0.0, 2025-06-21 18:56:31.347
200.0, -42234.40345935863, -41071.10691918217, -27308.132029549128, -66727.1991642951, -28916.20593264174, -27527.73791882252, -50594.26881006585, -96840.58688170754, -187500.02235174447, -187500.02235174447, -42833.318452038584, -42074.54378301428, -76721.89345620794, -45442.03525090638, -83901.81021711949, -29150.072234877618, 0.0, 0.0, 0.0, 193.0, 0.0, 1.0, 1.0, 0.0, 0.0, 1.0, 1.0, 256.0, 1.0, 1.75052499135412E9, 0.0, 2025-06-21 18:56:31.354
202.0, -42241.24309316195, -41071.55395407128, -27310.21074178347, -66730.46251898557, -28915.91535996382, -27514.706851805076, -50593.86647866565, -96840.72099217428, -187500.02235174447, -187500.02235174447, -42813.38069598445, -42052.147335070054, -76709.8011624576, -45411.10043658024, -83900.91614734127, -29123.00427234224, 0.0, 0.0, 0.0, 193.0, 0.0, 1.0, 1.0, 0.0, 0.0, 1.0, 1.0, 256.0, 1.0, 1.750524991362138E9, 0.0, 2025-06-21 18:56:31.362
204.0, -42239.298491394344, -41063.66378827856, -27304.26517775836, -66727.78030965095, -28892.08840037446, -27494.322060861836, -50603.16480435906, -96839.31283227359, -187500.02235174447, -187500.02235174447, -42825.920024623876, -42066.921838155016, -76711.54459852513, -45431.86520717922, -83884.48761516662, -29140.304522550647, 0.0, 0.0, 0.0, 193.0, 0.0, 1.0, 1.0, 0.0, 0.0, 1.0, 1.0, 256.0, 1.0, 1.750524991371158E9, 0.0, 2025-06-21 18:56:31.371
206.0, -42232.391802357655, -41060.10986091016, -27301.314747490258, -66717.67732115714, -28893.116580619408, -27526.977959511038, -50593.620609476646, -96837.81526539508, -187500.02235174447, -187500.02235174447, -42817.49341696423, -42057.51175373933, -76715.38909857144, -45403.254974276424, -83895.68583913874, -29120.61263568552, 0.0, 0.0, 0.0, 193.0, 0.0, 1.0, 1.0, 0.0, 0.0, 1.0, 1.0, 256.0, 1.0, 1.750524991378123E9, 0.0, 2025-06-21 18:56:31.378
208.0, -42255.79407880236, -41084.45091062199, -27315.26223603037, -66743.91826914767, -28907.95813893773, -27511.912883748162, -50619.481577811435, -96852.63447196895, -187500.02235174447, -187500.02235174447, -42819.39331524292, -42062.56324798623, -76711.94692992533, -45413.58148021477, -83880.71017035368, -29126.558199710635, 0.0, 0.0, 0.0, 193.0, 0.0, 1.0, 1.0, 0.0, 0.0, 1.0, 1.0, 256.0, 1.0, 1.750524991385197E9, 0.0, 2025-06-21 18:56:31.385
210.0, -42243.34415714075, -41075.398454117596, -27304.913378347563, -66722.23707702602, -28914.30603436304, -27533.81759331436, -50597.308647311766, -96843.69377418683, -187500.02235174447, -187500.02235174447, -42839.44283001934, -42080.60110576166, -76730.18595340085, -45425.94199489856, -83893.40596120429, -29138.359920783034, 0.0, 0.0, 0.0, 193.0, 0.0, 1.0, 1.0, 0.0, 0.0, 1.0, 1.0, 256.0, 1.0, 1.75052499139319E9, 0.0, 2025-06-21 18:56:31.393
212.0, -42243.25475016293, -41075.46550935096, -27305.561578936766, -66731.42364399716, -28914.417793085315, -27521.390023397213, -50606.942249172, -96849.32641378956, -187500.02235174447, -187500.02235174447, -42805.356419724994, -42050.64976819155, -76705.86725543348, -45390.827404359276, -83879.65963836428, -29106.553388423134, 0.0, 0.0, 0.0, 193.0, 0.0, 1.0, 1.0, 0.0, 0.0, 1.0, 1.0, 256.0, 1.0, 1.750524991401259E9, 0.0, 2025-06-21 18:56:31.401
214.0, -42236.39276461515, -41062.859125478164, -27303.572273680245, -66728.13793756222, -28908.204008126737, -27500.2899766314, -50605.914068927064, -96842.7550009197, -187500.02235174447, -187500.02235174447, -42834.70426019481, -42080.98108541741, -76721.40171782991, -45440.80590496134, -83889.49440592462, -29148.507612765745, 0.0, 0.0, 0.0, 193.0, 0.0, 1.0, 1.0, 0.0, 0.0, 1.0, 1.0, 256.0, 1.0, 1.750524991408268E9, 0.0, 2025-06-21 18:56:31.408
216.0, -42232.54826456884, -41061.56272429976, -27306.29918650379, -66718.16905953515, -28912.42848782879, -27533.907000292184, -50579.44960349198, -96831.02033508067, -187500.02235174447, -187500.02235174447, -42810.49732094972, -42053.15316357055, -76706.26958683367, -45399.768102141396, -83889.94144081372, -29112.633062914978, 0.0, 0.0, 0.0, 193.0, 0.0, 1.0, 1.0, 0.0, 0.0, 1.0, 1.0, 256.0, 1.0, 1.750524991417315E9, 0.0, 2025-06-21 18:56:31.417
218.0, -42252.19544794506, -41078.952381485986, -27320.425488999546, -66737.27980104444, -28908.427525571293, -27497.473656830032, -50614.34067658671, -96845.43721025434, -187500.02235174447, -187500.02235174447, -42828.57988221406, -42063.479669508895, -76714.38327007095, -45415.79430291585, -83887.99683904611, -29123.563065953622, 0.0, 0.0, 0.0, 193.0, 0.0, 1.0, 1.0, 0.0, 0.0, 1.0, 1.0, 256.0, 1.0, 1.750524991426352E9, 0.0, 2025-06-21 18:56:31.426
220.0, -42239.991395472454, -41064.468451078945, -27305.136895792115, -66716.76089963448, -28910.48388606118, -27529.5484101234, -50604.05887413727, -96840.2069020518, -187500.02235174447, -187500.02235174447, -42835.37481252847, -42070.18519284549, -76722.65341551941, -45416.57661397179, -83888.71209486868, -29126.558199710635, 0.0, 0.0, 0.0, 193.0, 0.0, 1.0, 1.0, 0.0, 0.0, 1.0, 1.0, 256.0, 1.0, 1.750524991434388E9, 0.0, 2025-06-21 18:56:31.434
222.0, -42240.99722397295, -41070.19049765951, -27307.707346404477, -66721.9465043481, -28902.727830735188, -27509.610654069264, -50595.36404554416, -96833.79195139313, -187500.02235174447, -187500.02235174447, -42817.13578905294, -42053.66725369302, -76714.29386309313, -45390.62623865918, -83885.53814715602, -29106.10635353403, 0.0, 0.0, 0.0, 193.0, 0.0, 1.0, 1.0, 0.0, 0.0, 1.0, 1.0, 256.0, 1.0, 1.750524991442428E9, 0.0, 2025-06-21 18:56:31.442
224.0, -42236.83979950426, -41063.97671270093, -27303.371107980147, -66721.87944911474, -28899.397420811347, -27501.38521210971, -50599.81204269076, -96830.81916938057, -187500.02235174447, -187500.02235174447, -42833.676079949866, -42067.16770734402, -76716.93136893885, -45419.348230284246, -83875.18928947322, -29126.737013666276, 0.0, 0.0, 0.0, 193.0, 0.0, 1.0, 1.0, 0.0, 0.0, 1.0, 1.0, 256.0, 1.0, 1.750524991450399E9, 0.0, 2025-06-21 18:56:31.450
226.0, -42240.32667163929, -41069.38583485912, -27309.048451071794, -66725.76865264996, -28909.96979593871, -27532.677654347142, -50588.65852220757, -96839.58105320705, -187500.02235174447, -187500.02235174447, -42816.15231229691, -42054.27075079331, -76711.58930201404, -45393.04022706035, -83885.02405703354, -29109.347356480048, 0.0, 0.0, 0.0, 193.0, 0.0, 1.0, 1.0, 0.0, 0.0, 1.0, 1.0, 256.0, 1.0, 1.75052499145749E9, 0.0, 2025-06-21 18:56:31.457
228.0, -42251.055508977835, -41083.489785610414, -27312.35650925118, -66740.27493480146, -28907.511104048623, -27509.25302615798, -50616.754664987886, -96853.59559698054, -187500.02235174447, -187500.02235174447, -42833.69843169433, -42075.437852792486, -76723.83805797555, -45426.120808854204, -83890.34377221392, -29137.95758938284, 0.0, 0.0, 0.0, 193.0, 0.0, 1.0, 1.0, 0.0, 0.0, 1.0, 1.0, 256.0, 1.0, 1.750524991465481E9, 0.0, 2025-06-21 18:56:31.465
230.0, -42245.40051763064, -41078.3488843857, -27317.83268664273, -66734.41877775417, -28917.97172045371, -27532.16356422467, -50596.10165311118, -96850.48870450124, -187500.02235174447, -187500.02235174447, -42829.608062459, -42074.36496905863, -76722.04991841911, -45423.3715442862, -83887.99683904611, -29134.962455625828, 0.0, 0.0, 0.0, 193.0, 0.0, 1.0, 1.0, 0.0, 0.0, 1.0, 1.0, 256.0, 1.0, 1.750524991473552E9, 0.0, 2025-06-21 18:56:31.473
232.0, -42245.0205379749, -41065.16135515706, -27317.184486053528, -66736.05045509941, -28907.689918004267, -27516.651453572686, -50599.92380141304, -96845.97365212128, -187500.02235174447, -187500.02235174447, -42823.61779494498, -42066.206582332445, -76724.19568588682, -45406.764198155906, -83898.4574554512, -29122.66899617541, 0.0, 0.0, 0.0, 193.0, 0.0, 1.0, 1.0, 0.0, 0.0, 1.0, 1.0, 256.0, 1.0, 1.750524991480537E9, 0.0, 2025-06-21 18:56:31.480
234.0, -42243.65708156313, -41060.2439713769, -27317.899741876096, -66733.43530099813, -28901.29731909005, -27500.804066753873, -50607.83631895022, -96847.67238469988, -187500.02235174447, -187500.02235174447, -42841.25332132022, -42082.32219008472, -76728.7107382668, -45436.31320432582, -83891.72958037014, -29146.697121464866, 0.0, 0.0, 0.0, 193.0, 0.0, 1.0, 1.0, 0.0, 0.0, 1.0, 1.0, 256.0, 1.0, 1.750524991489551E9, 0.0, 2025-06-21 18:56:31.489
236.0, -42226.28977612135, -41060.37808184363, -27296.88910208811, -66710.10007978679, -28899.330365577982, -27520.093622218803, -50589.8431646637, -96832.56260544808, -187500.02235174447, -187500.02235174447, -42807.9045185929, -42047.542875712265, -76705.17435135537, -45390.045093303335, -83884.88994656682, -29109.660280902423, 0.0, 0.0, 0.0, 193.0, 0.0, 1.0, 1.0, 0.0, 0.0, 1.0, 1.0, 256.0, 1.0, 1.75052499149757E9, 0.0, 2025-06-21 18:56:31.497
238.0, -42247.613340331714, -41078.32653264124, -27325.856962902184, -66751.09317911783, -28920.564522810524, -27502.189874910102, -50624.13074065814, -96859.40705053891, -187500.02235174447, -187500.02235174447, -42830.83740840405, -42072.39801554656, -76722.78752598615, -45426.92547165459, -83897.16105427279, -29142.025606873707, 0.0, 0.0, 0.0, 193.0, 0.0, 1.0, 1.0, 0.0, 0.0, 1.0, 1.0, 256.0, 1.0, 1.750524991505623E9, 0.0, 2025-06-21 18:56:31.505
240.0, -42226.468590077, -41061.00393068838, -27293.469285186446, -66710.10007978679, -28891.842531185455, -27528.45317464509, -50581.41655700404, -96833.65784092639, -187500.02235174447, -187500.02235174447, -42827.68581243585, -42071.034559134794, -76718.4065840729, -45423.84093091976, -83889.2485367356, -29139.81278417263, 0.0, 0.0, 0.0, 193.0, 0.0, 1.0, 1.0, 0.0, 0.0, 1.0, 1.0, 256.0, 1.0, 1.750524991514623E9, 0.0, 2025-06-21 18:56:31.514
242.0, -42235.811619259315, -41069.83286974822, -27316.536285464324, -66741.68309470214, -28904.42656331379, -27534.599904370298, -50604.371798559645, -96856.14369584844, -187500.02235174447, -187500.02235174447, -42803.121245279464, -42049.1745530575, -76702.44743853182, -45397.667038162595, -83886.16399600077, -29116.879894361486, 0.0, 0.0, 0.0, 193.0, 0.0, 1.0, 1.0, 0.0, 0.0, 1.0, 1.0, 256.0, 1.0, 1.750524991522676E9, 0.0, 2025-06-21 18:56:31.522
244.0, -42237.80092451584, -41071.37514011564, -27311.864770873162, -66740.67726620164, -28893.5189120196, -27518.663110573663, -50604.796481704296, -96847.78414342215, -187500.02235174447, -187500.02235174447, -42829.45160024781, -42081.60693426215, -76718.76421198419, -45441.14118112817, -83887.41569369027, -29153.648513990465, 0.0, 0.0, 0.0, 193.0, 0.0, 1.0, 1.0, 0.0, 0.0, 1.0, 1.0, 256.0, 1.0, 1.750524991530696E9, 0.0, 2025-06-21 18:56:31.530
246.0, -42228.10026742223, -41067.8435644917, -27309.02609932734, -66727.48973697302, -28896.849321943442, -27522.664072831165, -50584.47874599442, -96834.82013163807, -187500.02235174447, -187500.02235174447, -42815.43705647434, -42068.84408817817, -76717.46781080579, -45408.73115166798, -83896.75872287259, -29128.10047007805, 0.0, 0.0, 0.0, 193.0, 0.0, 1.0, 1.0, 0.0, 0.0, 1.0, 1.0, 256.0, 1.0, 1.750524991537777E9, 0.0, 2025-06-21 18:56:31.537
248.0, -42235.34223262576, -41062.63560803361, -27312.26710227336, -66738.3526847783, -28898.145723121852, -27504.849732500286, -50606.07053113825, -96841.19037880783, -187500.02235174447, -187500.02235174447, -42821.449675732816, -42064.954884642946, -76713.7574212262, -45414.69906743754, -83883.32532445494, -29129.218057300815, 0.0, 0.0, 0.0, 193.0, 0.0, 1.0, 1.0, 0.0, 0.0, 1.0, 1.0, 256.0, 1.0, 1.750524991544772E9, 0.0, 2025-06-21 18:56:31.544
250.0, -42228.01086044441, -41052.62202651764, -27309.45078247199, -66724.96398984957, -28907.756973237632, -27513.3433953933, -50596.5933914892, -96840.18455030734, -187500.02235174447, -187500.02235174447, -42823.19311180033, -42064.01611137582, -76715.52320903816, -45416.35309652724, -83884.88994656682, -29130.268589290215, 0.0, 0.0, 0.0, 193.0, 0.0, 1.0, 1.0, 0.0, 0.0, 1.0, 1.0, 256.0, 1.0, 1.750524991553797E9, 0.0, 2025-06-21 18:56:31.553
252.0, -42235.99043321496, -41067.977674958434, -27313.608206940677, -66736.27397254396, -28903.487790046667, -27519.043090229407, -50606.22699334944, -96849.16995157838, -187500.02235174447, -187500.02235174447, -42818.87922512046, -42063.01028287534, -76719.56887478459, -45404.663134177106, -83898.7033246402, -29123.853638631543, 0.0, 0.0, 0.0, 193.0, 0.0, 1.0, 1.0, 0.0, 0.0, 1.0, 1.0, 256.0, 1.0, 1.750524991560775E9, 0.0, 2025-06-21 18:56:31.560
254.0, -42234.917549481106, -41057.38294808662, -27306.835628370718, -66728.98730385152, -28897.274005088093, -27502.033412698915, -50605.51173752687, -96848.6558614559, -187500.02235174447, -187500.02235174447, -42828.26695779168, -42071.63805623508, -76714.29386309313, -45432.04402113486, -83885.91812681177, -29144.260781319237, 0.0, 0.0, 0.0, 193.0, 0.0, 1.0, 1.0, 0.0, 0.0, 1.0, 1.0, 256.0, 1.0, 1.750524991568827E9, 0.0, 2025-06-21 18:56:31.568
0.0, -42226.15566565462, -41060.13221265462, -27303.795791124798, -66717.83378336833, -28906.773496481597, -27520.004215240984, -50592.570077487246, -96844.6548991984, -187500.02235174447, -187500.02235174447, -42811.2572802612, -42051.946169369956, -76706.89543567842, -45400.59511668624, -83892.46718793717, -29118.4221647289, 0.0, 0.0, 0.0, 193.0, 0.0, 1.0, 1.0, 0.0, 0.0, 1.0, 1.0, 256.0, 1.0, 1.750524991576879E9, 0.0, 2025-06-21 18:56:31.576
2.0, -42243.433564118575, -41071.50925058237, -27317.78798315382, -66743.73945519203, -28918.910493720832, -27510.84000001431, -50609.49034803991, -96849.92991088986, -187500.02235174447, -187500.02235174447, -42826.34470776853, -42072.75564345785, -76718.1607148839, -45423.59506173075, -83890.72375186965, -29135.968284126317, 0.0, 0.0, 0.0, 193.0, 0.0, 1.0, 1.0, 0.0, 0.0, 1.0, 1.0, 256.0, 1.0, 1.750524991585907E9, 0.0, 2025-06-21 18:56:31.585
4.0, -42210.151816624624, -41042.40727930156, -27289.73654386241, -66705.07093728434, -28887.8192171835, -27513.29869190439, -50571.55943769925, -96821.0067535647, -187500.02235174447, -187500.02235174447, -42822.05317283311, -42064.91018115404, -76711.61165375849, -45411.65923019162, -83881.15720524278, -29123.540714209168, 0.0, 0.0, 0.0, 193.0, 0.0, 1.0, 1.0, 0.0, 0.0, 1.0, 1.0, 256.0, 1.0, 1.75052499159495E9, 0.0, 2025-06-21 18:56:31.594
6.0, -42244.26057866342, -41076.694855296, -27314.435221485524, -66735.53636497693, -28909.7239267497, -27538.198535227602, -50609.467996295454, -96853.14856209142, -187500.02235174447, -187500.02235174447, -42810.96670758328, -42058.428175262, -76714.53973228214, -45395.65538116162, -83890.18731000273, -29113.728298393286, 0.0, 0.0, 0.0, 193.0, 0.0, 1.0, 1.0, 0.0, 0.0, 1.0, 1.0, 256.0, 1.0, 1.750524991601946E9, 0.0, 2025-06-21 18:56:31.601
8.0, -42241.93599724007, -41069.095262181196, -27314.390517996613, -66732.07184458636, -28907.019365670607, -27520.183029196625, -50614.13951088661, -96848.14177133344, -187500.02235174447, -187500.02235174447, -42830.032745603654, -42072.3309603132, -76718.25012186171, -45426.59019548776, -83884.01822853307, -29137.71172019383, 0.0, 0.0, 0.0, 193.0, 0.0, 1.0, 1.0, 0.0, 0.0, 1.0, 1.0, 256.0, 1.0, 1.750524991610984E9, 0.0, 2025-06-21 18:56:31.610
10.0, -42222.57938654177, -41048.84458170469, -27295.682107887522, -66710.48005944253, -28895.843493442953, -27517.00908148397, -50585.81985066174, -96833.23315778174, -187500.02235174447, -187500.02235174447, -42817.85104487551, -42060.77510842981, -76718.67480500636, -45395.52127069489, -83893.42831294874, -29114.28709200467, 0.0, 0.0, 0.0, 193.0, 0.0, 1.0, 1.0, 0.0, 0.0, 1.0, 1.0, 256.0, 1.0, 1.750524991619014E9, 0.0, 2025-06-21 18:56:31.619
12.0, -42229.15079941163, -41056.22065737494, -27298.990166066906, -66725.65689392769, -28895.731734720677, -27502.547502821388, -50601.019036891346, -96839.71516367378, -187500.02235174447, -187500.02235174447, -42808.46331220428, -42055.164820571525, -76703.49797052122, -45394.381331727665, -83866.87444053584, -29109.52617043569, 0.0, 0.0, 0.0, 193.0, 0.0, 1.0, 1.0, 0.0, 0.0, 1.0, 1.0, 256.0, 1.0, 1.750524991625981E9, 0.0, 2025-06-21 18:56:31.625
14.0, -42223.00406968642, -41063.149698156085, -27288.663660128554, -66710.45770769808, -28895.038830642563, -27531.850639802295, -50595.11817635515, -96840.72099217428, -187500.02235174447, -187500.02235174447, -42816.956975097295, -42063.56907648672, -76708.7059269793, -45407.12182606719, -83875.41280691777, -29122.780754897685, 0.0, 0.0, 0.0, 193.0, 0.0, 1.0, 1.0, 0.0, 0.0, 1.0, 1.0, 256.0, 1.0, 1.750524991633023E9, 0.0, 2025-06-21 18:56:31.633
16.0, -42222.735848752964, -41059.41695683205, -27287.367258950148, -66710.36830072025, -28897.18459811027, -27511.39879362569, -50582.556495971265, -96830.79681763612, -187500.02235174447, -187500.02235174447, -42795.007562042185, -42042.781954143284, -76692.81383667157, -45379.04803503132, -83871.27773419354, -29098.305594719124, 0.0, 0.0, 0.0, 193.0, 0.0, 1.0, 1.0, 0.0, 0.0, 1.0, 1.0, 256.0, 1.0, 1.750524991644126E9, 0.0, 2025-06-21 18:56:31.644
18.0, -42226.42388658808, -41063.26145687836, -27293.648099142087, -66715.88918160071, -28899.330365577982, -27505.96731972305, -50592.63713272061, -96838.9552043623, -187500.02235174447, -187500.02235174447, -42815.10178030751, -42061.110384596635, -76698.04414487412, -45412.24037554746, -83869.22137370365, -29123.33954850907, 0.0, 0.0, 0.0, 193.0, 0.0, 1.0, 1.0, 0.0, 0.0, 1.0, 1.0, 256.0, 1.0, 1.750524991650148E9, 0.0, 2025-06-21 18:56:31.650
20.0, -42205.54735726683, -41040.73089846741, -27278.225395467925, -66689.31295744336, -28885.9193189048, -27519.378366396235, -50573.66050167805, -96821.94552683181, -187500.02235174447, -187500.02235174447, -42789.86666081747, -42036.299948251246, -76685.5495197236, -45368.11803199268, -83860.81711778845, -29087.599109125033, 0.0, 0.0, 0.0, 193.0, 0.0, 1.0, 1.0, 0.0, 0.0, 1.0, 1.0, 256.0, 1.0, 1.75052499165716E9, 0.0, 2025-06-21 18:56:31.657
22.0, -42232.05652619083, -41067.910619725066, -27293.335174719716, -66716.6491409122, -28902.057278401528, -27503.77684876643, -50596.07930136673, -96829.38865773543, -187500.02235174447, -187500.02235174447, -42804.305887735594, -42049.3757187576, -76694.31140355008, -45389.061616547304, -83864.1475277123, -29101.658356387423, 0.0, 0.0, 0.0, 193.0, 0.0, 1.0, 1.0, 0.0, 0.0, 1.0, 1.0, 256.0, 1.0, 1.750524991665184E9, 0.0, 2025-06-21 18:56:31.665
24.0, -42230.82718024578, -41056.712395752955, -27296.21854975445, -66711.12826003174, -28903.800714469042, -27532.297674691403, -50588.25619080737, -96829.90274785791, -187500.02235174447, -187500.02235174447, -42814.028896573654, -42060.43983226298, -76705.50962752219, -45395.52127069489, -83867.67910333624, -29111.38136522548, 0.0, 0.0, 0.0, 193.0, 0.0, 1.0, 1.0, 0.0, 0.0, 1.0, 1.0, 256.0, 1.0, 1.750524991674213E9, 0.0, 2025-06-21 18:56:31.674
26.0, -42252.08368922278, -41061.85329697768, -27319.173791310048, -66741.48192900204, -28910.99797618365, -27522.619369342254, -50616.93347894353, -96852.54506499114, -187500.02235174447, -187500.02235174447, -42817.85104487551, -42069.11230911163, -76718.1607148839, -45390.112148536704, -83888.10859776838, -29110.442591958355, 0.0, 0.0, 0.0, 193.0, 0.0, 1.0, 1.0, 0.0, 0.0, 1.0, 1.0, 256.0, 1.0, 1.750524991682256E9, 0.0, 2025-06-21 18:56:31.682
28.0, -42240.08080245028, -41057.897038209085, -27307.461477215467, -66730.32840851885, -28898.369240566404, -27513.522209348943, -50608.90920268407, -96846.62185271048, -187500.02235174447, -187500.02235174447, -42840.78393468665, -42090.97231518893, -76727.39198534394, -45425.51731175391, -83879.77139708656, -29138.851659161053, 0.0, 0.0, 0.0, 193.0, 0.0, 1.0, 1.0, 0.0, 0.0, 1.0, 1.0, 256.0, 1.0, 1.750524991690255E9, 0.0, 2025-06-21 18:56:31.690
30.0, -42228.256729633424, -41038.02633738832, -27301.247692256893, -66719.37605373574, -28892.602490496934, -27528.028491500438, -50586.17747857302, -96840.36336426299, -187500.02235174447, -187500.02235174447, -42820.68971642134, -42077.65067549356, -76719.6135782735, -45398.35994224071, -83891.68487688123, -29118.80214438464, 0.0, 0.0, 0.0, 193.0, 0.0, 1.0, 1.0, 0.0, 0.0, 1.0, 1.0, 256.0, 1.0, 1.750524991699322E9, 0.0, 2025-06-21 18:56:31.699
32.0, -42249.64734907715, -41118.55967266079, -27305.092192303204, -66736.76571092197, -28895.664679487312, -27517.143191950705, -50616.73231324343, -96857.57420749357, -187500.02235174447, -187500.02235174447, -42813.671268662365, -42062.09386135267, -76706.8060287006, -45404.84194813275, -83873.02117026105, -29121.95374035284, 0.0, 0.0, 0.0, 193.0, 0.0, 1.0, 1.0, 0.0, 0.0, 1.0, 1.0, 256.0, 1.0, 1.750524991706343E9, 0.0, 2025-06-21 18:56:31.706
34.0, -42236.54922682634, -41086.03788447832, -27297.224378254938, -66715.12922228924, -28895.642327742855, -27506.749630778984, -50583.83054540522, -96838.01643109518, -187500.02235174447, -187500.02235174447, -42822.56726295558, -42066.58656198819, -76714.8526567045, -45413.91675638161, -83880.77722558704, -29131.16265906843, 0.0, 0.0, 0.0, 193.0, 0.0, 1.0, 1.0, 0.0, 0.0, 1.0, 1.0, 256.0, 1.0, 1.750524991713358E9, 0.0, 2025-06-21 18:56:31.713
36.0, -42240.147857683645, -41077.5442215853, -27297.961985821963, -66720.27012351395, -28900.492656289658, -27530.30836943488, -50602.74012121441, -96847.00183236621, -187500.02235174447, -187500.02235174447, -42806.13873078093, -42048.43694549047, -76705.42022054437, -45381.372616454675, -83876.08335925142, -29103.401792454933, 0.0, 0.0, 0.0, 193.0, 0.0, 1.0, 1.0, 0.0, 0.0, 1.0, 1.0, 256.0, 1.0, 1.750524991721403E9, 0.0, 2025-06-21 18:56:31.721
38.0, -42249.848514777244, -41085.859070522674, -27307.617939426655, -66730.37311200776, -28909.14278139386, -27532.945875280606, -50617.46992081046, -96854.109687103, -187500.02235174447, -187500.02235174447, -42834.32428053907, -42073.15797485805, -76720.17237188487, -45422.477474507985, -83879.7490453421, -29139.209287072335, 0.0, 0.0, 0.0, 193.0, 0.0, 1.0, 1.0, 0.0, 0.0, 1.0, 1.0, 256.0, 1.0, 1.750524991728419E9, 0.0, 2025-06-21 18:56:31.728
40.0, -42236.1692471706, -41065.675445279536, -27300.487732945414, -66716.51503044546, -28903.644252257855, -27536.07511950435, -50584.456394249966, -96837.18941655033, -187500.02235174447, -187500.02235174447, -42817.180492541855, -42057.04236710577, -76716.08200264955, -45390.58153517026, -83886.63338263433, -29116.365804239013, 0.0, 0.0, 0.0, 193.0, 0.0, 1.0, 1.0, 0.0, 0.0, 1.0, 1.0, 256.0, 1.0, 1.750524991736431E9, 0.0, 2025-06-21 18:56:31.736
42.0, -42243.858247263226, -41080.98639023142, -27304.980433580928, -66729.92607711865, -28892.826007941487, -27498.63594754171, -50604.70707472647, -96838.55287296211, -187500.02235174447, -187500.02235174447, -42817.82869313106, -42061.91504739703, -76710.78463921364, -45401.377427742176, -83876.84331856291, -29122.24431303076, 0.0, 0.0, 0.0, 193.0, 0.0, 1.0, 1.0, 0.0, 0.0, 1.0, 1.0, 256.0, 1.0, 1.750524991745474E9, 0.0, 2025-06-21 18:56:31.745
44.0, -42234.51521808091, -41074.07970119473, -27297.760820121865, -66716.67149265665, -28895.597624253947, -27522.48525887552, -50582.221219804436, -96832.96493684828, -187500.02235174447, -187500.02235174447, -42825.003603101206, -42071.83922193518, -76718.56304628409, -45408.46293073451, -83876.44098716271, -29128.391042755968, 0.0, 0.0, 0.0, 193.0, 0.0, 1.0, 1.0, 0.0, 0.0, 1.0, 1.0, 256.0, 1.0, 1.750524991753502E9, 0.0, 2025-06-21 18:56:31.753
46.0, -42244.50644785243, -41077.11953844065, -27304.622805669645, -66729.32258001836, -28905.00770866963, -27529.056671745384, -50597.48746126741, -96843.89493988693, -187500.02235174447, -187500.02235174447, -42810.318506994074, -42059.59046597368, -76712.19279911433, -45385.306523478816, -83876.91037379627, -29108.76621112421, 0.0, 0.0, 0.0, 193.0, 0.0, 1.0, 1.0, 0.0, 0.0, 1.0, 1.0, 256.0, 1.0, 1.75052499176164E9, 0.0, 2025-06-21 18:56:31.761
48.0, -42242.02540421789, -41069.05055869229, -27302.45468645748, -66727.66855092866, -28895.37410680939, -27517.925503006638, -50602.96363865896, -96840.89980612992, -187500.02235174447, -187500.02235174447, -42827.64110894693, -42077.89654468257, -76717.42310731686, -45416.77777967189, -83866.85208879139, -29132.548467224657, 0.0, 0.0, 0.0, 193.0, 0.0, 1.0, 1.0, 0.0, 0.0, 1.0, 1.0, 256.0, 1.0, 1.750524991770601E9, 0.0, 2025-06-21 18:56:31.770
50.0, -42233.93407272507, -41080.82992802023, -27304.488695202912, -66718.90666710219, -28901.319670834506, -27528.788450811917, -50585.708091939465, -96837.52469271717, -187500.02235174447, -187500.02235174447, -42816.24171927473, -42064.21727707592, -76715.94789218281, -45392.36967472669, -83881.31366745397, -29115.404679227435, 0.0, 0.0, 0.0, 193.0, 0.0, 1.0, 1.0, 0.0, 0.0, 1.0, 1.0, 256.0, 1.0, 1.750524991778684E9, 0.0, 2025-06-21 18:56:31.778
52.0, -42246.585160086775, -41088.60833509068, -27310.858942372673, -66736.63160045524, -28897.452819043738, -27515.332700649822, -50603.23185959242, -96845.5042654877, -187500.02235174447, -187500.02235174447, -42826.72468742427, -42076.220163848426, -76720.93233119635, -45413.91675638161, -83889.29324022452, -29132.61552245802, 0.0, 0.0, 0.0, 193.0, 0.0, 1.0, 1.0, 0.0, 0.0, 1.0, 1.0, 256.0, 1.0, 1.750524991786596E9, 0.0, 2025-06-21 18:56:31.786
54.0, -42239.164380927614, -41072.62683780514, -27309.942520850007, -66722.03591132593, -28904.918301691807, -27524.698081576596, -50596.3922257891, -96844.87841664295, -187500.02235174447, -187500.02235174447, -42826.2105973018, -42071.32513181271, -76718.853618962, -45407.7700266564, -83881.89481280981, -29127.85460088904, 0.0, 0.0, 0.0, 193.0, 0.0, 1.0, 1.0, 0.0, 0.0, 1.0, 1.0, 256.0, 1.0, 1.750524991792637E9, 0.0, 2025-06-21 18:56:31.792
56.0, -42244.193523430054, -41075.48786109542, -27309.16020979407, -66729.27787652945, -28909.634519771877, -27520.987691997016, -50611.233784107426, -96847.9629573778, -187500.02235174447, -187500.02235174447, -42822.32139376657, -42064.79842243176, -76721.62523527446, -45392.92846833807, -83892.69070538173, -29116.99165308376, 0.0, 0.0, 0.0, 193.0, 0.0, 1.0, 1.0, 0.0, 0.0, 1.0, 1.0, 256.0, 1.0, 1.75052499180074E9, 0.0, 2025-06-21 18:56:31.800
58.0, -42246.51810485341, -41076.73955878491, -27301.940596335007, -66727.4003299952, -28907.555807537534, -27526.709738577574, -50616.64290626561, -96850.60046322351, -187500.02235174447, -187500.02235174447, -42839.688699208345, -42082.83628020719, -76727.63785453295, -45421.6728117076, -83875.99395227361, -29139.790432428174, 0.0, 0.0, 0.0, 193.0, 0.0, 1.0, 1.0, 0.0, 0.0, 1.0, 1.0, 256.0, 1.0, 1.75052499180866E9, 0.0, 2025-06-21 18:56:31.808
60.0, -42229.88840697866, -41068.044730191796, -27294.855093342674, -66708.98249256403, -28908.896912204855, -27535.583381126333, -50578.55553371376, -96832.42849498136, -187500.02235174447, -187500.02235174447, -42813.64891691791, -42056.26005604983, -76711.6563572474, -45383.630142644666, -83875.43515866222, -29107.33569947907, 0.0, 0.0, 0.0, 193.0, 0.0, 1.0, 1.0, 0.0, 0.0, 1.0, 1.0, 256.0, 1.0, 1.750524991816664E9, 0.0, 2025-06-21 18:56:31.816
62.0, -42252.08368922278, -41087.04371297881, -27314.97166335245, -66738.03976035592, -28901.632595256877, -27515.846790772295, -50622.36495284617, -96857.8647801715, -187500.02235174447, -187500.02235174447, -42829.63041420346, -42067.815907933225, -76719.52417129566, -45406.18305280007, -83875.68102785123, -29125.23944678777, 0.0, 0.0, 0.0, 193.0, 0.0, 1.0, 1.0, 0.0, 0.0, 1.0, 1.0, 256.0, 1.0, 1.75052499182481E9, 0.0, 2025-06-21 18:56:31.824
64.0, -42237.8679797492, -41064.468451078945, -27305.136895792115, -66720.76186189197, -28910.416830827813, -27526.30740717738, -50618.36399058867, -96855.45079177032, -187500.02235174447, -187500.02235174447, -42840.940396897844, -42078.90237318306, -76730.70004352332, -45416.37544827169, -83880.62076337586, -29136.035339359685, 0.0, 0.0, 0.0, 193.0, 0.0, 1.0, 1.0, 0.0, 0.0, 1.0, 1.0, 256.0, 1.0, 1.750524991833708E9, 0.0, 2025-06-21 18:56:31.833
66.0, -42241.10898269522, -41077.834794263224, -27311.68595691752, -66731.78127190843, -28909.634519771877, -27530.084851990327, -50627.84113023772, -96865.8667046865, -187500.02235174447, -187500.02235174447, -42820.890882121435, -42061.91504739703, -76720.32883409606, -45392.481433448964, -83889.27088848007, -29116.231693772283, 0.0, 0.0, 0.0, 193.0, 0.0, 1.0, 1.0, 0.0, 0.0, 1.0, 1.0, 256.0, 1.0, 1.750524991841777E9, 0.0, 2025-06-21 18:56:31.841
68.0, -42243.277101907384, -41078.75121578589, -27311.82006738425, -66736.72100743307, -28899.19625511125, -27499.35120336428, -50629.38340060513, -96864.59265525253, -187500.02235174447, -187500.02235174447, -42834.07841135006, -42080.31053308374, -76724.35214809801, -45425.65142222064, -83883.57119364396, -29144.43959527488, 0.0, 0.0, 0.0, 193.0, 0.0, 1.0, 1.0, 0.0, 0.0, 1.0, 1.0, 256.0, 1.0, 1.75052499184979E9, 0.0, 2025-06-21 18:56:31.849
70.0, -42235.45399134803, -41065.02724469033, -27307.640291171112, -66726.17098405016, -28903.53249353558, -27542.624180629755, -50608.417464306054, -96855.85312317051, -187500.02235174447, -187500.02235174447, -42826.81409440209, -42076.42132954852, -76730.92356096787, -45407.43475048956, -83901.22907176365, -29133.174316069406, 0.0, 0.0, 0.0, 193.0, 0.0, 1.0, 1.0, 0.0, 0.0, 1.0, 1.0, 256.0, 1.0, 1.750524991858815E9, 0.0, 2025-06-21 18:56:31.858
72.0, -42242.62890131818, -41074.3926256171, -27305.203951025484, -66734.48583298753, -28894.457685286725, -27515.891494261206, -50626.34356335921, -96854.80259118111, -187500.02235174447, -187500.02235174447, -42817.448713475314, -42065.67014046552, -76715.2102846158, -45405.82542488878, -83876.68685635172, -29126.938179366374, 0.0, 0.0, 0.0, 193.0, 0.0, 1.0, 1.0, 0.0, 0.0, 1.0, 1.0, 256.0, 1.0, 1.750524991865873E9, 0.0, 2025-06-21 18:56:31.865
74.0, -42237.51035183792, -41077.52186984085, -27306.96973883745, -66721.61122818127, -28910.01449942762, -27517.701985562086, -50597.01807463385, -96849.63933821194, -187500.02235174447, -187500.02235174447, -42829.09397233653, -42073.94028591398, -76721.87110446347, -45421.158721585125, -83887.12512101234, -29139.678673705897, 0.0, 0.0, 0.0, 193.0, 0.0, 1.0, 1.0, 0.0, 0.0, 1.0, 1.0, 256.0, 1.0, 1.750524991872901E9, 0.0, 2025-06-21 18:56:31.872
76.0, -42228.21202614451, -41066.48010807992, -27289.960061306963, -66709.18365826413, -28896.536397521068, -27509.565950580356, -50587.83150766272, -96837.72585841727, -187500.02235174447, -187500.02235174447, -42809.8044168716, -42047.72168966791, -76705.93431066684, -45388.6145816582, -83883.30297271049, -29109.14619077995, 0.0, 0.0, 0.0, 193.0, 0.0, 1.0, 1.0, 0.0, 0.0, 1.0, 1.0, 256.0, 1.0, 1.750524991880947E9, 0.0, 2025-06-21 18:56:31.880
78.0, -42225.06043017631, -41054.67838700752, -27291.100000274182, -66713.92222808865, -28896.156417865328, -27512.20345642608, -50599.275600823836, -96844.07375384257, -187500.02235174447, -187500.02235174447, -42818.67805942036, -42057.265884550325, -76701.08398212004, -45412.75446566993, -83865.17570795724, -29127.921656122406, 0.0, 0.0, 0.0, 193.0, 0.0, 1.0, 1.0, 0.0, 0.0, 1.0, 1.0, 256.0, 1.0, 1.750524991888957E9, 0.0, 2025-06-21 18:56:31.888
80.0, -42214.17513062658, -41046.63175900361, -27280.147645491084, -66693.8950650567, -28897.05048764354, -27523.35697690928, -50580.96952211494, -96827.19818677881, -187500.02235174447, -187500.02235174447, -42794.51582366417, -42036.568169184706, -76693.9537756388, -45377.528116408364, -83866.60621960238, -29102.39596395445, 0.0, 0.0, 0.0, 193.0, 0.0, 1.0, 1.0, 0.0, 0.0, 1.0, 1.0, 256.0, 1.0, 1.75052499189611E9, 0.0, 2025-06-21 18:56:31.896
82.0, -42238.471476849496, -41061.22744813293, -27298.789000366807, -66723.77934739344, -28907.935787193273, -27511.68936630361, -50615.16769113156, -96844.92312013188, -187500.02235174447, -187500.02235174447, -42803.00948655719, -42042.51373320982, -76697.84297917402, -45387.58640141325, -83856.95026599769, -29108.5203419352, 0.0, 0.0, 0.0, 193.0, 0.0, 1.0, 1.0, 0.0, 0.0, 1.0, 1.0, 256.0, 1.0, 1.750524991904976E9, 0.0, 2025-06-21 18:56:31.904
84.0, -42238.2703111494, -41064.15552665658, -27299.88423584512, -66713.11756528825, -28914.261330874127, -27537.058596260384, -50602.20367934748, -96840.05043984062, -187500.02235174447, -187500.02235174447, -42830.68094619286, -42064.9772363874, -76721.02173817417, -45407.21123304501, -83874.63049586183, -29129.754499167742, 0.0, 0.0, 0.0, 193.0, 0.0, 1.0, 1.0, 0.0, 0.0, 1.0, 1.0, 256.0, 1.0, 1.750524991913023E9, 0.0, 2025-06-21 18:56:31.913
86.0, -42249.73675605497, -41072.40332036058, -27311.08245981723, -66731.37894050825, -28918.798734998556, -27531.314197935368, -50609.06566489526, -96848.2535300557, -187500.02235174447, -187500.02235174447, -42813.604213429004, -42052.504962981344, -76715.0091189157, -45383.339569966745, -83882.05127502099, -29110.934330336375, 0.0, 0.0, 0.0, 193.0, 0.0, 1.0, 1.0, 0.0, 0.0, 1.0, 1.0, 256.0, 1.0, 1.750524991921015E9, 0.0, 2025-06-21 18:56:31.921
88.0, -42246.36164264222, -41080.44994836449, -27299.079573044728, -66726.46155672807, -28895.44116204276, -27513.991595982505, -50604.28239158182, -96840.855102641, -187500.02235174447, -187500.02235174447, -42841.94622539833, -42083.417425563035, -76731.68352027936, -45425.338497798264, -83877.46916740766, -29146.67476972041, 0.0, 0.0, 0.0, 193.0, 0.0, 1.0, 1.0, 0.0, 0.0, 1.0, 1.0, 256.0, 1.0, 1.750524991928073E9, 0.0, 2025-06-21 18:56:31.928
90.0, -42216.54441553884, -41055.19247713, -27275.29731694428, -66697.73956510301, -28888.28860381706, -27527.87202928925, -50576.16389705705, -96822.4596169543, -187500.02235174447, -187500.02235174447, -42799.38850395543, -42044.01130008833, -76702.35803155399, -45376.52228790788, -83864.03576899001, -29104.765248866708, 0.0, 0.0, 0.0, 193.0, 0.0, 1.0, 1.0, 0.0, 0.0, 1.0, 1.0, 256.0, 1.0, 1.750524991938084E9, 0.0, 2025-06-21 18:56:31.938
92.0, -42227.04973543283, -41062.07681442223, -27276.839587311697, -66710.05537629788, -28878.833815912465, -27489.605842781766, -50590.2901995528, -96828.47223621276, -187500.02235174447, -187500.02235174447, -42792.72768410775, -42042.17845704299, -76690.62336571496, -45381.08204377676, -83845.68498679221, -29102.977109310283, 0.0, 0.0, 0.0, 193.0, 0.0, 1.0, 1.0, 0.0, 0.0, 1.0, 1.0, 256.0, 1.0, 1.750524991945092E9, 0.0, 2025-06-21 18:56:31.945
94.0, -42238.85145650524, -41075.26434365086, -27285.042677526795, -66705.16034426217, -28886.209891582715, -27524.87689553224, -50583.85289714967, -96828.71810540177, -187500.02235174447, -187500.02235174447, -42811.57020468357, -42058.428175262, -76706.42604904487, -45393.35315148272, -83856.97261774214, -29115.29292050516, 0.0, 0.0, 0.0, 193.0, 0.0, 1.0, 1.0, 0.0, 0.0, 1.0, 1.0, 256.0, 1.0, 1.750524991952118E9, 0.0, 2025-06-21 18:56:31.952
96.0, -42269.98743653148, -41110.11071325668, -27288.663660128554, -66709.87656234224, -28892.736600963664, -27527.804974055885, -50582.95882737146, -96827.57816643456, -187500.02235174447, -187500.02235174447, -42803.814149357575, -42041.55260819824, -76704.90613042189, -45368.0062732704, -83866.76268181356, -29094.103466761528, 0.0, 0.0, 0.0, 193.0, 0.0, 1.0, 1.0, 0.0, 0.0, 1.0, 1.0, 256.0, 1.0, 1.750524991961152E9, 0.0, 2025-06-21 18:56:31.961
98.0, -42315.96497487605, -41140.330271760264, -27299.705421889477, -66723.22055378206, -28895.105885875928, -27517.00908148397, -50591.00545537537, -96829.96980309127, -187500.02235174447, -187500.02235174447, -42832.08910609354, -42067.681797466495, -76719.52417129566, -45403.90317486563, -83859.11838520985, -29123.76423165372, 0.0, 0.0, 0.0, 193.0, 0.0, 1.0, 1.0, 0.0, 0.0, 1.0, 1.0, 256.0, 1.0, 1.750524991969175E9, 0.0, 2025-06-21 18:56:31.969
100.0, -42372.44783311461, -41198.60126955525, -27302.655852157575, -66715.37509147824, -28908.58398778248, -27550.559049911386, -50581.61772270414, -96826.14765478941, -187500.02235174447, -187500.02235174447, -42830.390373514936, -42064.30668405374, -76731.88468597946, -45383.205459500015, -83882.85593782138, -29111.80604837013, 0.0, 0.0, 0.0, 193.0, 0.0, 1.0, 1.0, 0.0, 0.0, 1.0, 1.0, 256.0, 1.0, 1.75052499197621E9, 0.0, 2025-06-21 18:56:31.976
102.0, -42472.69540699666, -41294.73612245752, -27331.824878671752, -66755.42941754215, -28922.553828067044, -27526.620331599755, -50623.70605751349, -96854.82494292557, -187500.02235174447, -187500.02235174447, -42861.74987098573, -42084.445605807974, -76750.54839259964, -45404.39491324365, -83878.94438254171, -29127.876952633498, 0.0, 0.0, 0.0, 193.0, 0.0, 1.0, 1.0, 0.0, 0.0, 1.0, 1.0, 256.0, 1.0, 1.750524991984182E9, 0.0, 2025-06-21 18:56:31.984
104.0, -42543.57278866444, -41365.52409714748, -27332.517782749866, -66744.32060054787, -28929.9299037373, -27545.015817286472, -50598.67210372354, -96841.2574340412, -187500.02235174447, -187500.02235174447, -42895.00926673523, -42114.82162652274, -76779.58330864708, -45430.70291646754, -83896.6022606614, -29153.357941312548, 0.0, 0.0, 0.0, 193.0, 0.0, 1.0, 1.0, 0.0, 0.0, 1.0, 1.0, 256.0, 1.0, 1.750524991993273E9, 0.0, 2025-06-21 18:56:31.993
106.0, -42599.67566724726, -41423.81744668692, -27344.14068986663, -66759.6538972442, -28939.183525941793, -27535.35986368178, -50605.37762706014, -96850.82398066808, -187500.02235174447, -187500.02235174447, -42894.29401091266, -42107.55730957476, -76785.9759075613, -45405.89248012215, -83908.71690615617, -29130.827382901596, 0.0, 0.0, 0.0, 193.0, 0.0, 1.0, 1.0, 0.0, 0.0, 1.0, 1.0, 256.0, 1.0, 1.750524992001294E9, 0.0, 2025-06-21 18:56:32.001
108.0, -42623.72614428117, -41434.367470069825, -27337.54692525231, -66750.9590686511, -28923.090269933975, -27511.510552347965, -50604.662371237566, -96843.13498057544, -187500.02235174447, -187500.02235174447, -42920.51260715874, -42129.23850169641, -76792.4802651978, -45444.292777096365, -83889.51675766907, -29162.6339152615, 0.0, 0.0, 0.0, 193.0, 0.0, 1.0, 1.0, 0.0, 0.0, 1.0, 1.0, 256.0, 1.0, 1.750524992008315E9, 0.0, 2025-06-21 18:56:32.008
110.0, -42642.03222299006, -41451.39949934477, -27347.493451534923, -66747.4498447716, -28939.228229430704, -27552.324837723358, -50601.82369969174, -96845.07958234305, -187500.02235174447, -187500.02235174447, -42907.61565060802, -42106.32796362972, -76791.45208495285, -45407.725323167484, -83905.94528984372, -29131.94497012436, 0.0, 0.0, 0.0, 193.0, 0.0, 1.0, 1.0, 0.0, 0.0, 1.0, 1.0, 256.0, 1.0, 1.750524992018351E9, 0.0, 2025-06-21 18:56:32.018
112.0, -42662.43936567776, -41457.12154592533, -27369.934602968053, -66781.73742076605, -28955.366188927437, -27516.53969485041, -50635.39601986361, -96864.34678606353, -187500.02235174447, -187500.02235174447, -42936.96349107784, -42131.987766264414, -76811.21102705134, -45439.48715203848, -83911.71203991318, -29159.6834849934, 0.0, 0.0, 0.0, 193.0, 0.0, 1.0, 1.0, 0.0, 0.0, 1.0, 1.0, 256.0, 1.0, 1.750524992025411E9, 0.0, 2025-06-21 18:56:32.025
114.0, -42613.600804042915, -41388.52404219199, -27352.388483570634, -66747.8521761718, -28951.34287492548, -27535.985712526526, -50598.76151070136, -96841.12332357447, -187500.02235174447, -187500.02235174447, -42946.97707259382, -42137.41924016705, -76816.75425967625, -45450.37245158821, -83919.98218536164, -29169.942935698386, 0.0, 0.0, 0.0, 193.0, 0.0, 1.0, 1.0, 0.0, 0.0, 1.0, 1.0, 256.0, 1.0, 1.750524992032415E9, 0.0, 2025-06-21 18:56:32.032
116.0, -42598.75924572459, -41385.350094479334, -27361.41858833058, -66759.11745537729, -28966.519709410633, -27530.464831646066, -50619.57098478925, -96854.64612896994, -187500.02235174447, -187500.02235174447, -42913.44945591086, -42100.42710309352, -76795.11777104351, -45408.73115166798, -83919.51279872809, -29132.459060246834, 0.0, 0.0, 0.0, 193.0, 0.0, 1.0, 1.0, 0.0, 0.0, 1.0, 1.0, 256.0, 1.0, 1.75052499204045E9, 0.0, 2025-06-21 18:56:32.040
118.0, -42570.37253026635, -41347.7097568166, -27365.710123266, -66767.74522873703, -28973.180529258316, -27511.912883748162, -50636.960641975485, -96874.71799549079, -187500.02235174447, -187500.02235174447, -42947.424107482926, -42130.55725461927, -76806.60656769354, -45464.83403025079, -83915.02009809257, -29180.135331170004, 0.0, 0.0, 0.0, 193.0, 0.0, 1.0, 1.0, 0.0, 0.0, 1.0, 1.0, 256.0, 1.0, 1.750524992048487E9, 0.0, 2025-06-21 18:56:32.048
120.0, -42512.90619527176, -41285.1472240862, -27344.677131733555, -66741.28076330194, -28966.25148847717, -27542.82534632985, -50620.48740631192, -96862.49159127375, -187500.02235174447, -187500.02235174447, -42910.364915176026, -42095.912050713545, -76788.7251721293, -45428.31127981082, -83929.6604907108, -29151.078063378107, 0.0, 0.0, 0.0, 193.0, 0.0, 1.0, 1.0, 0.0, 0.0, 1.0, 1.0, 256.0, 1.0, 1.750524992057527E9, 0.0, 2025-06-21 18:56:32.057
122.0, -42497.17056717522, -41261.5884854303, -27353.327256837758, -66761.08440888935, -28966.564412899545, -27493.58445329481, -50649.812895037285, -96879.47891705978, -187500.02235174447, -187500.02235174447, -42907.436836652385, -42096.31438211374, -76774.50946265573, -45436.76023921493, -83911.73439165765, -29154.520232024224, 0.0, 0.0, 0.0, 193.0, 0.0, 1.0, 1.0, 0.0, 0.0, 1.0, 1.0, 256.0, 1.0, 1.750524992064503E9, 0.0, 2025-06-21 18:56:32.064
124.0, -42437.78198215747, -41207.720781293014, -27327.712157691978, -66722.61705668176, -28959.367151184935, -27509.454191858076, -50619.79450223381, -96855.33903304805, -187500.02235174447, -187500.02235174447, -42906.34160117407, -42096.828472236215, -76767.75923583022, -45440.26946309441, -83900.42440896326, -29158.878822193008, 0.0, 0.0, 0.0, 193.0, 0.0, 1.0, 1.0, 0.0, 0.0, 1.0, 1.0, 256.0, 1.0, 1.750524992072578E9, 0.0, 2025-06-21 18:56:32.072
126.0, -42420.28056624896, -41190.666400273614, -27338.195125841514, -66731.96008586408, -28968.263145478148, -27510.169447680648, -50608.05983639477, -96849.5052277452, -187500.02235174447, -187500.02235174447, -42865.281446609675, -42059.2775415513, -76745.09456695254, -45394.82836661677, -83907.84518812242, -29116.254045516736, 0.0, 0.0, 0.0, 193.0, 0.0, 1.0, 1.0, 0.0, 0.0, 1.0, 1.0, 256.0, 1.0, 1.750524992080609E9, 0.0, 2025-06-21 18:56:32.080
128.0, -42413.32917372337, -41180.809280968824, -27347.85107944621, -66753.68598147464, -28957.958991284253, -27506.48140984552, -50663.3580521772, -96879.70243450433, -187500.02235174447, -187500.02235174447, -42906.14043547397, -42100.42710309352, -76764.58528811757, -45453.97108244552, -83900.13383628534, -29168.557127542157, 0.0, 0.0, 0.0, 193.0, 0.0, 1.0, 1.0, 0.0, 0.0, 1.0, 1.0, 256.0, 1.0, 1.750524992088626E9, 0.0, 2025-06-21 18:56:32.088
130.0, -42343.5917310228, -41123.49940818542, -27303.3934597246, -66701.87463782723, -28939.451746875257, -27526.35211066629, -50608.32805732823, -96841.92798637487, -187500.02235174447, -187500.02235174447, -42868.47774606678, -42069.358178300645, -76750.10135771053, -45405.356038255224, -83905.4088479768, -29130.46975499031, 0.0, 0.0, 0.0, 193.0, 0.0, 1.0, 1.0, 0.0, 0.0, 1.0, 1.0, 256.0, 1.0, 1.750524992096606E9, 0.0, 2025-06-21 18:56:32.096
132.0, -42356.35457710679, -41130.00376582191, -27318.749108165397, -66733.5023562315, -28939.429395130803, -27489.784656737407, -50623.57194704675, -96850.33224229005, -187500.02235174447, -187500.02235174447, -42843.19792308783, -42051.588541458674, -76718.8089154731, -45392.25791600441, -83866.62857134684, -29115.069403060606, 0.0, 0.0, 0.0, 193.0, 0.0, 1.0, 1.0, 0.0, 0.0, 1.0, 1.0, 256.0, 1.0, 1.750524992104766E9, 0.0, 2025-06-21 18:56:32.104
134.0, -42334.49457102949, -41115.87746332616, -27324.337044279226, -66724.27108577146, -28946.716063823234, -27520.764174552463, -50608.66333349507, -96856.32250980407, -187500.02235174447, -187500.02235174447, -42879.54185957216, -42083.99857091887, -76747.03916872015, -45432.826332190794, -83890.83551059193, -29151.636856989488, 0.0, 0.0, 0.0, 193.0, 0.0, 1.0, 1.0, 0.0, 0.0, 1.0, 1.0, 256.0, 1.0, 1.750524992113772E9, 0.0, 2025-06-21 18:56:32.113
136.0, -42318.870701655236, -41109.484864411934, -27318.01150059837, -66727.10975731727, -28935.942522995774, -27522.328796664337, -50611.12202538515, -96854.46731501429, -187500.02235174447, -187500.02235174447, -42844.42726903287, -42053.73430892638, -76732.73405226876, -45395.767139883894, -83904.78299913205, -29118.869199618006, 0.0, 0.0, 0.0, 193.0, 0.0, 1.0, 1.0, 0.0, 0.0, 1.0, 1.0, 256.0, 1.0, 1.750524992120795E9, 0.0, 2025-06-21 18:56:32.120
138.0, -42318.736591188506, -41108.434332422534, -27333.054224616793, -66747.0028098825, -28948.750072568666, -27502.368688865747, -50626.43297033703, -96871.56639952259, -187500.02235174447, -187500.02235174447, -42872.99279844675, -42090.01119017735, -76739.95366572782, -45449.836009721286, -83888.66739137977, -29162.6339152615, 0.0, 0.0, 0.0, 193.0, 0.0, 1.0, 1.0, 0.0, 0.0, 1.0, 1.0, 256.0, 1.0, 1.750524992128789E9, 0.0, 2025-06-21 18:56:32.128
140.0, -42270.85915456524, -41060.40043358808, -27304.801619625287, -66705.42856519563, -28925.325444379505, -27531.627122357742, -50611.94903993, -96850.48870450124, -187500.02235174447, -187500.02235174447, -42839.10755385251, -42057.332939783686, -76730.49887782322, -45407.099474322735, -83904.0006880761, -29129.396871256457, 0.0, 0.0, 0.0, 193.0, 0.0, 1.0, 1.0, 0.0, 0.0, 1.0, 1.0, 256.0, 1.0, 1.750524992136832E9, 0.0, 2025-06-21 18:56:32.136
142.0, -42297.01069557795, -41083.780358288335, -27322.414794256067, -66734.08350158733, -28935.87546776241, -27485.046086912884, -50651.422220638065, -96863.94445466333, -187500.02235174447, -187500.02235174447, -42839.979271886266, -42053.44373624847, -76721.7593457412, -45419.95172738454, -83895.28350773854, -29135.90122889295, 0.0, 0.0, 0.0, 193.0, 0.0, 1.0, 1.0, 0.0, 0.0, 1.0, 1.0, 256.0, 1.0, 1.750524992144856E9, 0.0, 2025-06-21 18:56:32.144
144.0, -42278.257581979946, -41064.22258188994, -27320.246675043905, -66719.01842582446, -28938.423566630314, -27510.63883431421, -50629.182234905034, -96854.22144582529, -187500.02235174447, -187500.02235174447, -42855.93841742735, -42065.312512554236, -76730.11889816748, -45436.8719979372, -83890.5002344251, -29153.983790157294, 0.0, 0.0, 0.0, 193.0, 0.0, 1.0, 1.0, 0.0, 0.0, 1.0, 1.0, 256.0, 1.0, 1.750524992152882E9, 0.0, 2025-06-21 18:56:32.152
146.0, -42268.06518650832, -41060.489840565904, -27311.50714296188, -66713.497544944, -28935.4284328733, -27508.91774999115, -50580.455431992465, -96835.93771886083, -187500.02235174447, -187500.02235174447, -42837.47587650727, -42040.59148318666, -76727.28022662166, -45401.019799830894, -83919.22222605017, -29123.361900253523, 0.0, 0.0, 0.0, 193.0, 0.0, 1.0, 1.0, 0.0, 0.0, 1.0, 1.0, 256.0, 1.0, 1.750524992160915E9, 0.0, 2025-06-21 18:56:32.160
148.0, -42270.970913287514, -41061.02628243283, -27306.857980115175, -66724.6510654272, -28917.614092542422, -27476.77594146442, -50610.183252118026, -96851.62864346846, -187500.02235174447, -187500.02235174447, -42846.48362952276, -42057.98114037289, -76713.98093867075, -45426.76900944341, -83859.0960334654, -29147.479432520802, 0.0, 0.0, 0.0, 193.0, 0.0, 1.0, 1.0, 0.0, 0.0, 1.0, 1.0, 256.0, 1.0, 1.750524992168984E9, 0.0, 2025-06-21 18:56:32.168
150.0, -42248.93209325458, -41046.430593303514, -27299.21368351146, -66700.57823664883, -28936.34485439597, -27527.26853218896, -50595.565211244255, -96837.61409969498, -187500.02235174447, -187500.02235174447, -42829.339841525536, -42047.676986178994, -76721.80404923011, -45400.79628238634, -83898.65862115129, -29125.507667721235, 0.0, 0.0, 0.0, 193.0, 0.0, 1.0, 1.0, 0.0, 0.0, 1.0, 1.0, 256.0, 1.0, 1.75052499217601E9, 0.0, 2025-06-21 18:56:32.176
152.0, -42278.79402384687, -41071.01751220435, -27312.222398784448, -66726.64037068372, -28943.87739227741, -27488.01886892544, -50645.94604324651, -96872.70633848982, -187500.02235174447, -187500.02235174447, -42824.19894030082, -42039.94328259746, -76704.68261297734, -45402.83029113177, -83875.79278657351, -29121.86433337502, 0.0, 0.0, 0.0, 193.0, 0.0, 1.0, 1.0, 0.0, 0.0, 1.0, 1.0, 256.0, 1.0, 1.750524992186043E9, 0.0, 2025-06-21 18:56:32.186
154.0, -42242.40538387363, -41035.50059026487, -27295.279776487325, -66695.72790810202, -28925.481906590692, -27507.084906945816, -50610.54088002931, -96852.23214056875, -187500.02235174447, -187500.02235174447, -42848.987024901755, -42061.311550296734, -76722.7651742417, -45428.24422457746, -83887.92978381274, -29146.495955764767, 0.0, 0.0, 0.0, 193.0, 0.0, 1.0, 1.0, 0.0, 0.0, 1.0, 1.0, 256.0, 1.0, 1.750524992194062E9, 0.0, 2025-06-21 18:56:32.194
156.0, -42251.03315723338, -41049.60454101617, -27293.893968331096, -66702.03110003842, -28923.894932734365, -27505.654395300677, -50621.426179579044, -96850.22048356778, -187500.02235174447, -187500.02235174447, -42802.54009992362, -42015.15519799652, -76697.66416521838, -45366.93338953655, -83890.81315884748, -29090.817760326598, 0.0, 0.0, 0.0, 193.0, 0.0, 1.0, 1.0, 0.0, 0.0, 1.0, 1.0, 256.0, 1.0, 1.75052499220208E9, 0.0, 2025-06-21 18:56:32.202
158.0, -42273.96604704452, -41066.74832901339, -27307.72969814893, -66722.39353923721, -28929.505220592648, -27483.950851434573, -50636.245386152914, -96860.45758252831, -187500.02235174447, -187500.02235174447, -42850.0152051467, -42065.55838174324, -76722.07227016357, -45423.23743381947, -83863.72284456764, -29144.43959527488, 0.0, 0.0, 0.0, 193.0, 0.0, 1.0, 1.0, 0.0, 0.0, 1.0, 1.0, 256.0, 1.0, 1.750524992209087E9, 0.0, 2025-06-21 18:56:32.209
160.0, -42234.35875586972, -41032.952491396965, -27287.501369416877, -66685.26729169695, -28917.927016964797, -27526.374462410746, -50586.78097567332, -96831.66853566987, -187500.02235174447, -187500.02235174447, -42819.214501287286, -42031.42726795999, -76711.47754329175, -45381.238505987945, -83891.41665594777, -29107.42510645689, 0.0, 0.0, 0.0, 193.0, 0.0, 1.0, 1.0, 0.0, 0.0, 1.0, 1.0, 256.0, 1.0, 1.750524992217132E9, 0.0, 2025-06-21 18:56:32.217
162.0, -42281.520936670415, -41070.70458778198, -27319.129087821137, -66733.77057716496, -28927.650025802857, -27489.896415459683, -50647.62242408066, -96865.77729770867, -187500.02235174447, -187500.02235174447, -42830.032745603654, -42046.84997163415, -76713.84682820403, -45403.478491720976, -83885.02405703354, -29125.887647376974, 0.0, 0.0, 0.0, 193.0, 0.0, 1.0, 1.0, 0.0, 0.0, 1.0, 1.0, 256.0, 1.0, 1.75052499222523E9, 0.0, 2025-06-21 18:56:32.225
164.0, -42242.248921662445, -41039.725069966924, -27297.64906139959, -66702.99222505001, -28914.551903552045, -27510.34826163629, -50609.95973467347, -96841.07862008557, -187500.02235174447, -187500.02235174447, -42852.38449005896, -42068.799384689264, -76727.97313069977, -45428.37833504419, -83884.37585644434, -29151.368636056024, 0.0, 0.0, 0.0, 193.0, 0.0, 1.0, 1.0, 0.0, 0.0, 1.0, 1.0, 256.0, 1.0, 1.750524992232215E9, 0.0, 2025-06-21 18:56:32.232
166.0, -42241.466610606505, -41036.77463969882, -27284.997974037884, -66695.03500402391, -28909.209836627226, -27499.798238253385, -50616.10646439868, -96841.16802706338, -187500.02235174447, -187500.02235174447, -42794.47112017526, -42012.04830551724, -76688.18702556932, -45365.6593401026, -83881.82775757644, -29090.571891137588, 0.0, 0.0, 0.0, 193.0, 0.0, 1.0, 1.0, 0.0, 0.0, 1.0, 1.0, 256.0, 1.0, 1.750524992240227E9, 0.0, 2025-06-21 18:56:32.240
168.0, -42265.15945972913, -41059.95339869898, -27309.78605863882, -66724.91928636066, -28930.846325259965, -27462.269659312926, -50655.71375557349, -96870.94055067784, -187500.02235174447, -187500.02235174447, -42845.8130771891, -42062.585599730686, -76713.31038633709, -45432.51340776842, -83865.1980597017, -29151.2792290782, 0.0, 0.0, 0.0, 193.0, 0.0, 1.0, 1.0, 0.0, 0.0, 1.0, 1.0, 256.0, 1.0, 1.75052499224926E9, 0.0, 2025-06-21 18:56:32.249
170.0, -42235.83397100377, -41033.13130535261, -27295.302128231782, -66692.73277434502, -28934.601418328457, -27529.906038034685, -50607.12106312765, -96842.37502126397, -187500.02235174447, -187500.02235174447, -42822.61196644449, -42034.422401717, -76709.59999675752, -45393.37550322718, -83896.35639147239, -29116.969301339308, 0.0, 0.0, 0.0, 193.0, 0.0, 1.0, 1.0, 0.0, 0.0, 1.0, 1.0, 256.0, 1.0, 1.750524992256316E9, 0.0, 2025-06-21 18:56:32.256
172.0, -42266.500564396454, -41059.05932892076, -27307.12620104864, -66721.63357992574, -28933.305017150047, -27483.92849969012, -50634.18902566302, -96848.11941958898, -187500.02235174447, -187500.02235174447, -42826.32235602407, -42036.79168662926, -76704.10146762151, -45401.55624169782, -83882.56536514347, -29121.506705463733, 0.0, 0.0, 0.0, 193.0, 0.0, 1.0, 1.0, 0.0, 0.0, 1.0, 1.0, 256.0, 1.0, 1.750524992264355E9, 0.0, 2025-06-21 18:56:32.264
174.0, -42258.878619537194, -41053.31493059575, -27312.93765460702, -66714.1904490221, -28939.675264319812, -27525.726261821543, -50624.75658950288, -96849.92991088986, -187500.02235174447, -187500.02235174447, -42851.40101330293, -42064.57490498721, -76724.37449984247, -45431.1723031011, -83890.58964140293, -29152.799147701164, 0.0, 0.0, 0.0, 193.0, 0.0, 1.0, 1.0, 0.0, 0.0, 1.0, 1.0, 256.0, 1.0, 1.75052499227228E9, 0.0, 2025-06-21 18:56:32.272
176.0, -42256.66579683612, -41053.13611664011, -27301.672375401544, -66706.56850416286, -28932.500354349657, -27501.675784787632, -50630.14335991661, -96850.33224229005, -187500.02235174447, -187500.02235174447, -42812.44192271733, -42022.26305273331, -76703.87795017696, -45383.69719787803, -83907.19698753321, -29107.358051223524, 0.0, 0.0, 0.0, 193.0, 0.0, 1.0, 1.0, 0.0, 0.0, 1.0, 1.0, 256.0, 1.0, 1.750524992281327E9, 0.0, 2025-06-21 18:56:32.281
178.0, -42271.44029992107, -41067.351826113685, -27313.83172438523, -66727.57914395085, -28932.58976132748, -27483.72733399002, -50652.048069482815, -96863.45271628532, -187500.02235174447, -187500.02235174447, -42853.99381565974, -42064.55255324275, -76722.11697365249, -45437.63195724868, -83874.38462667282, -29157.314200081135, 0.0, 0.0, 0.0, 193.0, 0.0, 1.0, 1.0, 0.0, 0.0, 1.0, 1.0, 256.0, 1.0, 1.750524992288398E9, 0.0, 2025-06-21 18:56:32.288
180.0, -42229.88840697866, -41035.09825886467, -27281.578157136224, -66683.36739341824, -28904.33715633597, -27521.010043741473, -50590.91604839755, -96821.99023032072, -187500.02235174447, -187500.02235174447, -42811.88312910595, -42026.576939413186, -76698.62529022996, -45382.3113897218, -83884.77818784454, -29109.39205996896, 0.0, 0.0, 0.0, 193.0, 0.0, 1.0, 1.0, 0.0, 0.0, 1.0, 1.0, 256.0, 1.0, 1.750524992296393E9, 0.0, 2025-06-21 18:56:32.296
182.0, -42284.20314600506, -41080.71816929796, -27318.816163398766, -66740.18552782363, -28935.406081128847, -27481.24629035548, -50647.376554891656, -96865.28555933066, -187500.02235174447, -187500.02235174447, -42824.33305076755, -42044.03365183278, -76704.68261297734, -45402.02562833138, -83880.33019069793, -29124.613597943022, 0.0, 0.0, 0.0, 193.0, 0.0, 1.0, 1.0, 0.0, 0.0, 1.0, 1.0, 256.0, 1.0, 1.750524992305414E9, 0.0, 2025-06-21 18:56:32.305
184.0, -42256.911666025124, -41051.28092185032, -27304.913378347563, -66709.42952745313, -28915.78124949709, -27511.801125025886, -50621.917917957064, -96847.27005329968, -187500.02235174447, -187500.02235174447, -42851.088088880555, -42068.5311637558, -76723.74865099772, -45428.423038533096, -83881.09015000942, -29152.016836645227, 0.0, 0.0, 0.0, 193.0, 0.0, 1.0, 1.0, 0.0, 0.0, 1.0, 1.0, 256.0, 1.0, 1.750524992312426E9, 0.0, 2025-06-21 18:56:32.312
186.0, -42273.0272737774, -41068.42470984754, -27317.296244775804, -66721.23124852554, -28935.383729384394, -27506.950796479083, -50634.83722625223, -96853.39443128044, -187500.02235174447, -187500.02235174447, -42815.66057391889, -42029.16974177, -76707.78950545663, -45386.24529674593, -83901.72081014166, -29112.767173381708, 0.0, 0.0, 0.0, 193.0, 0.0, 1.0, 1.0, 0.0, 0.0, 1.0, 1.0, 256.0, 1.0, 1.750524992320474E9, 0.0, 2025-06-21 18:56:32.320
188.0, -42285.63365765019, -41066.36834935765, -27324.113526834673, -66732.72004517556, -28933.662645061333, -27476.977107164515, -50649.92465375956, -96856.367213293, -187500.02235174447, -187500.02235174447, -42867.00253093273, -42073.87323068061, -76736.04211044814, -45446.43854456408, -83889.0473710355, -29165.472586807322, 0.0, 0.0, 0.0, 193.0, 0.0, 1.0, 1.0, 0.0, 0.0, 1.0, 1.0, 256.0, 1.0, 1.750524992328468E9, 0.0, 2025-06-21 18:56:32.328
190.0, -42258.319825925806, -41046.095317136685, -27307.416773726556, -66702.03110003842, -28931.449822360257, -27536.16452648217, -50621.40382783459, -96841.79387590813, -187500.02235174447, -187500.02235174447, -42835.33010903956, -42041.93258785398, -76722.38519458595, -45399.94691609704, -83904.49242645412, -29125.082984576584, 0.0, 0.0, 0.0, 193.0, 0.0, 1.0, 1.0, 0.0, 0.0, 1.0, 1.0, 256.0, 1.0, 1.750524992337469E9, 0.0, 2025-06-21 18:56:32.337
192.0, -42290.9310210861, -41084.71913155546, -27322.16892506706, -66733.81528065387, -28941.329293409504, -27493.249177127982, -50640.98395597744, -96855.87547491497, -187500.02235174447, -187500.02235174447, -42839.80045793062, -42050.00156760235, -76721.28995910764, -45412.95563137002, -83891.21549024768, -29134.470717247812, 0.0, 0.0, 0.0, 193.0, 0.0, 1.0, 1.0, 0.0, 0.0, 1.0, 1.0, 256.0, 1.0, 1.750524992344544E9, 0.0, 2025-06-21 18:56:32.344
194.0, -42261.71729108302, -41058.545238798295, -27306.768573137353, -66704.64625413969, -28925.303092635048, -27517.00908148397, -50614.94417368701, -96836.51886421668, -187500.02235174447, -187500.02235174447, -42849.23289409076, -42057.5788089727, -76722.29578760812, -45423.684468708576, -83879.63728661982, -29144.797223186164, 0.0, 0.0, 0.0, 193.0, 0.0, 1.0, 1.0, 0.0, 0.0, 1.0, 1.0, 256.0, 1.0, 1.750524992352556E9, 0.0, 2025-06-21 18:56:32.352
196.0, -42272.06614876582, -41073.72207328345, -27310.993052839407, -66717.67732115714, -28934.15438343935, -27510.415316869658, -50631.05978143928, -96852.14273359094, -187500.02235174447, -187500.02235174447, -42825.51769322368, -42033.05894530522, -76713.08686889254, -45388.145195024634, -83904.29126075402, -29111.4707722033, 0.0, 0.0, 0.0, 193.0, 0.0, 1.0, 1.0, 0.0, 0.0, 1.0, 1.0, 256.0, 1.0, 1.750524992362604E9, 0.0, 2025-06-21 18:56:32.362
198.0, -42282.23619249299, -41073.99029421691, -27317.340948264715, -66732.98826610902, -28932.701520049755, -27479.39109556569, -50641.632156566644, -96865.88905643095, -187500.02235174447, -187500.02235174447, -42860.587580274056, -42077.36010281564, -76732.68934877985, -45440.314166583325, -83875.25634470658, -29159.77289197122, 0.0, 0.0, 0.0, 193.0, 0.0, 1.0, 1.0, 0.0, 0.0, 1.0, 1.0, 256.0, 1.0, 1.750524992369616E9, 0.0, 2025-06-21 18:56:32.369
200.0, -42237.286834393366, -41035.187665842495, -27290.720020618443, -66690.31878594385, -28919.44693558776, -27524.251046687492, -50605.57879276023, -96836.00477409421, -187500.02235174447, -187500.02235174447, -42821.583786199546, -42037.350480240646, -76710.67288049137, -45391.252087503926, -83889.56146115798, -29115.561141438622, 0.0, 0.0, 0.0, 193.0, 0.0, 1.0, 1.0, 0.0, 0.0, 1.0, 1.0, 256.0, 1.0, 1.750524992376645E9, 0.0, 2025-06-21 18:56:32.376
202.0, -42278.9281343136, -41065.742500512904, -27315.195180797004, -66728.0485305844, -28930.689863048778, -27482.900319445172, -50637.519435586866, -96858.0659458716, -187500.02235174447, -187500.02235174447, -42824.7577339122, -42039.786820386274, -76705.62138624447, -45399.32106725229, -83877.02213251856, -29121.28318801918, 0.0, 0.0, 0.0, 193.0, 0.0, 1.0, 1.0, 0.0, 0.0, 1.0, 1.0, 256.0, 1.0, 1.750524992384668E9, 0.0, 2025-06-21 18:56:32.384
204.0, -42252.12839271169, -41038.07104087723, -27297.582006166223, -66704.17686750613, -28918.463458831724, -27517.903151262184, -50622.43200807954, -96843.62671895347, -187500.02235174447, -187500.02235174447, -42844.7625451997, -42060.126907840604, -76722.74282249724, -45417.40362851663, -83877.29035345202, -29140.57274348411, 0.0, 0.0, 0.0, 193.0, 0.0, 1.0, 1.0, 0.0, 0.0, 1.0, 1.0, 256.0, 1.0, 1.750524992392665E9, 0.0, 2025-06-21 18:56:32.392
206.0, -42257.35870091423, -41047.19055261499, -27298.587834666712, -66711.26237049847, -28913.34490935146, -27513.365747137756, -50622.92374645755, -96844.29727128713, -187500.02235174447, -187500.02235174447, -42810.117341293975, -42030.26497724831, -76706.64956648942, -45371.00140702741, -83885.85107157839, -29100.294899975648, 0.0, 0.0, 0.0, 193.0, 0.0, 1.0, 1.0, 0.0, 0.0, 1.0, 1.0, 256.0, 1.0, 1.750524992399715E9, 0.0, 2025-06-21 18:56:32.399
208.0, -42283.979628560504, -41077.834794263224, -27321.4983727334, -66738.71031268958, -28933.707348550244, -27483.034429911906, -50655.66905208457, -96872.92985593437, -187500.02235174447, -187500.02235174447, -42847.60121674553, -42067.391224788575, -76721.3123108521, -45429.11594261121, -83868.66258009226, -29151.838022689586, 0.0, 0.0, 0.0, 193.0, 0.0, 1.0, 1.0, 0.0, 0.0, 1.0, 1.0, 256.0, 1.0, 1.750524992408717E9, 0.0, 2025-06-21 18:56:32.408
210.0, -42242.584197829274, -41048.17402937103, -27300.823009112242, -66702.5451901609, -28928.05235720305, -27534.175221225647, -50609.71386548446, -96842.44207649733, -187500.02235174447, -187500.02235174447, -42831.798533415626, -42051.34267226967, -76721.40171782991, -45404.55137545483, -83902.79369387552, -29131.453231746345, 0.0, 0.0, 0.0, 193.0, 0.0, 1.0, 1.0, 0.0, 0.0, 1.0, 1.0, 256.0, 1.0, 1.750524992416767E9, 0.0, 2025-06-21 18:56:32.416
212.0, -42270.210953976035, -41065.65309353508, -27313.183523796026, -66730.12724281875, -28935.339025895482, -27490.902243960172, -50636.200682664, -96859.5188092612, -187500.02235174447, -187500.02235174447, -42824.377754256464, -42046.067660578214, -76707.32011882307, -45407.524157467386, -83886.16399600077, -29130.112127079028, 0.0, 0.0, 0.0, 193.0, 0.0, 1.0, 1.0, 0.0, 0.0, 1.0, 1.0, 256.0, 1.0, 1.75052499242582E9, 0.0, 2025-06-21 18:56:32.425
214.0, -42231.22951164598, -41027.632776216604, -27283.768628092843, -66690.45289641057, -28904.135990635874, -27517.03143322843, -50601.86840318065, -96834.12722755996, -187500.02235174447, -187500.02235174447, -42838.05702186311, -42057.60116071715, -76714.07034564858, -45418.67767795059, -83870.92010628225, -29143.09849060756, 0.0, 0.0, 0.0, 193.0, 0.0, 1.0, 1.0, 0.0, 0.0, 1.0, 1.0, 256.0, 1.0, 1.750524992432744E9, 0.0, 2025-06-21 18:56:32.432
216.0, -42235.23047390347, -41038.965110655445, -27283.321593203735, -66691.70459410007, -28893.563615508512, -27504.514456333454, -50599.36500780166, -96825.6559164114, -187500.02235174447, -187500.02235174447, -42789.196108483804, -42007.555604881716, -76683.71667667826, -45358.88676153264, -83872.5517836275, -29086.347411435538, 0.0, 0.0, 0.0, 193.0, 0.0, 1.0, 1.0, 0.0, 0.0, 1.0, 1.0, 256.0, 1.0, 1.750524992441827E9, 0.0, 2025-06-21 18:56:32.441
218.0, -42248.30624440983, -41044.910674680556, -27289.62478514013, -66704.24392273951, -28901.431429556782, -27473.937269918595, -50620.35329584519, -96836.02712583866, -187500.02235174447, -187500.02235174447, -42829.272786292175, -42048.3251867682, -76702.82741818756, -45408.150006312135, -83848.68012054922, -29130.983845112783, 0.0, 0.0, 0.0, 193.0, 0.0, 1.0, 1.0, 0.0, 0.0, 1.0, 1.0, 256.0, 1.0, 1.750524992450905E9, 0.0, 2025-06-21 18:56:32.450
220.0, -42235.78926751486, -41045.49182003639, -27293.335174719716, -66697.13606800271, -28919.312825121026, -27539.986674784028, -50612.03844690781, -96842.82205615308, -187500.02235174447, -187500.02235174447, -42802.51774817917, -42023.157122511526, -76695.6078047285, -45376.36582569669, -83879.25730696408, -29105.346394222546, 0.0, 0.0, 0.0, 193.0, 0.0, 1.0, 1.0, 0.0, 0.0, 1.0, 1.0, 256.0, 1.0, 1.750524992456866E9, 0.0, 2025-06-21 18:56:32.456
222.0, -42280.09042502528, -41080.069968708754, -27327.175715825048, -66749.5509087504, -28932.902685749854, -27508.895398246696, -50654.12678171716, -96873.9133326904, -187500.02235174447, -187500.02235174447, -42835.978309628765, -42060.23866656288, -76721.78169748565, -45418.767084928404, -83898.77037987356, -29143.836098174586, 0.0, 0.0, 0.0, 193.0, 0.0, 1.0, 1.0, 0.0, 0.0, 1.0, 1.0, 256.0, 1.0, 1.750524992464871E9, 0.0, 2025-06-21 18:56:32.464
224.0, -42244.23822691897, -41049.20220961597, -27302.946424835496, -66715.82212636735, -28917.10000241995, -27527.849677544797, -50613.938345186514, -96846.01835561018, -187500.02235174447, -187500.02235174447, -42845.835428933555, -42075.72842547041, -76725.20151438731, -45435.642651992166, -83888.89090882432, -29160.599906516065, 0.0, 0.0, 0.0, 193.0, 0.0, 1.0, 1.0, 0.0, 0.0, 1.0, 1.0, 256.0, 1.0, 1.75052499247286E9, 0.0, 2025-06-21 18:56:32.472
226.0, -42260.979683515994, -41069.18466915902, -27308.377898738137, -66725.81335613887, -28917.748203009156, -27539.494936406012, -50621.78380749033, -96849.10289634501, -187500.02235174447, -187500.02235174447, -42806.60811741449, -42034.824733117195, -76704.25792983269, -45386.468814190484, -83898.32334498446, -29113.23656001527, 0.0, 0.0, 0.0, 193.0, 0.0, 1.0, 1.0, 0.0, 0.0, 1.0, 1.0, 256.0, 1.0, 1.750524992479929E9, 0.0, 2025-06-21 18:56:32.479
228.0, -42286.50537568395, -41081.120500698155, -27326.70632919149, -66747.94158314963, -28936.367206140425, -27502.189874910102, -50649.052935725806, -96867.99012040976, -187500.02235174447, -187500.02235174447, -42863.38154833097, -42087.37368433162, -76735.37155811448, -45450.19363763257, -83883.10180701039, -29171.038171176693, 0.0, 0.0, 0.0, 193.0, 0.0, 1.0, 1.0, 0.0, 0.0, 1.0, 1.0, 256.0, 1.0, 1.750524992487945E9, 0.0, 2025-06-21 18:56:32.487
230.0, -42238.49382859395, -41045.603578758666, -27301.02417481234, -66704.28862622842, -28924.118450178918, -27539.673750361653, -50595.25228682188, -96832.76377114818, -187500.02235174447, -187500.02235174447, -42833.51961773868, -42053.46608799292, -76722.69811900832, -45408.84291039025, -83906.81700787747, -29135.38713877048, 0.0, 0.0, 0.0, 193.0, 0.0, 1.0, 1.0, 0.0, 0.0, 1.0, 1.0, 256.0, 1.0, 1.750524992496916E9, 0.0, 2025-06-21 18:56:32.496
232.0, -42284.046683793866, -41078.684160552526, -27324.135878579127, -66743.24771681402, -28932.545057838568, -27501.184046409613, -50637.54178733132, -96860.8152104396, -187500.02235174447, -187500.02235174447, -42825.361231012495, -42044.99477684436, -76708.05772639009, -45404.663134177106, -83879.39141743082, -29129.821554401107, 0.0, 0.0, 0.0, 193.0, 0.0, 1.0, 1.0, 0.0, 0.0, 1.0, 1.0, 256.0, 1.0, 1.750524992505029E9, 0.0, 2025-06-21 18:56:32.505
234.0, -42276.782366845895, -41071.50925058237, -27333.814183928276, -66739.71614119007, -28948.504203379656, -27545.753424853498, -50644.53788334583, -96866.1125738755, -187500.02235174447, -187500.02235174447, -42875.85382173703, -42094.70505651296, -76752.78356704516, -45455.066317923825, -83906.7052491552, -29180.850586992576, 0.0, 0.0, 0.0, 193.0, 0.0, 1.0, 1.0, 0.0, 0.0, 1.0, 1.0, 256.0, 1.0, 1.750524992514046E9, 0.0, 2025-06-21 18:56:32.514
236.0, -42280.98449480349, -41071.17397441554, -27340.542059009324, -66748.23215582754, -28950.404101658358, -27548.63679988823, -50657.03250849635, -96872.59457976754, -187500.02235174447, -187500.02235174447, -42839.77810618617, -42059.79163167377, -76736.28797963714, -45413.112093581214, -83927.26885405408, -29141.28799930668, 0.0, 0.0, 0.0, 193.0, 0.0, 1.0, 1.0, 0.0, 0.0, 1.0, 1.0, 256.0, 1.0, 1.750524992522073E9, 0.0, 2025-06-21 18:56:32.522
238.0, -42306.17491080462, -41091.4470066365, -27359.541041796332, -66776.30594686342, -28964.82097683203, -27523.40168039819, -50683.094642531236, -96896.75681552372, -187500.02235174447, -187500.02235174447, -42889.600144577045, -42111.06653345424, -76762.73009332777, -45480.05556822486, -83918.95400511671, -29199.067258723648, 0.0, 0.0, 0.0, 193.0, 0.0, 1.0, 1.0, 0.0, 0.0, 1.0, 1.0, 256.0, 1.0, 1.750524992530049E9, 0.0, 2025-06-21 18:56:32.530
240.0, -42266.16528822962, -41068.98350345892, -27337.92690490805, -66741.28076330194, -28943.944447510774, -27554.805881357897, -50630.2998221278, -96865.93375991986, -187500.02235174447, -187500.02235174447, -42863.33684484206, -42085.67495175302, -76756.44925313584, -45442.45993405103, -83939.53996176005, -29168.668886264433, 0.0, 0.0, 0.0, 193.0, 0.0, 1.0, 1.0, 0.0, 0.0, 1.0, 1.0, 256.0, 1.0, 1.750524992538139E9, 0.0, 2025-06-21 18:56:32.538
242.0, -42305.996096848976, -41092.13991071462, -27353.84134696023, -66772.55085379492, -28947.096043478974, -27511.175276181137, -50641.22982516645, -96873.13102163447, -187500.02235174447, -187500.02235174447, -42868.85772572252, -42088.22305062092, -76751.0624827221, -45445.94680618606, -83918.77519116107, -29168.311258353147, 0.0, 0.0, 0.0, 193.0, 0.0, 1.0, 1.0, 0.0, 0.0, 1.0, 1.0, 256.0, 1.0, 1.750524992544193E9, 0.0, 2025-06-21 18:56:32.544
244.0, -42255.034119490876, -41049.00104391587, -27315.12812556364, -66724.53930670492, -28923.71611877872, -27511.555255836876, -50590.4913652529, -96827.89109085692, -187500.02235174447, -187500.02235174447, -42878.692493282855, -42095.487367568894, -76753.49882286774, -45455.08866966828, -83902.52547294206, -29177.609584046553, 0.0, 0.0, 0.0, 193.0, 0.0, 1.0, 1.0, 0.0, 0.0, 1.0, 1.0, 256.0, 1.0, 1.750524992552168E9, 0.0, 2025-06-21 18:56:32.552
246.0, -42288.27116349592, -41082.97569548794, -27338.17277409706, -66748.03099012744, -28937.28362766309, -27539.494936406012, -50606.87519393864, -96842.17385556387, -187500.02235174447, -187500.02235174447, -42830.256263048206, -42048.61575944612, -76727.16846789938, -45397.19765152904, -83908.806313134, -29124.635949687476, 0.0, 0.0, 0.0, 193.0, 0.0, 1.0, 1.0, 0.0, 0.0, 1.0, 1.0, 256.0, 1.0, 1.75052499256123E9, 0.0, 2025-06-21 18:56:32.561
248.0, -42334.159294862664, -41118.40321044961, -27379.814074017297, -66791.08044994836, -28970.341857712494, -27535.91865729316, -50652.204531694006, -96880.55180079363, -187500.02235174447, -187500.02235174447, -42905.78280756269, -42116.76622829035, -76776.34230570107, -45476.34517864528, -83913.05314458051, -29199.246072679292, 0.0, 0.0, 0.0, 193.0, 0.0, 1.0, 1.0, 0.0, 0.0, 1.0, 1.0, 256.0, 1.0, 1.750524992568254E9, 0.0, 2025-06-21 18:56:32.568
250.0, -42272.26731446592, -41060.623951032634, -27339.245657830914, -66736.51984173297, -28943.87739227741, -27576.64353569073, -50596.86161242266, -96840.81039915209, -187500.02235174447, -187500.02235174447, -42883.587525318566, -42093.94509720148, -76773.68244811088, -45443.71163174053, -83946.40194730782, -29172.49103456629, 0.0, 0.0, 0.0, 193.0, 0.0, 1.0, 1.0, 0.0, 0.0, 1.0, 1.0, 256.0, 1.0, 1.750524992576318E9, 0.0, 2025-06-21 18:56:32.576
252.0, -42309.281803283906, -41092.162262459075, -27364.83840523224, -66781.17862715467, -28972.331162969014, -27524.02752924294, -50645.70017405751, -96875.96969318029, -187500.02235174447, -187500.02235174447, -42866.600199532535, -42084.26679185234, -76752.13536645596, -45443.84574220726, -83922.37382201837, -29169.54060429819, 0.0, 0.0, 0.0, 193.0, 0.0, 1.0, 1.0, 0.0, 0.0, 1.0, 1.0, 256.0, 1.0, 1.750524992586316E9, 0.0, 2025-06-21 18:56:32.586
254.0, -42279.10694826925, -41072.380968616126, -27351.18148937005, -66754.51299601949, -28968.35255245597, -27555.945820325116, -50608.61863000615, -96853.2603208137, -187500.02235174447, -187500.02235174447, -42892.93055450089, -42108.160806675056, -76768.63095386398, -45471.7854227764, -83922.37382201837, -29195.31216565516, 0.0, 0.0, 0.0, 193.0, 0.0, 1.0, 1.0, 0.0, 0.0, 1.0, 1.0, 256.0, 1.0, 1.750524992593332E9, 0.0, 2025-06-21 18:56:32.593
0.0, -42282.39265470418, -41074.88436399512, -27348.27576259086, -66759.63154549975, -28952.326351681513, -27559.387988971233, -50611.21143236297, -96853.23796906925, -187500.02235174447, -187500.02235174447, -42859.402937817926, -42079.41646330553, -76753.364712401, -45425.472608265, -83937.84122918145, -29151.4803947783, 0.0, 0.0, 0.0, 193.0, 0.0, 1.0, 1.0, 0.0, 0.0, 1.0, 1.0, 256.0, 1.0, 1.750524992601334E9, 0.0, 2025-06-21 18:56:32.601
2.0, -42291.02042806392, -41080.8969832536, -27345.772367211863, -66763.54310077943, -28943.139784710384, -27520.227732685536, -50618.989839433416, -96851.91921614639, -187500.02235174447, -187500.02235174447, -42883.36400787401, -42105.29978338478, -76752.38123564496, -45463.67173953912, -83893.33890597093, -29185.544453328188, 0.0, 0.0, 0.0, 193.0, 0.0, 1.0, 1.0, 0.0, 0.0, 1.0, 1.0, 256.0, 1.0, 1.75052499261041E9, 0.0, 2025-06-21 18:56:32.610
4.0, -42281.744454114974, -41076.98542797392, -27356.925887695063, -66750.51203376199, -28962.63050587541, -27581.873843893274, -50597.75568220088, -96843.67142244238, -187500.02235174447, -187500.02235174447, -42868.94713270034, -42083.52918428531, -76756.60571534702, -45436.46966653701, -83935.00255763561, -29161.62808676101, 0.0, 0.0, 0.0, 193.0, 0.0, 1.0, 1.0, 0.0, 0.0, 1.0, 1.0, 256.0, 1.0, 1.750524992618446E9, 0.0, 2025-06-21 18:56:32.618
6.0, -42327.319661059344, -41117.531492415845, -27382.205710674014, -66795.52844709497, -28980.02016306164, -27546.200459742602, -50636.44655185301, -96872.88515244547, -187500.02235174447, -187500.02235174447, -42887.40967362043, -42104.517472328844, -76769.79324457566, -45454.82044873482, -83931.89566515633, -29177.67663927992, 0.0, 0.0, 0.0, 193.0, 0.0, 1.0, 1.0, 0.0, 0.0, 1.0, 1.0, 256.0, 1.0, 1.750524992624506E9, 0.0, 2025-06-21 18:56:32.624
8.0, -42286.147747772666, -41079.22060241945, -27349.236887602437, -66752.3001733184, -28940.479927120203, -27546.58043939834, -50587.58563847371, -96832.58495719254, -187500.02235174447, -187500.02235174447, -42907.280374441194, -42128.76911506285, -76786.0206110502, -45480.74847230297, -83940.0093483936, -29201.704764569375, 0.0, 0.0, 0.0, 193.0, 0.0, 1.0, 1.0, 0.0, 0.0, 1.0, 1.0, 256.0, 1.0, 1.750524992632502E9, 0.0, 2025-06-21 18:56:32.632
10.0, -42317.596652221284, -41105.97564053245, -27366.335972110748, -66773.26610961749, -28965.44682567678, -27560.460872705087, -50630.54569131681, -96859.69762321682, -187500.02235174447, -187500.02235174447, -42849.07643187958, -42067.882963166594, -76747.39679663144, -45403.478491720976, -83915.04244983703, -29132.973150369307, 0.0, 0.0, 0.0, 193.0, 0.0, 1.0, 1.0, 0.0, 0.0, 1.0, 1.0, 256.0, 1.0, 1.750524992640574E9, 0.0, 2025-06-21 18:56:32.640
12.0, -42342.7423647335, -41127.612129165194, -27385.26789966439, -66799.01531923, -28980.40014271738, -27554.850584846805, -50652.45040088301, -96882.02701592768, -187500.02235174447, -187500.02235174447, -42934.124819532015, -42148.975092050445, -76804.99724209277, -45500.73093184602, -83932.58856923445, -29223.140087502015, 0.0, 0.0, 0.0, 193.0, 0.0, 1.0, 1.0, 0.0, 0.0, 1.0, 1.0, 256.0, 1.0, 1.750524992648555E9, 0.0, 2025-06-21 18:56:32.648
14.0, -42276.782366845895, -41075.21964016195, -27342.486660776933, -66743.09125460283, -28946.7831190566, -27574.855396134306, -50585.998664617386, -96836.96589910578, -187500.02235174447, -187500.02235174447, -42880.234763650275, -42097.81194899225, -76772.87778531048, -45446.93028294209, -83941.68572922776, -29172.58044154411, 0.0, 0.0, 0.0, 193.0, 0.0, 1.0, 1.0, 0.0, 0.0, 1.0, 1.0, 256.0, 1.0, 1.750524992656587E9, 0.0, 2025-06-21 18:56:32.656
