%OpenBCI Raw EXG Data
%Number of channels = 16
%Sample Rate = 125 Hz
%Board = OpenBCI_GUI$BoardCytonSerialDaisy
Sample Index, EXG Channel 0, EXG Channel 1, EXG Channel 2, EXG Channel 3, EXG Channel 4, EXG Channel 5, EXG Channel 6, EXG Channel 7, EXG Channel 8, EXG Channel 9, EXG Channel 10, EXG Channel 11, EXG Channel 12, EXG Channel 13, EXG Channel 14, EXG Channel 15, Accel Channel 0, Accel Channel 1, Accel Channel 2, Not Used, Digital Channel 0 (D11), Digital Channel 1 (D12), Digital Channel 2 (D13), Digital Channel 3 (D17), Not Used, Digital Channel 4 (D18), Analog Channel 0, Analog Channel 1, Analog Channel 2, Timestamp, Marker Channel, Timestamp (Formatted)
112.0, -44264.83592567872, -38192.29164031645, -30166.897793638444, -73335.62652297337, -28166.975458499845, -27993.838845949038, -52883.57918066731, -100968.14941980237, -187500.02235174447, -187500.02235174447, -48477.40214793708, -47072.37149147648, -78557.99985623358, -49170.57444698506, -88781.7548253244, -31974.684533439224, 0.0, 0.0, 0.0, 193.0, 0.0, 1.0, 1.0, 0.0, 0.0, 1.0, 1.0, 256.0, 1.0, 1.750528715985662E9, 0.0, 2025-06-21 19:58:35.985
0.0, -22004.01836681585, -18974.440571599076, -15018.181803009726, -36573.153623718455, -13854.281765732976, -14290.990148900766, -26415.1351350707, -50468.3614335491, -93750.01117587223, -93750.01117587223, -24254.23553636498, -23549.7085511337, -39288.46589189362, -24601.11225856689, -44391.883241162686, -16003.491402088572, 0.0, 0.0, 0.0, 193.0, 0.0, 1.0, 1.0, 0.0, 0.0, 1.0, 1.0, 256.0, 1.0, 1.75052871606415E9, 0.0, 2025-06-21 19:58:36.064
2.0, -43988.925992122415, -37934.9560064025, -30007.03811729409, -73132.91855250818, -27736.637322501818, -28563.83068130382, -52829.577366063284, -100928.49742513864, -187500.02235174447, -187500.02235174447, -48336.27323344627, -46914.29995468855, -78227.95399760653, -48974.63905508984, -88795.43409293106, -31827.945331090134, 0.0, 0.0, 0.0, 193.0, 0.0, 1.0, 1.0, 0.0, 0.0, 1.0, 1.0, 256.0, 1.0, 1.750528716071126E9, 0.0, 2025-06-21 19:58:36.071
4.0, -44021.00074541578, -37963.856811983205, -30039.157574076366, -73162.51226216702, -27714.598502468885, -28577.331134954828, -52863.30614844634, -100950.31272772703, -187500.02235174447, -187500.02235174447, -48364.30232099323, -46949.81687662803, -78254.79844269734, -49007.87609909488, -88818.03170657536, -31860.936505906167, 0.0, 0.0, 0.0, 193.0, 0.0, 1.0, 1.0, 0.0, 0.0, 1.0, 1.0, 256.0, 1.0, 1.750528716078158E9, 0.0, 2025-06-21 19:58:36.078
6.0, -44007.81321618715, -37948.52351528687, -30018.213989521744, -73143.37916891328, -27701.925063362727, -28597.8500363648, -52844.73184880398, -100940.20973923324, -187500.02235174447, -187500.02235174447, -48341.74941083782, -46924.09001875997, -78238.7722419229, -48975.197848701224, -88806.8111308588, -31830.53813344695, 0.0, 0.0, 0.0, 193.0, 0.0, 1.0, 1.0, 0.0, 0.0, 1.0, 1.0, 256.0, 1.0, 1.75052871608718E9, 0.0, 2025-06-21 19:58:36.087
8.0, -44008.30495456517, -37957.62067528018, -30031.021539094632, -73153.4151021737, -27694.660746414753, -28552.07366372033, -52849.80569479534, -100945.84237883597, -187500.02235174447, -187500.02235174447, -48355.607492400115, -46937.702231133255, -78244.85191641473, -49004.94802057124, -88800.35147671122, -31858.611924482815, 0.0, 0.0, 0.0, 193.0, 0.0, 1.0, 1.0, 0.0, 0.0, 1.0, 1.0, 256.0, 1.0, 1.750528716094228E9, 0.0, 2025-06-21 19:58:36.094
10.0, -44002.87348066253, -37942.7567652174, -30021.56675119004, -73138.55119211093, -27698.795819138984, -28545.681064806115, -52813.34999958873, -100904.44694810474, -187500.02235174447, -187500.02235174447, -48342.442314915934, -46922.19012048127, -78234.65952094311, -48975.197848701224, -88806.4087994586, -31828.593531679337, 0.0, 0.0, 0.0, 193.0, 0.0, 1.0, 1.0, 0.0, 0.0, 1.0, 1.0, 256.0, 1.0, 1.750528716102267E9, 0.0, 2025-06-21 19:58:36.102
12.0, -44035.88700722301, -37988.77900705088, -30047.092443358, -73187.1215328123, -27732.792822455507, -28615.150286573207, -52890.88820110419, -100982.07455659802, -187500.02235174447, -187500.02235174447, -48361.687166891956, -46953.8848941189, -78259.89464043315, -49004.83626184896, -88818.65755542011, -31861.62940998428, 0.0, 0.0, 0.0, 193.0, 0.0, 1.0, 1.0, 0.0, 0.0, 1.0, 1.0, 256.0, 1.0, 1.75052871611029E9, 0.0, 2025-06-21 19:58:36.110
14.0, -44019.72669598183, -37952.747994988924, -30034.8883908854, -73159.22655573208, -27739.20777311418, -28526.41386108564, -52839.94857549055, -100941.34967820045, -187500.02235174447, -187500.02235174447, -48357.216818000896, -46941.63613815739, -78249.54578275034, -49002.35521821442, -88805.87235759168, -31860.0200843835, 0.0, 0.0, 0.0, 193.0, 0.0, 1.0, 1.0, 0.0, 0.0, 1.0, 1.0, 256.0, 1.0, 1.750528716119307E9, 0.0, 2025-06-21 19:58:36.119
16.0, -44015.81514070215, -37955.09492815673, -30035.424832752327, -73154.71150335211, -27728.277770075532, -28574.31364945336, -52824.23529913847, -100932.43133216279, -187500.02235174447, -187500.02235174447, -48358.267349990296, -46942.61961491342, -78257.1677276096, -48994.777976844074, -88827.62060494669, -31851.213497068107, 0.0, 0.0, 0.0, 193.0, 0.0, 1.0, 1.0, 0.0, 0.0, 1.0, 1.0, 256.0, 1.0, 1.750528716125354E9, 0.0, 2025-06-21 19:58:36.125
18.0, -44005.645096974986, -37949.395233320625, -30017.99047207719, -73145.18966021415, -27724.43327002922, -28584.863672836265, -52846.40822963813, -100933.7724368301, -187500.02235174447, -187500.02235174447, -48353.349966210124, -46930.28145197409, -78240.31451229031, -49000.41061644681, -88800.79851160033, -31853.82865116938, 0.0, 0.0, 0.0, 193.0, 0.0, 1.0, 1.0, 0.0, 0.0, 1.0, 1.0, 256.0, 1.0, 1.750528716134385E9, 0.0, 2025-06-21 19:58:36.134
20.0, -44002.493501006786, -37938.82285819326, -30021.723213401227, -73138.43943338864, -27699.823999383927, -28549.972599741533, -52823.07300842679, -100914.7734540431, -187500.02235174447, -187500.02235174447, -48338.84368405863, -46917.987992523675, -78232.33493951976, -48974.75081381212, -88794.29415396383, -31833.980302093067, 0.0, 0.0, 0.0, 193.0, 0.0, 1.0, 1.0, 0.0, 0.0, 1.0, 1.0, 256.0, 1.0, 1.750528716142359E9, 0.0, 2025-06-21 19:58:36.142
22.0, -44033.54007405521, -37975.14444293314, -30050.020521881645, -73173.06228554992, -27751.657694775786, -28582.628498390735, -52855.41598265362, -100952.59260566147, -187500.02235174447, -187500.02235174447, -48362.313015736705, -46943.55838818054, -78251.60214324023, -49004.03159904857, -88823.73140141147, -31857.851965171336, 0.0, 0.0, 0.0, 193.0, 0.0, 1.0, 1.0, 0.0, 0.0, 1.0, 1.0, 256.0, 1.0, 1.750528716150407E9, 0.0, 2025-06-21 19:58:36.150
24.0, -44014.20581510136, -37964.214439894495, -30037.481193242216, -73150.08469224986, -27695.264243515045, -28605.47198122406, -52846.96702324951, -100942.06493402302, -187500.02235174447, -187500.02235174447, -48359.027309301775, -46935.02002179861, -78243.55551523632, -49003.65161939283, -88810.54387218284, -31858.142537849253, 0.0, 0.0, 0.0, 193.0, 0.0, 1.0, 1.0, 0.0, 0.0, 1.0, 1.0, 256.0, 1.0, 1.750528716158459E9, 0.0, 2025-06-21 19:58:36.158
26.0, -44023.81706521715, -37954.17850663406, -30030.082765827512, -73156.63375337527, -27753.311723865478, -28543.423538616127, -52840.32855514629, -100939.71800085521, -187500.02235174447, -187500.02235174447, -48359.74256512435, -46932.181350252795, -78251.49038451797, -48994.04036927705, -88830.30281428133, -31849.11243308931, 0.0, 0.0, 0.0, 193.0, 0.0, 1.0, 1.0, 0.0, 0.0, 1.0, 1.0, 256.0, 1.0, 1.750528716166495E9, 0.0, 2025-06-21 19:58:36.166
28.0, -44055.62359757705, -37995.4174751541, -30058.223612096743, -73203.59476847587, -27744.706302250186, -28554.532355610416, -52879.913494576635, -100970.27283552563, -187500.02235174447, -187500.02235174447, -48384.03891134726, -46968.90526639286, -78273.81977722881, -49021.64477367935, -88819.50692170941, -31877.141520636265, 0.0, 0.0, 0.0, 193.0, 0.0, 1.0, 1.0, 0.0, 0.0, 1.0, 1.0, 256.0, 1.0, 1.750528716174504E9, 0.0, 2025-06-21 19:58:36.174
30.0, -44002.47114926233, -37937.727622714956, -30021.589102934493, -73140.51814562299, -27714.77731642453, -28593.334983984827, -52824.5705753053, -100923.51298612512, -187500.02235174447, -187500.02235174447, -48366.04575706074, -46956.4329929868, -78265.54963178035, -49001.97523855868, -88822.79262814435, -31860.78004369498, 0.0, 0.0, 0.0, 193.0, 0.0, 1.0, 1.0, 0.0, 0.0, 1.0, 1.0, 256.0, 1.0, 1.750528716181523E9, 0.0, 2025-06-21 19:58:36.181
32.0, -44022.09598089409, -37961.93456196005, -30038.46466999825, -73165.21682324611, -27742.560534782475, -28569.396265673193, -52860.31101468933, -100960.01338482063, -187500.02235174447, -187500.02235174447, -48342.442314915934, -46920.983126280684, -78233.43017499807, -48984.987912772645, -88807.39227621464, -31837.44482248364, 0.0, 0.0, 0.0, 193.0, 0.0, 1.0, 1.0, 0.0, 0.0, 1.0, 1.0, 256.0, 1.0, 1.750528716190534E9, 0.0, 2025-06-21 19:58:36.190
34.0, -44003.00759112926, -37939.22518959346, -30027.80288789307, -73149.23532596056, -27720.320549049444, -28564.61299235976, -52843.301337158846, -100947.92109107031, -187500.02235174447, -187500.02235174447, -48360.971911069384, -46940.96558582373, -78248.24938157194, -49015.3192299985, -88819.84219787625, -31871.531232777983, 0.0, 0.0, 0.0, 193.0, 0.0, 1.0, 1.0, 0.0, 0.0, 1.0, 1.0, 256.0, 1.0, 1.750528716198567E9, 0.0, 2025-06-21 19:58:36.198
36.0, -43992.12229157952, -37936.72179421446, -30025.880637869912, -73143.7144450801, -27687.23996725559, -28520.200076127065, -52824.8164444943, -100925.63640184837, -187500.02235174447, -187500.02235174447, -48330.10415197661, -46910.366047664415, -78223.8636283712, -48974.19202020074, -88806.98994481444, -31831.25338926952, 0.0, 0.0, 0.0, 193.0, 0.0, 1.0, 1.0, 0.0, 0.0, 1.0, 1.0, 256.0, 1.0, 1.750528716206589E9, 0.0, 2025-06-21 19:58:36.206
38.0, -44023.34767858359, -37958.60415203621, -30046.533649746616, -73162.55696565592, -27721.594598483396, -28576.392361687704, -52863.08263100179, -100954.96189057373, -187500.02235174447, -187500.02235174447, -48365.39755647154, -46940.74206837917, -78247.42236702709, -49021.08598006797, -88828.17939855807, -31869.385465310275, 0.0, 0.0, 0.0, 193.0, 0.0, 1.0, 1.0, 0.0, 0.0, 1.0, 1.0, 256.0, 1.0, 1.750528716214611E9, 0.0, 2025-06-21 19:58:36.214
40.0, -44021.20191111588, -37953.35149208921, -30039.626960709928, -73150.75524458352, -27766.812177516484, -28597.8500363648, -52817.97681069098, -100927.93863152727, -187500.02235174447, -187500.02235174447, -48346.152704495515, -46922.97243153721, -78239.0181111119, -48983.42329066078, -88812.24260476144, -31836.841325383346, 0.0, 0.0, 0.0, 193.0, 0.0, 1.0, 1.0, 0.0, 0.0, 1.0, 1.0, 256.0, 1.0, 1.750528716222655E9, 0.0, 2025-06-21 19:58:36.222
42.0, -43996.838509659596, -37941.639177994635, -30015.107097042455, -73150.0176370165, -27699.689888917197, -28498.787104938878, -52848.79986629485, -100928.81034956103, -187500.02235174447, -187500.02235174447, -48362.89416109254, -46941.971414324216, -78253.16676535211, -48996.92374431178, -88814.96951758499, -31850.07355810089, 0.0, 0.0, 0.0, 193.0, 0.0, 1.0, 1.0, 0.0, 0.0, 1.0, 1.0, 256.0, 1.0, 1.750528716230723E9, 0.0, 2025-06-21 19:58:36.230
44.0, -44039.99972820279, -37977.17845167857, -30050.93694340431, -73170.89416633775, -27753.222316887655, -28589.736353127522, -52867.03888977038, -100957.91232084183, -187500.02235174447, -187500.02235174447, -48362.00009131433, -46947.425239971315, -78253.52439326339, -49001.30468622502, -88806.07352329178, -31856.197936081644, 0.0, 0.0, 0.0, 193.0, 0.0, 1.0, 1.0, 0.0, 0.0, 1.0, 1.0, 256.0, 1.0, 1.750528716237751E9, 0.0, 2025-06-21 19:58:36.237
46.0, -44034.90353046698, -37960.6605125261, -30058.827109197035, -73164.70273312363, -27762.364180369877, -28540.31664613684, -52823.095360171246, -100940.23209097769, -187500.02235174447, -187500.02235174447, -48370.09142280715, -46941.56908292402, -78264.65556200214, -48994.10742451042, -88834.59434921674, -31845.78202316547, 0.0, 0.0, 0.0, 193.0, 0.0, 1.0, 1.0, 0.0, 0.0, 1.0, 1.0, 256.0, 1.0, 1.750528716247952E9, 0.0, 2025-06-21 19:58:36.247
48.0, -44004.63926847449, -37941.08038438325, -30018.66102441085, -73143.66974159119, -27704.517865719543, -28552.721864309537, -52857.27117744341, -100940.1203322554, -187500.02235174447, -187500.02235174447, -48373.31007400872, -46943.647795158366, -78259.0676258883, -49014.82749162048, -88820.0657153208, -31864.423378041196, 0.0, 0.0, 0.0, 193.0, 0.0, 1.0, 1.0, 0.0, 0.0, 1.0, 1.0, 256.0, 1.0, 1.750528716254768E9, 0.0, 2025-06-21 19:58:36.254
50.0, -44011.88123367802, -37948.8587914537, -30040.94571363279, -73155.80673883042, -27702.57326395193, -28577.59935588829, -52850.58800585127, -100938.86863456591, -187500.02235174447, -187500.02235174447, -48344.208102727905, -46917.42919891229, -78236.78293666636, -48974.92962776776, -88799.68092437756, -31829.599360179825, 0.0, 0.0, 0.0, 193.0, 0.0, 1.0, 1.0, 0.0, 0.0, 1.0, 1.0, 256.0, 1.0, 1.750528716261797E9, 0.0, 2025-06-21 19:58:36.261
52.0, -44021.40307681597, -37954.916114201085, -30048.165327091854, -73170.82711110439, -27757.893831478817, -28531.822983243823, -52852.242034940966, -100955.11835278492, -187500.02235174447, -187500.02235174447, -48359.9660825689, -46936.517588677125, -78248.40584378313, -48996.78963384505, -88818.09876180872, -31849.0677296004, 0.0, 0.0, 0.0, 193.0, 0.0, 1.0, 1.0, 0.0, 0.0, 1.0, 1.0, 256.0, 1.0, 1.750528716269881E9, 0.0, 2025-06-21 19:58:36.269
54.0, -44018.22912910332, -37953.97734093396, -30036.251847297175, -73157.10314000882, -27744.080453405437, -28585.37776295874, -52846.09530521576, -100947.11642826992, -187500.02235174447, -187500.02235174447, -48368.16917278399, -46945.391231225876, -78254.06083513032, -49011.94411658575, -88822.6138141887, -31866.859718186824, 0.0, 0.0, 0.0, 193.0, 0.0, 1.0, 1.0, 0.0, 0.0, 1.0, 1.0, 256.0, 1.0, 1.75052871627888E9, 0.0, 2025-06-21 19:58:36.278
56.0, -44005.68980046389, -37949.97637867646, -30020.873847111925, -73145.97197127009, -27685.228310254613, -28541.8365647598, -52833.53362483187, -100940.6791258668, -187500.02235174447, -187500.02235174447, -48347.73967835184, -46927.487483917175, -78244.76250943691, -48986.239610462144, -88821.13859905466, -31843.05511034192, 0.0, 0.0, 0.0, 193.0, 0.0, 1.0, 1.0, 0.0, 0.0, 1.0, 1.0, 256.0, 1.0, 1.750528716285912E9, 0.0, 2025-06-21 19:58:36.285
58.0, -44038.43510609092, -37966.024931195374, -30054.557926006073, -73184.23815777757, -27756.575078555954, -28529.096070420277, -52876.47132593052, -100966.98712909069, -187500.02235174447, -187500.02235174447, -48363.25178900383, -46950.57683593951, -78254.03848338587, -49018.962564344714, -88824.24549153393, -31872.514709534018, 0.0, 0.0, 0.0, 193.0, 0.0, 1.0, 1.0, 0.0, 0.0, 1.0, 1.0, 256.0, 1.0, 1.750528716293882E9, 0.0, 2025-06-21 19:58:36.293
60.0, -43995.631515459005, -37938.08525062624, -30031.759146661658, -73147.5142416375, -27699.756944150562, -28543.87057350523, -52821.15075840364, -100920.11552096791, -187500.02235174447, -187500.02235174447, -48353.84170458814, -46936.38347821039, -78248.51760250541, -48985.70316859522, -88813.04726756184, -31844.262104542508, 0.0, 0.0, 0.0, 193.0, 0.0, 1.0, 1.0, 0.0, 0.0, 1.0, 1.0, 256.0, 1.0, 1.750528716301968E9, 0.0, 2025-06-21 19:58:36.301
62.0, -44031.371954843045, -37966.13668991765, -30047.561829991562, -73177.68909665216, -27770.522567096064, -28606.701327169103, -52873.006805539946, -100962.80735287754, -187500.02235174447, -187500.02235174447, -48368.21387627291, -46952.14145805138, -78264.0744166463, -49011.5194334411, -88830.79455265934, -31866.770311209002, 0.0, 0.0, 0.0, 193.0, 0.0, 1.0, 1.0, 0.0, 0.0, 1.0, 1.0, 256.0, 1.0, 1.75052871631093E9, 0.0, 2025-06-21 19:58:36.310
64.0, -44001.06298936164, -37932.09498311222, -30019.443335466785, -73144.92143928069, -27724.38856654031, -28552.408939887162, -52829.577366063284, -100918.12621571138, -187500.02235174447, -187500.02235174447, -48347.203236484915, -46928.6274228844, -78238.19109656705, -48993.32511345448, -88800.93262206705, -31849.201840067133, 0.0, 0.0, 0.0, 193.0, 0.0, 1.0, 1.0, 0.0, 0.0, 1.0, 1.0, 256.0, 1.0, 1.750528716317987E9, 0.0, 2025-06-21 19:58:36.317
66.0, -44009.75781795476, -37946.444803052524, -30033.636693195906, -73153.3703986848, -27725.126174107336, -28505.87260793121, -52845.96119474903, -100950.53624517158, -187500.02235174447, -187500.02235174447, -48357.64150114555, -46937.4787136887, -78253.63615198567, -48997.370779200886, -88832.94032012706, -31854.20863082512, 0.0, 0.0, 0.0, 193.0, 0.0, 1.0, 1.0, 0.0, 0.0, 1.0, 1.0, 256.0, 1.0, 1.750528716326017E9, 0.0, 2025-06-21 19:58:36.326
68.0, -44014.36227731255, -37957.218343879984, -30037.928228131324, -73169.30719248143, -27725.036767129513, -28557.594544600794, -52865.96600603653, -100963.52260870012, -187500.02235174447, -187500.02235174447, -48348.23141672986, -46932.449571186255, -78235.12890757667, -49000.52237516909, -88805.1571017691, -31851.861697657314, 0.0, 0.0, 0.0, 193.0, 0.0, 1.0, 1.0, 0.0, 0.0, 1.0, 1.0, 256.0, 1.0, 1.750528716335004E9, 0.0, 2025-06-21 19:58:36.335
70.0, -44004.19223358539, -37935.24657908041, -30033.569637962537, -73149.59295387185, -27727.383700297323, -28575.341829698307, -52836.32759288879, -100932.34192518497, -187500.02235174447, -187500.02235174447, -48358.267349990296, -46944.899492847864, -78256.47482353149, -49002.13170076987, -88831.75567767092, -31856.510860504015, 0.0, 0.0, 0.0, 193.0, 0.0, 1.0, 1.0, 0.0, 0.0, 1.0, 1.0, 256.0, 1.0, 1.750528716343056E9, 0.0, 2025-06-21 19:58:36.343
72.0, -44022.74418148329, -37958.24652412492, -30043.247943311686, -73166.80379710243, -27735.229162601136, -28539.42257635863, -52852.51025587443, -100947.94344281477, -187500.02235174447, -187500.02235174447, -48349.08078301916, -46926.5263589056, -78239.8227739123, -48982.484517393656, -88808.1075320372, -31833.48856371505, 0.0, 0.0, 0.0, 193.0, 0.0, 1.0, 1.0, 0.0, 0.0, 1.0, 1.0, 256.0, 1.0, 1.750528716350069E9, 0.0, 2025-06-21 19:58:36.350
74.0, -44017.938556425404, -37946.93654143054, -30045.125489845934, -73162.08757902237, -27727.62956948633, -28551.447814875584, -52837.44518011155, -100935.33705894198, -187500.02235174447, -187500.02235174447, -48381.96019911292, -46958.757574410156, -78269.3717800822, -49017.88968061086, -88833.11913408269, -31869.139596121266, 0.0, 0.0, 0.0, 193.0, 0.0, 1.0, 1.0, 0.0, 0.0, 1.0, 1.0, 256.0, 1.0, 1.750528716358105E9, 0.0, 2025-06-21 19:58:36.358
76.0, -44005.82391093062, -37945.37191931867, -30022.37141399043, -73152.99041902905, -27742.06879640446, -28553.638285832203, -52849.17984595059, -100953.64313765087, -187500.02235174447, -187500.02235174447, -48338.37429742507, -46921.29605070306, -78237.20761981102, -48973.07443297797, -88805.98411631395, -31830.7616508915, 0.0, 0.0, 0.0, 193.0, 0.0, 1.0, 1.0, 0.0, 0.0, 1.0, 1.0, 256.0, 1.0, 1.75052871636715E9, 0.0, 2025-06-21 19:58:36.367
78.0, -44009.0872656211, -37934.9560064025, -30025.90298961437, -73155.60557313032, -27754.362255854878, -28543.89292524969, -52849.91745351761, -100932.47603565169, -187500.02235174447, -187500.02235174447, -48356.99330055634, -46941.07734454601, -78246.43889027106, -49009.46307295121, -88813.20372977301, -31862.00938964002, 0.0, 0.0, 0.0, 193.0, 0.0, 1.0, 1.0, 0.0, 0.0, 1.0, 1.0, 256.0, 1.0, 1.750528716374161E9, 0.0, 2025-06-21 19:58:36.374
80.0, -44011.70241972237, -37945.43897455204, -30035.31307403005, -73151.13522423926, -27720.231142071625, -28537.857954246756, -52839.27802315689, -100933.23599496318, -187500.02235174447, -187500.02235174447, -48357.44033544545, -46936.56229216603, -78249.07639611678, -48990.55349714202, -88818.14346529765, -31845.849078398835, 0.0, 0.0, 0.0, 193.0, 0.0, 1.0, 1.0, 0.0, 0.0, 1.0, 1.0, 256.0, 1.0, 1.750528716382189E9, 0.0, 2025-06-21 19:58:36.382
82.0, -44007.07560862012, -37940.90157042761, -30025.09832681398, -73151.76107308401, -27720.275845560533, -28548.631495074213, -52839.5238923459, -100935.89585255335, -187500.02235174447, -187500.02235174447, -48342.33055619366, -46918.43502741278, -78232.78197440886, -48977.14245046883, -88797.55750865431, -31829.621711924283, 0.0, 0.0, 0.0, 193.0, 0.0, 1.0, 1.0, 0.0, 0.0, 1.0, 1.0, 256.0, 1.0, 1.750528716390229E9, 0.0, 2025-06-21 19:58:36.390
84.0, -44024.84524546209, -37962.42630033807, -30045.639579968403, -73166.42381744669, -27708.474124488133, -28599.079382309843, -52845.76002904893, -100940.54501540006, -187500.02235174447, -187500.02235174447, -48367.29745475024, -46947.3805364824, -78255.33488456428, -49009.64188690685, -88819.75279089842, -31862.992866396056, 0.0, 0.0, 0.0, 193.0, 0.0, 1.0, 1.0, 0.0, 0.0, 1.0, 1.0, 256.0, 1.0, 1.750528716398266E9, 0.0, 2025-06-21 19:58:36.398
86.0, -44022.18538787191, -37948.0094251644, -30051.048702126587, -73163.54044241196, -27758.765549512573, -28527.665558775137, -52842.451970869544, -100949.59747190446, -187500.02235174447, -187500.02235174447, -48354.08757377715, -46934.483579931686, -78248.15997459412, -48990.28527620855, -88832.15800907112, -31843.949180120133, 0.0, 0.0, 0.0, 193.0, 0.0, 1.0, 1.0, 0.0, 0.0, 1.0, 1.0, 256.0, 1.0, 1.750528716406291E9, 0.0, 2025-06-21 19:58:36.406
88.0, -44004.10282660757, -37930.97739588945, -30005.76406786014, -73139.5570206114, -27737.799613213494, -28523.776355239912, -52846.83291278278, -100945.44004743577, -187500.02235174447, -187500.02235174447, -48356.56861741169, -46933.924786320305, -78240.02393961238, -49008.72546538418, -88815.88593910765, -31858.67897971618, 0.0, 0.0, 0.0, 193.0, 0.0, 1.0, 1.0, 0.0, 0.0, 1.0, 1.0, 256.0, 1.0, 1.750528716414336E9, 0.0, 2025-06-21 19:58:36.414
90.0, -44035.976414200835, -37964.32619861677, -30050.780481193124, -73169.66482039272, -27770.746084540617, -28584.886024580723, -52875.48784917448, -100968.61880643593, -187500.02235174447, -187500.02235174447, -48341.32472769317, -46923.26300421513, -78236.470012244, -48994.33094195497, -88822.03266883286, -31850.855869156825, 0.0, 0.0, 0.0, 193.0, 0.0, 1.0, 1.0, 0.0, 0.0, 1.0, 1.0, 256.0, 1.0, 1.750528716423349E9, 0.0, 2025-06-21 19:58:36.423
92.0, -44018.83262620361, -37939.42635529356, -30049.238210825708, -73173.57637567239, -27745.198040628202, -28507.59369225427, -52861.29449144536, -100972.30684427105, -187500.02235174447, -187500.02235174447, -48364.19056227095, -46940.45149570126, -78253.21146884102, -49017.39794223284, -88838.4164975186, -31869.340761821364, 0.0, 0.0, 0.0, 193.0, 0.0, 1.0, 1.0, 0.0, 0.0, 1.0, 1.0, 256.0, 1.0, 1.75052871642934E9, 0.0, 2025-06-21 19:58:36.429
94.0, -44023.68295475042, -37950.82574496576, -30048.94763814779, -73170.42477970419, -27717.370118781346, -28556.812233544857, -52870.16813399412, -100969.31171051404, -187500.02235174447, -187500.02235174447, -48377.0204635883, -46956.45534473126, -78263.4262160571, -49037.983898876184, -88845.54670399985, -31892.0277824435, 0.0, 0.0, 0.0, 193.0, 0.0, 1.0, 1.0, 0.0, 0.0, 1.0, 1.0, 256.0, 1.0, 1.75052871643837E9, 0.0, 2025-06-21 19:58:36.438
96.0, -44018.81027445916, -37960.146422403624, -30038.46466999825, -73159.15950049872, -27737.15141262429, -28532.918218722134, -52850.923282018106, -100948.01049804813, -187500.02235174447, -187500.02235174447, -48345.2139312284, -46924.29118446007, -78239.77807042337, -48988.18421222976, -88823.12790431117, -31842.429261497175, 0.0, 0.0, 0.0, 193.0, 0.0, 1.0, 1.0, 0.0, 0.0, 1.0, 1.0, 256.0, 1.0, 1.750528716447395E9, 0.0, 2025-06-21 19:58:36.447
98.0, -44006.65092547547, -37948.29999784232, -30043.7396816897, -73172.72700938309, -27771.975430485658, -28578.09109426631, -52859.1263722332, -100962.96381508873, -187500.02235174447, -187500.02235174447, -48359.586102913156, -46942.48550444669, -78246.88592516017, -49023.723485913695, -88829.81107590332, -31873.11820663431, 0.0, 0.0, 0.0, 193.0, 0.0, 1.0, 1.0, 0.0, 0.0, 1.0, 1.0, 256.0, 1.0, 1.750528716454487E9, 0.0, 2025-06-21 19:58:36.454
100.0, -43947.46350615782, -37901.78601763082, -29998.522102656618, -73122.30147389192, -27686.703525388664, -28589.602242660792, -52796.13915635814, -100902.47999459268, -187500.02235174447, -187500.02235174447, -48330.19355895443, -46926.369896694414, -78232.0667185863, -48990.732311097665, -88819.70808740951, -31845.983188865568, 0.0, 0.0, 0.0, 193.0, 0.0, 1.0, 1.0, 0.0, 0.0, 1.0, 1.0, 256.0, 1.0, 1.750528716462518E9, 0.0, 2025-06-21 19:58:36.462
102.0, -44006.673277219925, -37944.94723617402, -30039.358739776464, -73167.69786688064, -27753.267020376567, -28563.338942925806, -52872.26919797292, -100972.91034137135, -187500.02235174447, -187500.02235174447, -48325.36558215208, -46918.412675668325, -78222.36606149269, -48987.73717734065, -88809.82861636026, -31839.97056960709, 0.0, 0.0, 0.0, 193.0, 0.0, 1.0, 1.0, 0.0, 0.0, 1.0, 1.0, 256.0, 1.0, 1.75052871647053E9, 0.0, 2025-06-21 19:58:36.470
104.0, -43939.84156129856, -37893.672334393545, -29999.75144860166, -73124.13431693726, -27699.689888917197, -28560.835547546812, -52840.44031386857, -100929.90558503933, -187500.02235174447, -187500.02235174447, -48340.85534105961, -46931.60020489695, -78233.18430580906, -49005.551517671534, -88813.20372977301, -31857.337875048863, 0.0, 0.0, 0.0, 193.0, 0.0, 1.0, 1.0, 0.0, 0.0, 1.0, 1.0, 256.0, 1.0, 1.750528716477552E9, 0.0, 2025-06-21 19:58:36.477
106.0, -43935.14769496294, -37888.285563979814, -30007.820428350024, -73132.38211064127, -27713.68208094622, -28590.004574060986, -52844.24011042596, -100938.53335839909, -187500.02235174447, -187500.02235174447, -48302.16447140747, -46894.54101259005, -78203.50118917241, -48959.66338630478, -88794.58472664175, -31813.595511149826, 0.0, 0.0, 0.0, 193.0, 0.0, 1.0, 1.0, 0.0, 0.0, 1.0, 1.0, 256.0, 1.0, 1.750528716486599E9, 0.0, 2025-06-21 19:58:36.486
108.0, -43975.358483238044, -37921.65671845159, -30039.448146754283, -73168.34606746984, -27722.645130472796, -28522.725823250512, -52857.2264739545, -100973.40207974936, -187500.02235174447, -187500.02235174447, -48336.295585190725, -46931.130818263395, -78227.4622592285, -49007.786692117064, -88815.34949724074, -31857.181412837675, 0.0, 0.0, 0.0, 193.0, 0.0, 1.0, 1.0, 0.0, 0.0, 1.0, 1.0, 256.0, 1.0, 1.750528716494634E9, 0.0, 2025-06-21 19:58:36.494
110.0, -43915.56756682009, -37870.51592713784, -29999.483227668195, -73130.28104666247, -27689.117513789835, -28539.959018225556, -52814.93697344506, -100903.82109925999, -187500.02235174447, -187500.02235174447, -48323.80096004021, -46928.2250914842, -78226.1658580501, -48985.68081685076, -88812.9131570951, -31840.082328329365, 0.0, 0.0, 0.0, 193.0, 0.0, 1.0, 1.0, 0.0, 0.0, 1.0, 1.0, 256.0, 1.0, 1.750528716501649E9, 0.0, 2025-06-21 19:58:36.501
112.0, -43974.88909660448, -37920.22620680645, -30048.433548025318, -73184.95341360015, -27724.053290373482, -28564.769454570946, -52894.464480217044, -100965.10958255644, -187500.02235174447, -187500.02235174447, -48314.56968958017, -46921.072533258506, -78218.65567191312, -48986.463127906696, -88803.03368604585, -31840.015273096, 0.0, 0.0, 0.0, 193.0, 0.0, 1.0, 1.0, 0.0, 0.0, 1.0, 1.0, 256.0, 1.0, 1.750528716510667E9, 0.0, 2025-06-21 19:58:36.510
114.0, -43931.683174572376, -37880.8424330762, -30016.80582962106, -73152.5210323955, -27737.710206235675, -28580.88506232322, -52862.2779682014, -100944.54597765756, -187500.02235174447, -187500.02235174447, -48362.737698881356, -46955.024833086114, -78258.48648053248, -49040.46494251072, -88847.13367785618, -31895.26878538952, 0.0, 0.0, 0.0, 193.0, 0.0, 1.0, 1.0, 0.0, 0.0, 1.0, 1.0, 256.0, 1.0, 1.750528716518757E9, 0.0, 2025-06-21 19:58:36.518
116.0, -43966.28367498919, -37916.58287246023, -30059.81058595307, -73193.00004160406, -27767.505081594598, -28581.354448956783, -52892.3857679827, -100992.57987649202, -187500.02235174447, -187500.02235174447, -48322.526910606255, -46928.24744322866, -78230.50209647443, -49001.483500180664, -88836.40484051763, -31857.963723893612, 0.0, 0.0, 0.0, 193.0, 0.0, 1.0, 1.0, 0.0, 0.0, 1.0, 1.0, 256.0, 1.0, 1.750528716525763E9, 0.0, 2025-06-21 19:58:36.525
118.0, -43989.01539910024, -37932.2514453234, -30071.634658769926, -73196.03987884997, -27741.040616159513, -28616.08905984033, -52905.014503599945, -101007.55554527708, -187500.02235174447, -187500.02235174447, -48371.90191410803, -46965.61955995793, -78265.75079748045, -49052.736050216685, -88854.33093957078, -31906.936395995188, 0.0, 0.0, 0.0, 193.0, 0.0, 1.0, 1.0, 0.0, 0.0, 1.0, 1.0, 256.0, 1.0, 1.750528716533744E9, 0.0, 2025-06-21 19:58:36.533
120.0, -43964.540238921676, -37910.994936346404, -30034.597818207483, -73165.95443081313, -27735.027996901037, -28570.491501151504, -52866.144819992165, -100959.0299080646, -187500.02235174447, -187500.02235174447, -48364.86111460461, -46954.84601913048, -78265.21435561351, -49032.75359067364, -88858.26484659492, -31888.652669030747, 0.0, 0.0, 0.0, 193.0, 0.0, 1.0, 1.0, 0.0, 0.0, 1.0, 1.0, 256.0, 1.0, 1.750528716542745E9, 0.0, 2025-06-21 19:58:36.542
122.0, -43972.162183780936, -37922.57313997426, -30035.424832752327, -73183.83582637737, -27742.024092915548, -28540.02607345892, -52875.55490440785, -100970.85398088145, -187500.02235174447, -187500.02235174447, -48340.207140470404, -46951.06857431753, -78244.58369548127, -49016.392113732356, -88825.65365143462, -31874.191090368164, 0.0, 0.0, 0.0, 193.0, 0.0, 1.0, 1.0, 0.0, 0.0, 1.0, 1.0, 256.0, 1.0, 1.750528716550851E9, 0.0, 2025-06-21 19:58:36.550
124.0, -43975.04555881567, -37924.80831441979, -30043.583219478518, -73168.21195700312, -27727.987197397615, -28638.306693828905, -52835.03119171038, -100940.74618110016, -187500.02235174447, -187500.02235174447, -48346.10800100661, -46951.9849958402, -78244.80721292582, -49026.76332315962, -88826.41361074611, -31885.0763899179, 0.0, 0.0, 0.0, 193.0, 0.0, 1.0, 1.0, 0.0, 0.0, 1.0, 1.0, 256.0, 1.0, 1.750528716557837E9, 0.0, 2025-06-21 19:58:36.557
126.0, -43978.577134439605, -37917.588700960725, -30048.925286403333, -73184.84165487786, -27763.68293329274, -28550.46433811955, -52854.63367159769, -100952.81612310602, -187500.02235174447, -187500.02235174447, -48353.797001099236, -46946.62057717092, -78255.0219601419, -49018.336715499965, -88852.34163431426, -31873.855814201335, 0.0, 0.0, 0.0, 193.0, 0.0, 1.0, 1.0, 0.0, 0.0, 1.0, 1.0, 256.0, 1.0, 1.750528716565828E9, 0.0, 2025-06-21 19:58:36.565
128.0, -43993.262230546745, -37952.524477544364, -30056.413120795864, -73199.23617830708, -27736.033825401526, -28610.85875163779, -52871.263369472435, -100969.95991110324, -187500.02235174447, -187500.02235174447, -48364.39172797105, -46968.07825184802, -78261.05693114483, -49043.1248001009, -88838.12592484069, -31899.31445113593, 0.0, 0.0, 0.0, 193.0, 0.0, 1.0, 1.0, 0.0, 0.0, 1.0, 1.0, 256.0, 1.0, 1.750528716574894E9, 0.0, 2025-06-21 19:58:36.574
130.0, -44002.02411437323, -37950.17754437656, -30069.064208157568, -73192.48595148158, -27741.711168493173, -28632.830516437356, -52858.679337344096, -100956.97354757471, -187500.02235174447, -187500.02235174447, -48369.934960595965, -46971.85569666096, -78275.69732376306, -49032.79829416255, -88855.73909947147, -31891.312526620928, 0.0, 0.0, 0.0, 193.0, 0.0, 1.0, 1.0, 0.0, 0.0, 1.0, 1.0, 256.0, 1.0, 1.750528716581869E9, 0.0, 2025-06-21 19:58:36.581
132.0, -44051.354414386085, -37999.50784438942, -30097.67444106036, -73230.01453042204, -27802.753782600616, -28605.024946334954, -52886.46255570204, -100974.31850127204, -187500.02235174447, -187500.02235174447, -48394.410120774526, -46988.798318958085, -78294.20456817205, -49047.081058869495, -88870.06656766732, -31899.89559649177, 0.0, 0.0, 0.0, 193.0, 0.0, 1.0, 1.0, 0.0, 0.0, 1.0, 1.0, 256.0, 1.0, 1.750528716589964E9, 0.0, 2025-06-21 19:58:36.589
134.0, -44032.84716997709, -37984.6662860711, -30099.328470150052, -73220.80561170646, -27727.696624719698, -28603.013289333976, -52873.6773578736, -100970.76457390364, -187500.02235174447, -187500.02235174447, -48413.38675181708, -47012.155891913884, -78307.74972531197, -49062.593169521475, -88876.14624215916, -31913.351346653864, 0.0, 0.0, 0.0, 193.0, 0.0, 1.0, 1.0, 0.0, 0.0, 1.0, 1.0, 256.0, 1.0, 1.750528716598013E9, 0.0, 2025-06-21 19:58:36.598
136.0, -44035.059992678165, -37990.18716695156, -30071.455844814285, -73202.79010567548, -27789.83447430545, -28626.7061384566, -52837.623994067195, -100954.78307661809, -187500.02235174447, -187500.02235174447, -48403.30611506774, -46991.50288003718, -78300.59716708626, -49040.95668088874, -88881.93534397309, -31893.972384211113, 0.0, 0.0, 0.0, 193.0, 0.0, 1.0, 1.0, 0.0, 0.0, 1.0, 1.0, 256.0, 1.0, 1.750528716607015E9, 0.0, 2025-06-21 19:58:36.607
138.0, -44044.067745693654, -38000.11134148972, -30091.304193890595, -73231.37798683382, -27796.003555775114, -28653.68469401416, -52888.42950921411, -100989.27181831263, -187500.02235174447, -187500.02235174447, -48396.80175743124, -46993.693350993795, -78292.63994606018, -49053.630119994894, -88849.5700180018, -31909.55155009646, 0.0, 0.0, 0.0, 193.0, 0.0, 1.0, 1.0, 0.0, 0.0, 1.0, 1.0, 256.0, 1.0, 1.750528716614043E9, 0.0, 2025-06-21 19:58:36.614
140.0, -44073.97437977486, -38011.93541430657, -30123.222484972775, -73245.07960618491, -27789.58860511644, -28602.968585845065, -52859.640462355674, -100969.08819306949, -187500.02235174447, -187500.02235174447, -48428.04949617976, -47022.39299087441, -78324.96056854255, -49073.67963477131, -88903.25890818344, -31930.89746605128, 0.0, 0.0, 0.0, 193.0, 0.0, 1.0, 1.0, 0.0, 0.0, 1.0, 1.0, 256.0, 1.0, 1.750528716622077E9, 0.0, 2025-06-21 19:58:36.622
142.0, -44067.73824307183, -38028.028670314394, -30109.744383066227, -73247.06891144144, -27800.87623606637, -28640.005426407508, -52897.951352352065, -100996.71494921624, -187500.02235174447, -187500.02235174447, -48438.15248467356, -47031.13252295644, -78332.0907750238, -49077.702948773265, -88892.41831212262, -31933.17734398572, 0.0, 0.0, 0.0, 193.0, 0.0, 1.0, 1.0, 0.0, 0.0, 1.0, 1.0, 256.0, 1.0, 1.750528716631106E9, 0.0, 2025-06-21 19:58:36.631
144.0, -44046.5487893282, -37998.05498099983, -30098.344993394017, -73222.19141986268, -27796.294128453035, -28658.490319072047, -52877.94654106457, -100976.1289925729, -187500.02235174447, -187500.02235174447, -48428.8318072357, -47018.12380768345, -78321.47369640753, -49078.6864255293, -88883.56702131832, -31933.98200678611, 0.0, 0.0, 0.0, 193.0, 0.0, 1.0, 1.0, 0.0, 0.0, 1.0, 1.0, 256.0, 1.0, 1.750528716638158E9, 0.0, 2025-06-21 19:58:36.638
146.0, -44049.92390274095, -37989.09193147325, -30115.62289185797, -73234.59663803538, -27797.255253464613, -28620.738222687036, -52889.94942783707, -100990.16588809084, -187500.02235174447, -187500.02235174447, -48413.63262100609, -46996.6437812619, -78310.65545209116, -49047.282224569586, -88880.19190790558, -31903.226006415607, 0.0, 0.0, 0.0, 193.0, 0.0, 1.0, 1.0, 0.0, 0.0, 1.0, 1.0, 256.0, 1.0, 1.750528716646137E9, 0.0, 2025-06-21 19:58:36.646
148.0, -44091.60990615009, -38047.09470833477, -30115.846409302525, -73240.67631252723, -27742.985217927126, -28643.045263653432, -52899.58302969731, -100996.71494921624, -187500.02235174447, -187500.02235174447, -48438.82303700722, -47021.9012524964, -78325.54171389839, -49086.62129481093, -88885.71278878604, -31936.84303007639, 0.0, 0.0, 0.0, 193.0, 0.0, 1.0, 1.0, 0.0, 0.0, 1.0, 1.0, 256.0, 1.0, 1.750528716654173E9, 0.0, 2025-06-21 19:58:36.654
150.0, -44106.00442957931, -38045.97712111201, -30119.467391904283, -73244.6325712958, -27813.683785639263, -28598.274719509453, -52870.212837483035, -100978.3865187629, -187500.02235174447, -187500.02235174447, -48443.405144620556, -47030.1490462004, -78338.72924312702, -49080.29575113008, -88905.3823239067, -31931.90329455177, 0.0, 0.0, 0.0, 193.0, 0.0, 1.0, 1.0, 0.0, 0.0, 1.0, 1.0, 256.0, 1.0, 1.750528716663211E9, 0.0, 2025-06-21 19:58:36.663
152.0, -44122.18709256496, -38076.93428718261, -30130.822078087578, -73260.85993777036, -27799.378669187867, -28672.236641912063, -52904.41100649965, -101010.30480984507, -187500.02235174447, -187500.02235174447, -48440.8346940082, -47039.51442712718, -78337.83517334881, -49082.95560872026, -88895.32403890182, -31937.26771322104, 0.0, 0.0, 0.0, 193.0, 0.0, 1.0, 1.0, 0.0, 0.0, 1.0, 1.0, 256.0, 1.0, 1.750528716670265E9, 0.0, 2025-06-21 19:58:36.670
154.0, -44106.362057490594, -38062.919743409126, -30117.29927269212, -73245.61604805184, -27763.43706410373, -28666.58165056487, -52886.75312837996, -100989.56239099056, -187500.02235174447, -187500.02235174447, -48453.66459532554, -47038.083915482035, -78343.95955132956, -49098.2889054166, -88898.74385580348, -31952.26573375055, 0.0, 0.0, 0.0, 193.0, 0.0, 1.0, 1.0, 0.0, 0.0, 1.0, 1.0, 256.0, 1.0, 1.750528716678299E9, 0.0, 2025-06-21 19:58:36.678
156.0, -44108.93250810296, -38062.45035677557, -30121.456697160807, -73249.34878937589, -27806.374765202378, -28638.753728718013, -52886.95429408006, -100997.05022538308, -187500.02235174447, -187500.02235174447, -48431.11168517014, -47029.210272933284, -78334.21419074705, -49067.59996027946, -88896.55338484686, -31924.348404925873, 0.0, 0.0, 0.0, 193.0, 0.0, 1.0, 1.0, 0.0, 0.0, 1.0, 1.0, 256.0, 1.0, 1.750528716686317E9, 0.0, 2025-06-21 19:58:36.686
158.0, -44128.31147054571, -38070.49698477948, -30142.981427071267, -73271.07468498644, -27835.901419627837, -28675.991734980555, -52908.6354862017, -101008.85194645548, -187500.02235174447, -187500.02235174447, -48463.5887698637, -47050.62324412147, -78354.73309215702, -49115.41034166937, -88916.0888095008, -31966.079111823932, 0.0, 0.0, 0.0, 193.0, 0.0, 1.0, 1.0, 0.0, 0.0, 1.0, 1.0, 256.0, 1.0, 1.750528716694312E9, 0.0, 2025-06-21 19:58:36.694
160.0, -44136.425153782984, -38068.21710684503, -30138.265208991197, -73266.04554248399, -27802.664375622797, -28657.640952782745, -52924.32641080933, -101023.2464698847, -187500.02235174447, -187500.02235174447, -48453.37402264762, -47043.604796362495, -78352.27440026694, -49093.72914954772, -88916.80406532336, -31950.254076749574, 0.0, 0.0, 0.0, 193.0, 0.0, 1.0, 1.0, 0.0, 0.0, 1.0, 1.0, 256.0, 1.0, 1.750528716702397E9, 0.0, 2025-06-21 19:58:36.702
162.0, -44098.31542948668, -38059.65638871866, -30108.67149933237, -73252.36627487735, -27773.87532876436, -28644.98986542104, -52903.02519834342, -100991.75286194717, -187500.02235174447, -187500.02235174447, -48454.15633370356, -47051.04792726612, -78352.94495260059, -49096.41135888235, -88908.980954764, -31952.243382006098, 0.0, 0.0, 0.0, 193.0, 0.0, 1.0, 1.0, 0.0, 0.0, 1.0, 1.0, 256.0, 1.0, 1.750528716710398E9, 0.0, 2025-06-21 19:58:36.710
164.0, -44147.77983996628, -38087.529014054424, -30164.64026744846, -73291.59358639641, -27851.346475046455, -28690.45331364314, -52932.507149279976, -101024.74403676321, -187500.02235174447, -187500.02235174447, -48451.98821449139, -47053.55132264511, -78350.21803977706, -49104.457986886264, -88908.46686464154, -31961.27348676604, 0.0, 0.0, 0.0, 193.0, 0.0, 1.0, 1.0, 0.0, 0.0, 1.0, 1.0, 256.0, 1.0, 1.750528716718404E9, 0.0, 2025-06-21 19:58:36.718
166.0, -44141.52135151879, -38075.41436855964, -30156.995970844746, -73284.26221421506, -27824.92671310028, -28671.811958767412, -52934.027067902935, -101035.80815026858, -187500.02235174447, -187500.02235174447, -48470.607217622666, -47057.12760175796, -78368.3006010414, -49101.127576962426, -88933.63492889822, -31955.12675704083, 0.0, 0.0, 0.0, 193.0, 0.0, 1.0, 1.0, 0.0, 0.0, 1.0, 1.0, 256.0, 1.0, 1.750528716725386E9, 0.0, 2025-06-21 19:58:36.725
168.0, -44121.98592686486, -38071.927496424614, -30145.0154358167, -73282.22820546964, -27806.77709660257, -28585.333059469827, -52923.611154986764, -101018.86552797146, -187500.02235174447, -187500.02235174447, -48484.75587186288, -47077.98177933476, -78376.81661567886, -49134.6998971343, -88930.72920211902, -31985.61453647787, 0.0, 0.0, 0.0, 193.0, 0.0, 1.0, 1.0, 0.0, 0.0, 1.0, 1.0, 256.0, 1.0, 1.750528716734455E9, 0.0, 2025-06-21 19:58:36.734
170.0, -44120.19778730843, -38071.34635106878, -30153.039712076155, -73276.08147574443, -27847.99371337816, -28727.668968161222, -52907.69671293458, -101010.3942168229, -187500.02235174447, -187500.02235174447, -48462.5382378743, -47061.32972971556, -78363.67378993914, -49105.95555376477, -88926.79529509488, -31960.915858854754, 0.0, 0.0, 0.0, 193.0, 0.0, 1.0, 1.0, 0.0, 0.0, 1.0, 1.0, 256.0, 1.0, 1.750528716742422E9, 0.0, 2025-06-21 19:58:36.742
172.0, -44126.27746180027, -38072.53099352491, -30152.905601609422, -73288.68785961722, -27811.91799782729, -28669.91206048871, -52955.082411179836, -101050.29208067562, -187500.02235174447, -187500.02235174447, -48465.62277860913, -47054.7583168457, -78362.10916782728, -49126.7426761082, -88938.01587081145, -31979.512510241573, 0.0, 0.0, 0.0, 193.0, 0.0, 1.0, 1.0, 0.0, 0.0, 1.0, 1.0, 256.0, 1.0, 1.750528716750512E9, 0.0, 2025-06-21 19:58:36.750
174.0, -44110.54183370374, -38057.30945555084, -30138.041691546645, -73275.03094375503, -27756.64213378932, -28642.844097953333, -52912.47998624802, -101010.75184473419, -187500.02235174447, -187500.02235174447, -48466.762717576355, -47068.4599361968, -78362.93618237213, -49130.78834185462, -88928.85165558477, -31986.396847533808, 0.0, 0.0, 0.0, 193.0, 0.0, 1.0, 1.0, 0.0, 0.0, 1.0, 1.0, 256.0, 1.0, 1.75052871675752E9, 0.0, 2025-06-21 19:58:36.757
176.0, -44168.723424520904, -38089.3395053553, -30182.991049646265, -73311.06195581699, -27878.235623626188, -28679.456255371126, -52952.93664371212, -101056.21529295627, -187500.02235174447, -187500.02235174447, -48474.92110430254, -47069.28695074165, -78376.41428427867, -49121.2441469722, -88946.42012672665, -31978.61844046336, 0.0, 0.0, 0.0, 193.0, 0.0, 1.0, 1.0, 0.0, 0.0, 1.0, 1.0, 256.0, 1.0, 1.750528716766549E9, 0.0, 2025-06-21 19:58:36.766
178.0, -44152.384299324076, -38095.24036589151, -30170.63053496248, -73310.5031622056, -27818.60116941943, -28680.126807704786, -52948.73451575453, -101056.05883074508, -187500.02235174447, -187500.02235174447, -48507.06291282927, -47099.14888133394, -78398.81073222289, -49156.202275300304, -88953.43857448561, -32009.44149606723, 0.0, 0.0, 0.0, 193.0, 0.0, 1.0, 1.0, 0.0, 0.0, 1.0, 1.0, 256.0, 1.0, 1.75052871677458E9, 0.0, 2025-06-21 19:58:36.774
180.0, -44117.73909541835, -38070.45228129057, -30132.699624621826, -73267.99014425161, -27804.74308785714, -28693.29198518896, -52916.50330024998, -101024.76638850766, -187500.02235174447, -187500.02235174447, -48463.83463905271, -47068.34817747452, -78369.44054000861, -49108.28013518812, -88929.27633872943, -31967.08494032442, 0.0, 0.0, 0.0, 193.0, 0.0, 1.0, 1.0, 0.0, 0.0, 1.0, 1.0, 256.0, 1.0, 1.750528716782618E9, 0.0, 2025-06-21 19:58:36.782
182.0, -44118.744923918835, -38072.82156620283, -30130.196229242832, -73282.20585372519, -27812.230922249666, -28683.591328095357, -52917.732646195014, -101024.87814722993, -187500.02235174447, -187500.02235174447, -48444.25451090986, -47051.0032237772, -78348.72047289854, -49090.89047800189, -88900.35318140427, -31949.00237906008, 0.0, 0.0, 0.0, 193.0, 0.0, 1.0, 1.0, 0.0, 0.0, 1.0, 1.0, 256.0, 1.0, 1.750528716791642E9, 0.0, 2025-06-21 19:58:36.791
184.0, -44145.74583122085, -38079.996476172986, -30164.126177325987, -73293.8511125864, -27836.639027194862, -28649.95195269012, -52943.325393596344, -101044.61473758396, -187500.02235174447, -187500.02235174447, -48470.00372052237, -47075.478383955764, -78368.3006010414, -49118.40547542638, -88923.30842295986, -31973.589297960916, 0.0, 0.0, 0.0, 193.0, 0.0, 1.0, 1.0, 0.0, 0.0, 1.0, 1.0, 256.0, 1.0, 1.750528716798625E9, 0.0, 2025-06-21 19:58:36.798
186.0, -44135.0169938823, -38087.14903439868, -30141.81913635959, -73279.36718217935, -27816.544808929542, -28695.705973590135, -52929.95905041207, -101033.72943803424, -187500.02235174447, -187500.02235174447, -48479.83848808271, -47077.91472410139, -78384.12563611576, -49111.588193367505, -88938.77583012293, -31968.247231036097, 0.0, 0.0, 0.0, 193.0, 0.0, 1.0, 1.0, 0.0, 0.0, 1.0, 1.0, 256.0, 1.0, 1.750528716805694E9, 0.0, 2025-06-21 19:58:36.805
188.0, -44158.32986334919, -38090.613554789255, -30169.31178203962, -73308.02211857107, -27849.692445956764, -28642.53117353096, -52954.657728035185, -101056.93054877885, -187500.02235174447, -187500.02235174447, -48479.52556366033, -47071.142145531434, -78373.1509295882, -49121.06533301656, -88916.982879279, -31973.097559582897, 0.0, 0.0, 0.0, 193.0, 0.0, 1.0, 1.0, 0.0, 0.0, 1.0, 1.0, 256.0, 1.0, 1.750528716813797E9, 0.0, 2025-06-21 19:58:36.813
190.0, -44134.52525550428, -38065.71371146604, -30155.78897664416, -73280.30595544649, -27828.41358523531, -28667.095740687342, -52923.20882358657, -101023.42528384033, -187500.02235174447, -187500.02235174447, -48503.06195057177, -47095.95258187683, -78401.42588632416, -49136.979775068736, -88962.24516180101, -31991.113065613878, 0.0, 0.0, 0.0, 193.0, 0.0, 1.0, 1.0, 0.0, 0.0, 1.0, 1.0, 256.0, 1.0, 1.750528716822714E9, 0.0, 2025-06-21 19:58:36.822
192.0, -44159.24628487186, -38107.22090091955, -30173.290392552663, -73312.1571912953, -27811.91799782729, -28677.198729181142, -52950.67911752214, -101053.66719408837, -187500.02235174447, -187500.02235174447, -48457.8890750276, -47056.904084313406, -78360.70100792659, -49099.69706531728, -88912.31136468785, -31954.456204707174, 0.0, 0.0, 0.0, 193.0, 0.0, 1.0, 1.0, 0.0, 0.0, 1.0, 1.0, 256.0, 1.0, 1.750528716829736E9, 0.0, 2025-06-21 19:58:36.829
194.0, -44153.703052246936, -38084.62328727523, -30171.63636346297, -73304.31172899148, -27842.60694296443, -28692.710839833122, -52944.62179477475, -101040.16674043736, -187500.02235174447, -187500.02235174447, -48513.74608442141, -47107.17315759339, -78409.09253467232, -49159.286816035135, -88966.29082754742, -32012.30251935751, 0.0, 0.0, 0.0, 193.0, 0.0, 1.0, 1.0, 0.0, 0.0, 1.0, 1.0, 256.0, 1.0, 1.750528716837853E9, 0.0, 2025-06-21 19:58:36.837
196.0, -44157.59225578216, -38101.90118573918, -30179.124197855497, -73316.06874657498, -27864.668114741817, -28701.048040514954, -52942.87835870724, -101053.48838013272, -187500.02235174447, -187500.02235174447, -48491.03671205482, -47089.13529981796, -78396.1061711438, -49131.5483011661, -88960.85935364477, -31987.357972545386, 0.0, 0.0, 0.0, 193.0, 0.0, 1.0, 1.0, 0.0, 0.0, 1.0, 1.0, 256.0, 1.0, 1.750528716846801E9, 0.0, 2025-06-21 19:58:36.846
198.0, -44141.99073815236, -38083.17042388564, -30159.186441801365, -73307.86565635988, -27836.907248128326, -28673.488339601558, -52961.76558277197, -101060.97621452526, -187500.02235174447, -187500.02235174447, -48483.526525917834, -47082.60859043701, -78382.53866225942, -49143.95351933879, -88940.11693479025, -31996.164559860776, 0.0, 0.0, 0.0, 193.0, 0.0, 1.0, 1.0, 0.0, 0.0, 1.0, 1.0, 256.0, 1.0, 1.750528716854824E9, 0.0, 2025-06-21 19:58:36.854
200.0, -44179.139337437075, -38103.10817993977, -30203.353488845052, -73330.9103048933, -27864.824576953004, -28620.112373842287, -52940.598480772795, -101055.00829875568, -187500.02235174447, -187500.02235174447, -48502.39139823811, -47100.4676342568, -78404.26455786999, -49141.74069663772, -88960.47937398903, -31999.606728506893, 0.0, 0.0, 0.0, 193.0, 0.0, 1.0, 1.0, 0.0, 0.0, 1.0, 1.0, 256.0, 1.0, 1.750528716861802E9, 0.0, 2025-06-21 19:58:36.861
202.0, -44170.913895477526, -38107.15384568618, -30181.26996532321, -73328.45161300321, -27862.790568207573, -28697.181188724186, -52984.56436211638, -101079.08112753405, -187500.02235174447, -187500.02235174447, -48519.043447857315, -47115.979744908786, -78416.08863068683, -49162.66192944789, -88980.37242655426, -32018.449249082718, 0.0, 0.0, 0.0, 193.0, 0.0, 1.0, 1.0, 0.0, 0.0, 1.0, 1.0, 256.0, 1.0, 1.750528716869892E9, 0.0, 2025-06-21 19:58:36.869
204.0, -44143.48830503086, -38077.20250811607, -30155.54310745515, -73299.19317951122, -27820.1657915313, -28697.136485235274, -52948.063963420864, -101055.34357492252, -187500.02235174447, -187500.02235174447, -48502.480805215935, -47102.188718579855, -78401.3588310908, -49153.81063864358, -88948.23061802753, -32014.58239729195, 0.0, 0.0, 0.0, 193.0, 0.0, 1.0, 1.0, 0.0, 0.0, 1.0, 1.0, 256.0, 1.0, 1.750528716877943E9, 0.0, 2025-06-21 19:58:36.877
206.0, -44152.96544467991, -38084.2880111084, -30185.78501770318, -73321.27670303306, -27885.34347836298, -28700.086915503376, -52956.959957714076, -101077.65061588891, -187500.02235174447, -187500.02235174447, -48479.190287493504, -47076.48421245626, -78384.52796751594, -49127.27911797514, -88955.98667335352, -31988.587318490427, 0.0, 0.0, 0.0, 193.0, 0.0, 1.0, 1.0, 0.0, 0.0, 1.0, 1.0, 256.0, 1.0, 1.750528716885962E9, 0.0, 2025-06-21 19:58:36.885
208.0, -44173.52904957879, -38117.3462411578, -30186.567328759116, -73325.88116239086, -27838.158945817824, -28696.331822434884, -52979.37875740275, -101089.13941253895, -187500.02235174447, -187500.02235174447, -48516.76356992288, -47102.211070324316, -78410.008956195, -49169.345101040024, -88965.62027521376, -32023.500743329616, 0.0, 0.0, 0.0, 193.0, 0.0, 1.0, 1.0, 0.0, 0.0, 1.0, 1.0, 256.0, 1.0, 1.750528716893988E9, 0.0, 2025-06-21 19:58:36.893
210.0, -44162.84491572916, -38095.4415315916, -30181.538186256672, -73313.4982959626, -27853.581649491985, -28676.595232080846, -52947.90750120968, -101057.89167379042, -187500.02235174447, -187500.02235174447, -48497.451662713494, -47091.6163434525, -78399.28011885645, -49136.91271983537, -88953.84090588581, -31996.388077305328, 0.0, 0.0, 0.0, 193.0, 0.0, 1.0, 1.0, 0.0, 0.0, 1.0, 1.0, 256.0, 1.0, 1.750528716902025E9, 0.0, 2025-06-21 19:58:36.902
212.0, -44172.16559316702, -38106.125665441235, -30198.838436465077, -73334.59834272842, -27842.78575692007, -28697.91879629121, -52961.56441707187, -101080.60104615701, -187500.02235174447, -187500.02235174447, -48521.16686358057, -47112.068189629106, -78419.30728188841, -49163.10896433699, -88976.1032433633, -32017.331661859953, 0.0, 0.0, 0.0, 193.0, 0.0, 1.0, 1.0, 0.0, 0.0, 1.0, 1.0, 256.0, 1.0, 1.750528716911043E9, 0.0, 2025-06-21 19:58:36.911
214.0, -44148.00335741083, -38085.562060542354, -30172.59748847455, -73311.71015640619, -27818.154134530323, -28683.05488622843, -52949.80739948838, -101055.12005747797, -187500.02235174447, -187500.02235174447, -48508.02403784085, -47095.32673303208, -78403.77281949196, -49158.102173579, -88954.01971984145, -32013.889493213836, 0.0, 0.0, 0.0, 193.0, 0.0, 1.0, 1.0, 0.0, 0.0, 1.0, 1.0, 256.0, 1.0, 1.750528716917026E9, 0.0, 2025-06-21 19:58:36.917
216.0, -44176.635942058085, -38107.98086023103, -30196.424448063906, -73334.88891540634, -27881.633088783397, -28698.365831180316, -52974.88605676724, -101086.14427878193, -187500.02235174447, -187500.02235174447, -48479.65967412707, -47073.44437521033, -78384.28209832693, -49125.33451620752, -88946.75540289348, -31983.625231221347, 0.0, 0.0, 0.0, 193.0, 0.0, 1.0, 1.0, 0.0, 0.0, 1.0, 1.0, 256.0, 1.0, 1.750528716926092E9, 0.0, 2025-06-21 19:58:36.926
218.0, -44188.32590440821, -38133.193627976616, -30196.223282363808, -73345.52834576707, -27839.991788863157, -28661.127824917774, -52987.06775749538, -101094.07914806357, -187500.02235174447, -187500.02235174447, -48537.95302366651, -47138.42089634191, -78435.57935185186, -49203.40915958991, -88995.14692963922, -32055.933124534266, 0.0, 0.0, 0.0, 193.0, 0.0, 1.0, 1.0, 0.0, 0.0, 1.0, 1.0, 256.0, 1.0, 1.750528716934114E9, 0.0, 2025-06-21 19:58:36.934
220.0, -44171.875020489104, -38110.12662769874, -30191.283546839186, -73325.12120307937, -27853.358132047433, -28692.599081110846, -52959.48570483753, -101067.14529599492, -187500.02235174447, -187500.02235174447, -48509.14162506362, -47111.75526520673, -78414.99339520853, -49151.91074036488, -88964.86031590228, -32011.207283879197, 0.0, 0.0, 0.0, 193.0, 0.0, 1.0, 1.0, 0.0, 0.0, 1.0, 1.0, 256.0, 1.0, 1.750528716942153E9, 0.0, 2025-06-21 19:58:36.942
222.0, -44198.47359639092, -38129.03620350793, -30217.613901807537, -73359.45348256272, -27906.51058036215, -28691.414438654716, -52995.762586088495, -101113.6145727175, -187500.02235174447, -187500.02235174447, -48534.7567242094, -47127.40148632544, -78433.50063961753, -49179.11281336699, -88993.98463892755, -32031.748537033625, 0.0, 0.0, 0.0, 193.0, 0.0, 1.0, 1.0, 0.0, 0.0, 1.0, 1.0, 256.0, 1.0, 1.750528716949145E9, 0.0, 2025-06-21 19:58:36.949
224.0, -44151.71374699041, -38095.59799380279, -30185.270927580706, -73317.47690647565, -27833.867410882405, -28702.523255649005, -52939.16796912766, -101054.04717374411, -187500.02235174447, -187500.02235174447, -48530.80046544081, -47115.756227464226, -78424.40347962422, -49180.69978722332, -88986.29563883491, -32034.184877179254, 0.0, 0.0, 0.0, 193.0, 0.0, 1.0, 1.0, 0.0, 0.0, 1.0, 1.0, 256.0, 1.0, 1.750528716958188E9, 0.0, 2025-06-21 19:58:36.958
226.0, -44185.442529373475, -38113.38998238921, -30201.878273711, -73346.7129882232, -27880.51550156063, -28671.253165156028, -53007.653714138716, -101105.67970343588, -187500.02235174447, -187500.02235174447, -48503.33017150524, -47096.89135514395, -78408.1090579163, -49144.4005542279, -88966.06731010287, -32004.881740198343, 0.0, 0.0, 0.0, 193.0, 0.0, 1.0, 1.0, 0.0, 0.0, 1.0, 1.0, 256.0, 1.0, 1.750528716966218E9, 0.0, 2025-06-21 19:58:36.966
228.0, -44207.816625573236, -38148.75044211751, -30219.178523919407, -73368.19301464476, -27873.56410903503, -28710.882808075286, -53012.90637408572, -101126.06449437911, -187500.02235174447, -187500.02235174447, -48537.23776784394, -47137.28095737469, -78434.28295067346, -49197.32948509807, -88985.64743824571, -32054.927296033777, 0.0, 0.0, 0.0, 193.0, 0.0, 1.0, 1.0, 0.0, 0.0, 1.0, 1.0, 256.0, 1.0, 1.750528716973281E9, 0.0, 2025-06-21 19:58:36.973
230.0, -44177.530011836294, -38121.995404004505, -30194.792770718668, -73332.47492700517, -27862.49999552965, -28713.654424387747, -52978.88701902473, -101086.4572032043, -187500.02235174447, -187500.02235174447, -48529.66052647359, -47123.33346883458, -78431.57838959438, -49175.76005169869, -88988.08377839134, -32035.458926613206, 0.0, 0.0, 0.0, 193.0, 0.0, 1.0, 1.0, 0.0, 0.0, 1.0, 1.0, 256.0, 1.0, 1.750528716982297E9, 0.0, 2025-06-21 19:58:36.982
232.0, -44199.479424891404, -38129.97497677505, -30208.896721469966, -73343.9637236552, -27875.396952080366, -28723.891523348277, -52974.72959455605, -101087.73125263826, -187500.02235174447, -187500.02235174447, -48518.70817169049, -47108.44720702734, -78417.69795628762, -49173.43547027534, -88982.87582193325, -32027.322891631473, 0.0, 0.0, 0.0, 193.0, 0.0, 1.0, 1.0, 0.0, 0.0, 1.0, 1.0, 256.0, 1.0, 1.750528716990329E9, 0.0, 2025-06-21 19:58:36.990
234.0, -44163.202543640444, -38103.175235173134, -30175.011476875723, -73323.89185713432, -27854.252201825646, -28699.90810154773, -52966.03476596293, -101067.23470297274, -187500.02235174447, -187500.02235174447, -48524.87725316015, -47113.3198873186, -78417.98852896554, -49180.2080488453, -88982.02645564395, -32032.061461456, 0.0, 0.0, 0.0, 193.0, 0.0, 1.0, 1.0, 0.0, 0.0, 1.0, 1.0, 256.0, 1.0, 1.750528716997372E9, 0.0, 2025-06-21 19:58:36.997
236.0, -44195.09848297817, -38134.087697754825, -30198.033773664687, -73341.37092129838, -27901.101458203968, -28722.863343103334, -52997.01428377799, -101102.8633836345, -187500.02235174447, -187500.02235174447, -48507.84522388521, -47113.81162569662, -78417.63090105426, -49150.949615353304, -88972.92929565064, -32008.346260588918, 0.0, 0.0, 0.0, 193.0, 0.0, 1.0, 1.0, 0.0, 0.0, 1.0, 1.0, 256.0, 1.0, 1.750528717005362E9, 0.0, 2025-06-21 19:58:37.005
238.0, -44223.328736225216, -38156.86412535478, -30232.79073629269, -73372.66336353582, -27914.937188021802, -28683.568976350904, -53014.7615688755, -101136.90509043993, -187500.02235174447, -187500.02235174447, -48548.03366041585, -47141.37132661001, -78445.28000894547, -49196.39071183094, -88990.02838015895, -32047.23829594115, 0.0, 0.0, 0.0, 193.0, 0.0, 1.0, 1.0, 0.0, 0.0, 1.0, 1.0, 256.0, 1.0, 1.750528717014343E9, 0.0, 2025-06-21 19:58:37.014
240.0, -44167.27056113131, -38101.83413050582, -30187.059067137132, -73322.5060489781, -27850.81003317953, -28724.763241382032, -52988.61002786279, -101092.20160152932, -187500.02235174447, -187500.02235174447, -48529.526416006855, -47129.591957282064, -78435.93697976315, -49174.21778133128, -88993.02351391596, -32029.043975954533, 0.0, 0.0, 0.0, 193.0, 0.0, 1.0, 1.0, 0.0, 0.0, 1.0, 1.0, 256.0, 1.0, 1.750528717022434E9, 0.0, 2025-06-21 19:58:37.022
242.0, -44192.908012021544, -38131.293729697914, -30202.370012089017, -73344.25429633312, -27853.156966347335, -28701.271557959506, -53004.703283870615, -101095.37554924197, -187500.02235174447, -187500.02235174447, -48506.07943607324, -47101.89814590194, -78407.32674686036, -49150.055545575095, -88960.5017257335, -32003.47358029766, 0.0, 0.0, 0.0, 193.0, 0.0, 1.0, 1.0, 0.0, 0.0, 1.0, 1.0, 256.0, 1.0, 1.750528717029427E9, 0.0, 2025-06-21 19:58:37.029
244.0, -44202.80983481525, -38135.36174718878, -30215.445782595372, -73348.23290684615, -27905.348289650476, -28718.39299421227, -52987.33597842884, -101101.94696211183, -187500.02235174447, -187500.02235174447, -48553.7110035075, -47141.14780916546, -78445.03413975646, -49189.52872628316, -88992.39766507121, -32041.29273191604, 0.0, 0.0, 0.0, 193.0, 0.0, 1.0, 1.0, 0.0, 0.0, 1.0, 1.0, 256.0, 1.0, 1.750528717037475E9, 0.0, 2025-06-21 19:58:37.037
246.0, -44199.97116326942, -38138.04395652342, -30210.59545404857, -73345.97538065618, -27869.540795033074, -28674.851796013332, -52983.022091748964, -101101.65638943392, -187500.02235174447, -187500.02235174447, -48528.23001482845, -47117.94669842085, -78429.05264247092, -49152.603644443, -88977.6008102418, -32008.256853611096, 0.0, 0.0, 0.0, 193.0, 0.0, 1.0, 1.0, 0.0, 0.0, 1.0, 1.0, 256.0, 1.0, 1.750528717047509E9, 0.0, 2025-06-21 19:58:37.047
248.0, -44213.22574773142, -38140.83792458033, -30212.07066918262, -73354.42434006029, -27899.872112258927, -28675.142368691253, -53001.10465301331, -101116.14031984095, -187500.02235174447, -187500.02235174447, -48551.25231161741, -47139.09144867557, -78443.42481415567, -49191.07099665058, -88987.4579295466, -32038.901095259323, 0.0, 0.0, 0.0, 193.0, 0.0, 1.0, 1.0, 0.0, 0.0, 1.0, 1.0, 256.0, 1.0, 1.75052871705452E9, 0.0, 2025-06-21 19:58:37.054
250.0, -44197.3336574237, -38142.15667750319, -30215.02109945072, -73345.84127018944, -27885.18701615179, -28760.995419144085, -52988.207696462596, -101094.16855504138, -187500.02235174447, -187500.02235174447, -48546.98312842645, -47138.15267540845, -78451.22557297058, -49182.622037246474, -88998.54439479642, -32037.358824891908, 0.0, 0.0, 0.0, 193.0, 0.0, 1.0, 1.0, 0.0, 0.0, 1.0, 1.0, 256.0, 1.0, 1.75052871706153E9, 0.0, 2025-06-21 19:58:37.061
252.0, -44221.875872835626, -38147.20817175009, -30221.659567553947, -73358.69352325125, -27888.740943520184, -28722.885694847788, -53006.044388537935, -101109.5689069711, -187500.02235174447, -187500.02235174447, -48536.14253236563, -47121.79119846716, -78437.68041583066, -49169.613321973484, -88979.5007085205, -32019.924464216765, 0.0, 0.0, 0.0, 193.0, 0.0, 1.0, 1.0, 0.0, 0.0, 1.0, 1.0, 256.0, 1.0, 1.750528717070603E9, 0.0, 2025-06-21 19:58:37.070
254.0, -44232.87293110764, -38158.629913166755, -30240.099756729574, -73372.70806702472, -27921.2403799582, -28681.713781561113, -53012.14641477423, -101120.58831698756, -187500.02235174447, -187500.02235174447, -48568.552561825825, -47149.77558252521, -78463.58608765437, -49199.54230779914, -88999.77374074147, -32050.255781442618, 0.0, 0.0, 0.0, 193.0, 0.0, 1.0, 1.0, 0.0, 0.0, 1.0, 1.0, 256.0, 1.0, 1.750528717078594E9, 0.0, 2025-06-21 19:58:37.078
0.0, -44196.55134636776, -38145.80001184941, -30210.327233115106, -73347.87527893488, -27862.14236761837, -28729.74768039557, -53001.68579836915, -101098.63890393244, -187500.02235174447, -187500.02235174447, -48555.02975643036, -47147.74157377977, -78459.69688411914, -49178.77753720016, -89007.57449955637, -32033.134345189854, 0.0, 0.0, 0.0, 193.0, 0.0, 1.0, 1.0, 0.0, 0.0, 1.0, 1.0, 256.0, 1.0, 1.750528717085632E9, 0.0, 2025-06-21 19:58:37.085
2.0, -44250.91078888307, -38176.75717792001, -30246.22413471033, -73392.53406435657, -27952.935153595827, -28740.02948284501, -53056.246406584556, -101186.14598347497, -187500.02235174447, -187500.02235174447, -48547.89954994912, -47143.38298361099, -78445.97291302358, -49196.16719438639, -88988.39670281371, -32048.557048864015, 0.0, 0.0, 0.0, 193.0, 0.0, 1.0, 1.0, 0.0, 0.0, 1.0, 1.0, 256.0, 1.0, 1.750528717093664E9, 0.0, 2025-06-21 19:58:37.093
4.0, -44233.23055901892, -38158.473450955564, -30232.254294425762, -73363.87912796487, -27927.38710968341, -28708.78174409649, -53043.505912245026, -101123.98578214477, -187500.02235174447, -187500.02235174447, -48587.59624810174, -47172.99904501427, -78486.04959083196, -49230.298308169644, -89055.89897106875, -32081.659982402325, 0.0, 0.0, 0.0, 193.0, 0.0, 1.0, 1.0, 0.0, 0.0, 1.0, 1.0, 256.0, 1.0, 1.750528717102713E9, 0.0, 2025-06-21 19:58:37.102
6.0, -44233.43172471902, -38162.51911670198, -30233.64010258199, -73375.12205542589, -27889.791475509584, -28700.332784692382, -53051.39607803775, -101157.22282614981, -187500.02235174447, -187500.02235174447, -48541.52930277936, -47129.30138460414, -78440.00499725401, -49178.17404009987, -88984.82042370086, -32031.43561261125, 0.0, 0.0, 0.0, 193.0, 0.0, 1.0, 1.0, 0.0, 0.0, 1.0, 1.0, 256.0, 1.0, 1.750528717109787E9, 0.0, 2025-06-21 19:58:37.109
8.0, -44206.22965171691, -38141.419069936164, -30209.477866825804, -73348.18820335725, -27900.050926214568, -28743.583410213403, -52999.71884485708, -101125.43864553436, -187500.02235174447, -187500.02235174447, -48556.97435819797, -47149.84263775857, -78455.49475616154, -49202.9621247008, -89001.62893553126, -32056.938953034754, 0.0, 0.0, 0.0, 193.0, 0.0, 1.0, 1.0, 0.0, 0.0, 1.0, 1.0, 256.0, 1.0, 1.750528717117769E9, 0.0, 2025-06-21 19:58:37.117
10.0, -44225.27333799283, -38154.159564275695, -30226.442840867385, -73360.5710697855, -27897.56988258003, -28735.559133953946, -53012.034656051954, -101123.53874725566, -187500.02235174447, -187500.02235174447, -48548.57010228278, -47139.94081496487, -78454.46657591661, -49179.358682556, -89005.69695302212, -32037.023548725076, 0.0, 0.0, 0.0, 193.0, 0.0, 1.0, 1.0, 0.0, 0.0, 1.0, 1.0, 256.0, 1.0, 1.750528717125784E9, 0.0, 2025-06-21 19:58:37.125
12.0, -44234.012870074854, -38160.68627365664, -30230.287340913696, -73376.0161252041, -27934.24909523119, -28631.601170492315, -53016.25913575401, -101125.52805251218, -187500.02235174447, -187500.02235174447, -48546.78196272635, -47131.491855560766, -78440.74260482105, -49185.281894836655, -88980.05950213189, -32036.73297604716, 0.0, 0.0, 0.0, 193.0, 0.0, 1.0, 1.0, 0.0, 0.0, 1.0, 1.0, 256.0, 1.0, 1.750528717134843E9, 0.0, 2025-06-21 19:58:37.134
14.0, -44213.89630006508, -38147.36463396128, -30215.065802939633, -73356.14542438334, -27881.700144016762, -28748.59020097139, -53014.359237475306, -101129.48431128077, -187500.02235174447, -187500.02235174447, -48567.74789902543, -47170.13802172399, -78473.19733777015, -49198.38001708747, -89015.62112756028, -32054.8155373115, 0.0, 0.0, 0.0, 193.0, 0.0, 1.0, 1.0, 0.0, 0.0, 1.0, 1.0, 256.0, 1.0, 1.750528717141841E9, 0.0, 2025-06-21 19:58:37.141
16.0, -44220.84769259068, -38165.87187837027, -30221.97249197632, -73362.04628491955, -27873.65351601285, -28742.666988690733, -53046.74691519105, -101125.8186251901, -187500.02235174447, -187500.02235174447, -48539.6070527562, -47127.96027993683, -78439.82618329837, -49179.895124422925, -88985.66978999016, -32033.223752167676, 0.0, 0.0, 0.0, 193.0, 0.0, 1.0, 1.0, 0.0, 0.0, 1.0, 1.0, 256.0, 1.0, 1.750528717149874E9, 0.0, 2025-06-21 19:58:37.149
18.0, -44226.45798044896, -38156.12651778776, -30215.043451195175, -73349.55165976903, -27924.906066048872, -28715.084936032887, -53004.144490259234, -101115.9168023964, -187500.02235174447, -187500.02235174447, -48565.468021090994, -47149.77558252521, -78459.22749748558, -49204.77261600168, -89005.78635999994, -32055.307275689516, 0.0, 0.0, 0.0, 193.0, 0.0, 1.0, 1.0, 0.0, 0.0, 1.0, 1.0, 256.0, 1.0, 1.750528717157917E9, 0.0, 2025-06-21 19:58:37.157
20.0, -44243.892341124105, -38170.87866912826, -30233.21541943734, -73377.33487812697, -27916.300644433577, -28696.287118945973, -53028.753760904525, -101135.13930262797, -187500.02235174447, -187500.02235174447, -48545.329099336755, -47131.4248003274, -78447.4704799021, -49176.609417987995, -88999.32670585236, -32031.256798655606, 0.0, 0.0, 0.0, 193.0, 0.0, 1.0, 1.0, 0.0, 0.0, 1.0, 1.0, 256.0, 1.0, 1.750528717165966E9, 0.0, 2025-06-21 19:58:37.165
22.0, -44239.399640488584, -38179.55114597692, -30241.597323608083, -73389.6730410663, -27910.533894364107, -28701.78564808198, -53051.86546467131, -101155.14411391546, -187500.02235174447, -187500.02235174447, -48582.745919554945, -47182.14090849649, -78480.19343378466, -49230.41006689192, -89019.64444156224, -32082.375238224893, 0.0, 0.0, 0.0, 193.0, 0.0, 1.0, 1.0, 0.0, 0.0, 1.0, 1.0, 256.0, 1.0, 1.750528717173982E9, 0.0, 2025-06-21 19:58:37.173
24.0, -44201.80400631476, -38141.016738535975, -30201.475942310804, -73338.73341545265, -27891.51255983264, -28743.06932009093, -53010.82766185137, -101120.9235931544, -187500.02235174447, -187500.02235174447, -48539.09296263373, -47134.73285850679, -78443.89420078925, -49177.324673810566, -88993.33643833835, -32033.00023472312, 0.0, 0.0, 0.0, 193.0, 0.0, 1.0, 1.0, 0.0, 0.0, 1.0, 1.0, 256.0, 1.0, 1.750528717181957E9, 0.0, 2025-06-21 19:58:37.181
26.0, -44241.590111445206, -38174.09732032983, -30234.198896193375, -73381.08997119546, -27923.542609637097, -28682.607851339326, -53051.21726408211, -101169.13630594448, -187500.02235174447, -187500.02235174447, -48544.2562156029, -47133.592919539566, -78445.3694159233, -49182.93496166885, -88988.5531650249, -32037.13530744735, 0.0, 0.0, 0.0, 193.0, 0.0, 1.0, 1.0, 0.0, 0.0, 1.0, 1.0, 256.0, 1.0, 1.750528717190052E9, 0.0, 2025-06-21 19:58:37.190
28.0, -44239.064364321755, -38172.08566332885, -30231.002596736267, -73367.79068324456, -27879.62143178242, -28738.017825844032, -53033.648792940236, -101123.0693606221, -187500.02235174447, -187500.02235174447, -48585.83046028978, -47175.72595783782, -78481.1769105407, -49223.033991221666, -89020.516159596, -32078.173110267297, 0.0, 0.0, 0.0, 193.0, 0.0, 1.0, 1.0, 0.0, 0.0, 1.0, 1.0, 256.0, 1.0, 1.750528717197106E9, 0.0, 2025-06-21 19:58:37.197
30.0, -44228.67080315004, -38165.827174881364, -30211.89185522698, -73351.71977898119, -27902.733135549206, -28732.58635194139, -53035.615746452306, -101139.09556139655, -187500.02235174447, -187500.02235174447, -48530.66635497408, -47114.59393675256, -78433.03125298396, -49153.52006596566, -88978.02549338645, -32009.977937934156, 0.0, 0.0, 0.0, 193.0, 0.0, 1.0, 1.0, 0.0, 0.0, 1.0, 1.0, 256.0, 1.0, 1.750528717206185E9, 0.0, 2025-06-21 19:58:37.206
32.0, -44240.22665503343, -38176.041922097436, -30226.152268189464, -73375.14440717034, -27926.42598467183, -28716.8283721004, -53046.724563446594, -101142.53773004268, -187500.02235174447, -187500.02235174447, -48571.480640349466, -47163.27603617621, -78468.8163958569, -49216.663744051904, -89007.61920304528, -32070.43940668576, 0.0, 0.0, 0.0, 193.0, 0.0, 1.0, 1.0, 0.0, 0.0, 1.0, 1.0, 256.0, 1.0, 1.75052871721418E9, 0.0, 2025-06-21 19:58:37.214
34.0, -44244.49583822439, -38177.76300642049, -30238.512782873247, -73375.18911065927, -27926.269522460643, -28724.58442742639, -53051.820761182404, -101133.90995668292, -187500.02235174447, -187500.02235174447, -48562.33877686725, -47156.458754117346, -78467.29647723395, -49189.97576117227, -89007.88742397874, -32044.19845869523, 0.0, 0.0, 0.0, 193.0, 0.0, 1.0, 1.0, 0.0, 0.0, 1.0, 1.0, 256.0, 1.0, 1.750528717222176E9, 0.0, 2025-06-21 19:58:37.222
36.0, -44268.88159142513, -38200.427675298175, -30254.762501092257, -73406.45920115223, -27926.761260838663, -28724.20444777065, -53068.69632824616, -101197.72418710282, -187500.02235174447, -187500.02235174447, -48572.28530314986, -47173.37902467001, -78478.65116341725, -49213.109816683515, -89021.87961600776, -32066.10316826143, 0.0, 0.0, 0.0, 193.0, 0.0, 1.0, 1.0, 0.0, 0.0, 1.0, 1.0, 256.0, 1.0, 1.750528717229263E9, 0.0, 2025-06-21 19:58:37.229
38.0, -44237.253873020876, -38169.91754411668, -30232.6342740815, -73369.55647105652, -27890.774952265616, -28720.67287214671, -53045.09288610135, -101119.96246814281, -187500.02235174447, -187500.02235174447, -48578.812012530805, -47173.490783392284, -78480.1263785513, -49228.10783721302, -89024.29360440894, -32079.625973656894, 0.0, 0.0, 0.0, 193.0, 0.0, 1.0, 1.0, 0.0, 0.0, 1.0, 1.0, 256.0, 1.0, 1.750528717238293E9, 0.0, 2025-06-21 19:58:37.238
40.0, -44245.90399812508, -38175.6619424417, -30250.470966156838, -73385.09093345296, -27923.743775337196, -28745.840936403387, -53075.804182982945, -101167.70579429934, -187500.02235174447, -187500.02235174447, -48560.08125067726, -47147.361594124035, -78463.18375625418, -49196.748339742226, -89020.516159596, -32050.814575054002, 0.0, 0.0, 0.0, 193.0, 0.0, 1.0, 1.0, 0.0, 0.0, 1.0, 1.0, 256.0, 1.0, 1.750528717246379E9, 0.0, 2025-06-21 19:58:37.246
42.0, -44258.219809319955, -38187.19544258063, -30241.776137563724, -73389.2707096661, -27922.648539858885, -28682.853720528332, -53062.92957817669, -101150.80787549114, -187500.02235174447, -187500.02235174447, -48584.17643120008, -47174.74248108178, -78480.41695122921, -49232.44407563735, -89020.98554622955, -32084.364543481417, 0.0, 0.0, 0.0, 193.0, 0.0, 1.0, 1.0, 0.0, 0.0, 1.0, 1.0, 256.0, 1.0, 1.750528717253347E9, 0.0, 2025-06-21 19:58:37.253
44.0, -44235.71160265346, -38169.29169527193, -30229.99676823578, -73369.44471233424, -27894.172417422822, -28730.150011795762, -53036.06278134141, -101159.0780209396, -187500.02235174447, -187500.02235174447, -48568.23963740345, -47161.554951853155, -78471.63271565828, -49199.899935710426, -89016.73871478304, -32056.49191814565, 0.0, 0.0, 0.0, 193.0, 0.0, 1.0, 1.0, 0.0, 0.0, 1.0, 1.0, 256.0, 1.0, 1.750528717261315E9, 0.0, 2025-06-21 19:58:37.261
46.0, -44238.930253855026, -38174.83492789685, -30223.559465832648, -73373.44567459174, -27911.964406009247, -28741.236477045593, -53065.70119448915, -101153.19951214785, -187500.02235174447, -187500.02235174447, -48553.04045117384, -47145.93108247889, -78456.29941896193, -49194.35670308551, -88998.0079529295, -32051.70864483221, 0.0, 0.0, 0.0, 193.0, 0.0, 1.0, 1.0, 0.0, 0.0, 1.0, 1.0, 256.0, 1.0, 1.750528717270393E9, 0.0, 2025-06-21 19:58:37.270
48.0, -44284.72897824395, -38206.239128856556, -30272.55448967868, -73406.90623604134, -27932.63976963041, -28732.58635194139, -53063.1754473657, -101168.24223616628, -187500.02235174447, -187500.02235174447, -48595.039379005364, -47181.17978348491, -78493.00098335755, -49230.07479072509, -89025.1653224427, -32082.464645202715, 0.0, 0.0, 0.0, 193.0, 0.0, 1.0, 1.0, 0.0, 0.0, 1.0, 1.0, 256.0, 1.0, 1.750528717277407E9, 0.0, 2025-06-21 19:58:37.277
50.0, -44251.44723075, -38184.55793673491, -30249.822765567635, -73389.38246838839, -27931.075147518535, -28719.39882271276, -53093.149136680266, -101181.4297653949, -187500.02235174447, -187500.02235174447, -48594.92762028309, -47181.31389395164, -78499.63945146078, -49224.79977903364, -89048.92522679869, -32078.508386434125, 0.0, 0.0, 0.0, 193.0, 0.0, 1.0, 1.0, 0.0, 0.0, 1.0, 1.0, 256.0, 1.0, 1.750528717285457E9, 0.0, 2025-06-21 19:58:37.285
52.0, -44265.86410592367, -38203.04282939945, -30249.532192889714, -73401.38535516088, -27935.366682453954, -28740.990607856587, -53078.68755801768, -101171.19266643438, -187500.02235174447, -187500.02235174447, -48583.12589921068, -47176.642379360484, -78483.47914021958, -49241.11655248601, -89029.68037482267, -32091.047715073553, 0.0, 0.0, 0.0, 193.0, 0.0, 1.0, 1.0, 0.0, 0.0, 1.0, 1.0, 256.0, 1.0, 1.750528717294417E9, 0.0, 2025-06-21 19:58:37.294
54.0, -44261.10318435469, -38187.79893968093, -30251.923829546435, -73389.96361374421, -27923.922589292837, -28735.983817098597, -53080.45334582965, -101180.51334387224, -187500.02235174447, -187500.02235174447, -48581.02483523188, -47173.982521770304, -78487.36834375482, -49225.55973834512, -89036.45295339263, -32082.464645202715, 0.0, 0.0, 0.0, 193.0, 0.0, 1.0, 1.0, 0.0, 0.0, 1.0, 1.0, 256.0, 1.0, 1.750528717302533E9, 0.0, 2025-06-21 19:58:37.302
56.0, -44269.86506818117, -38198.57248050839, -30252.54967839118, -73395.64095683586, -27921.48624914721, -28718.01301455653, -53122.65343936127, -101167.99636697727, -187500.02235174447, -187500.02235174447, -48587.73035856848, -47173.915466536935, -78487.30128852146, -49229.09131396906, -89034.93303476967, -32083.135197536376, 0.0, 0.0, 0.0, 193.0, 0.0, 1.0, 1.0, 0.0, 0.0, 1.0, 1.0, 256.0, 1.0, 1.750528717309469E9, 0.0, 2025-06-21 19:58:37.309
58.0, -44265.9982163904, -38192.69397171664, -30256.50593715977, -73388.6225090769, -27916.166533966847, -28712.089802275874, -53065.45532530014, -101186.90594278646, -187500.02235174447, -187500.02235174447, -48590.144346969646, -47174.94364678188, -78486.51897746552, -49230.47712212529, -89027.0652207214, -32083.78339812558, 0.0, 0.0, 0.0, 193.0, 0.0, 1.0, 1.0, 0.0, 0.0, 1.0, 1.0, 256.0, 1.0, 1.750528717317502E9, 0.0, 2025-06-21 19:58:37.317
60.0, -44268.14398385811, -38198.30425957492, -30249.018102767244, -73385.51561659761, -27925.643673615894, -28718.97413956811, -53070.10448814684, -101155.9264249714, -187500.02235174447, -187500.02235174447, -48582.880030021675, -47168.14871646747, -78486.20605304313, -49211.299325382635, -89036.25178769253, -32067.757197351122, 0.0, 0.0, 0.0, 193.0, 0.0, 1.0, 1.0, 0.0, 0.0, 1.0, 1.0, 256.0, 1.0, 1.750528717326528E9, 0.0, 2025-06-21 19:58:37.326
62.0, -44256.69989069699, -38184.915564646195, -30238.713948573346, -73380.44177060625, -27939.52410692264, -28720.49405819107, -53103.54269785198, -101190.05753875466, -187500.02235174447, -187500.02235174447, -48583.438823633056, -47164.32656816561, -78475.4772157046, -49227.83961627956, -89022.10313345231, -32075.557956166027, 0.0, 0.0, 0.0, 193.0, 0.0, 1.0, 1.0, 0.0, 0.0, 1.0, 1.0, 256.0, 1.0, 1.750528717333505E9, 0.0, 2025-06-21 19:58:37.333
64.0, -44240.539579455806, -38173.62793369626, -30222.084250698597, -73353.95495342671, -27873.832329968493, -28728.563037939435, -53071.91497944773, -101150.00321269075, -187500.02235174447, -187500.02235174447, -48563.724585023476, -47153.35186163805, -78466.53651792248, -49207.96891545879, -89022.37135438579, -32061.923392048287, 0.0, 0.0, 0.0, 193.0, 0.0, 1.0, 1.0, 0.0, 0.0, 1.0, 1.0, 256.0, 1.0, 1.750528717341541E9, 0.0, 2025-06-21 19:58:37.341
66.0, -44291.68037076955, -38219.583120296375, -30274.543794935205, -73415.08697451199, -27978.505549252695, -28738.129584566308, -53107.342494409386, -101192.18095447791, -187500.02235174447, -187500.02235174447, -48568.194933914536, -47149.48500984729, -78463.27316323199, -49201.419854333384, -89005.65224953322, -32051.082795987466, 0.0, 0.0, 0.0, 193.0, 0.0, 1.0, 1.0, 0.0, 0.0, 1.0, 1.0, 256.0, 1.0, 1.750528717349569E9, 0.0, 2025-06-21 19:58:37.349
68.0, -44286.315952100274, -38204.22747185558, -30261.22215523984, -73397.20557894773, -27935.366682453954, -28701.36096493733, -53140.333669225416, -101211.76108262075, -187500.02235174447, -187500.02235174447, -48614.887728081674, -47198.92706858243, -78506.94847189766, -49268.0280528102, -89066.58310491838, -32117.579235742003, 0.0, 0.0, 0.0, 193.0, 0.0, 1.0, 1.0, 0.0, 0.0, 1.0, 1.0, 256.0, 1.0, 1.750528717358643E9, 0.0, 2025-06-21 19:58:37.358
70.0, -44265.86410592367, -38204.98743116706, -30242.22317245283, -73386.5214450981, -27922.58148462552, -28748.59020097139, -53102.80509028496, -101191.44334691088, -187500.02235174447, -187500.02235174447, -48581.60598058772, -47161.689062319885, -78481.33337275188, -49217.55781383012, -89032.78726730196, -32073.635706142868, 0.0, 0.0, 0.0, 193.0, 0.0, 1.0, 1.0, 0.0, 0.0, 1.0, 1.0, 256.0, 1.0, 1.750528717365636E9, 0.0, 2025-06-21 19:58:37.365
72.0, -44280.25862935289, -38214.978660938585, -30257.064730771155, -73405.85570405194, -27938.56298191106, -28723.131564036797, -53118.585421870404, -101196.29367545768, -187500.02235174447, -187500.02235174447, -48597.408663917624, -47188.35469345507, -78493.78329441349, -49253.164142747424, -89037.61524410431, -32106.917453636823, 0.0, 0.0, 0.0, 193.0, 0.0, 1.0, 1.0, 0.0, 0.0, 1.0, 1.0, 256.0, 1.0, 1.750528717373736E9, 0.0, 2025-06-21 19:58:37.373
74.0, -44251.38017551663, -38184.7143989461, -30233.148364203975, -73369.66822977879, -27879.241452126676, -28708.222950485106, -53094.1326134363, -101172.3773088905, -187500.02235174447, -187500.02235174447, -48578.543791597345, -47164.17010595442, -78478.85232911735, -49222.609308077015, -89034.50835162502, -32076.228508499684, 0.0, 0.0, 0.0, 193.0, 0.0, 1.0, 1.0, 0.0, 0.0, 1.0, 1.0, 256.0, 1.0, 1.750528717381709E9, 0.0, 2025-06-21 19:58:37.381
76.0, -44265.52882975684, -38198.974811908585, -30248.928695789422, -73393.98692774617, -27947.235458759722, -28724.629130915302, -53104.973209497126, -101207.46954768534, -187500.02235174447, -187500.02235174447, -48573.67111130609, -47160.97380649731, -78471.36449472481, -49218.898918497434, -89025.3664881428, -32069.88061307438, 0.0, 0.0, 0.0, 193.0, 0.0, 1.0, 1.0, 0.0, 0.0, 1.0, 1.0, 256.0, 1.0, 1.75052871738971E9, 0.0, 2025-06-21 19:58:37.389
78.0, -44260.83496342122, -38190.4140937822, -30237.953989261867, -73374.09387518094, -27909.550417608076, -28724.942055337677, -53091.31629363493, -101158.65333779495, -187500.02235174447, -187500.02235174447, -48582.34358815475, -47166.092355977584, -78477.13124479429, -49232.37702040399, -89027.8698835218, -32081.570575424503, 0.0, 0.0, 0.0, 193.0, 0.0, 1.0, 1.0, 0.0, 0.0, 1.0, 1.0, 256.0, 1.0, 1.75052871739779E9, 0.0, 2025-06-21 19:58:37.397
80.0, -44258.979768631434, -38190.25763157101, -30233.170715948432, -73375.03264844808, -27926.00130152718, -28712.15685750924, -53090.82455525691, -101172.86904726853, -187500.02235174447, -187500.02235174447, -48561.26589313339, -47147.38394586849, -78463.94371556565, -49200.88341246646, -89023.22072067509, -32051.194554709742, 0.0, 0.0, 0.0, 193.0, 0.0, 1.0, 1.0, 0.0, 0.0, 1.0, 1.0, 256.0, 1.0, 1.75052871740586E9, 0.0, 2025-06-21 19:58:37.405
82.0, -44267.07110012425, -38196.89609967424, -30232.678977570413, -73381.76052352913, -27921.10626949147, -28681.356153649827, -53126.52029115204, -101206.59782965158, -187500.02235174447, -187500.02235174447, -48578.052053219326, -47175.14481248198, -78477.08654130537, -49241.87651179749, -89029.70272656712, -32090.421866228804, 0.0, 0.0, 0.0, 193.0, 0.0, 1.0, 1.0, 0.0, 0.0, 1.0, 1.0, 256.0, 1.0, 1.750528717414872E9, 0.0, 2025-06-21 19:58:37.414
84.0, -44294.228469637455, -38222.75706800903, -30260.283381972717, -73389.8742067664, -27945.559077925573, -28772.417160560748, -53124.821558573436, -101187.55414337566, -187500.02235174447, -187500.02235174447, -48572.48646884996, -47156.36934713952, -78472.66089590322, -49213.869775994994, -89026.37231664328, -32063.778586838078, 0.0, 0.0, 0.0, 193.0, 0.0, 1.0, 1.0, 0.0, 0.0, 1.0, 1.0, 256.0, 1.0, 1.750528717420891E9, 0.0, 2025-06-21 19:58:37.420
86.0, -44292.64149578113, -38221.348908108346, -30263.27851572973, -73402.10061098346, -27931.745699852196, -28727.154878038753, -53147.12859953983, -101229.10603631807, -187500.02235174447, -187500.02235174447, -48603.13071049818, -47178.16229798345, -78497.98542237109, -49244.491665898764, -89052.72502335609, -32092.50057846315, 0.0, 0.0, 0.0, 193.0, 0.0, 1.0, 1.0, 0.0, 0.0, 1.0, 1.0, 256.0, 1.0, 1.750528717429874E9, 0.0, 2025-06-21 19:58:37.429
88.0, -44260.946722143504, -38194.68327697316, -30236.36701540554, -73373.17745365828, -27928.035310272615, -28725.903180349254, -53089.59520931187, -101172.69023331288, -187500.02235174447, -187500.02235174447, -48589.876126036186, -47172.44025140289, -78483.45678847513, -49242.59176762006, -89039.62690110528, -32092.81350288552, 0.0, 0.0, 0.0, 193.0, 0.0, 1.0, 1.0, 0.0, 0.0, 1.0, 1.0, 256.0, 1.0, 1.750528717437977E9, 0.0, 2025-06-21 19:58:37.437
90.0, -44278.694007241014, -38216.40917258372, -30244.860678298555, -73392.95874750122, -27930.985740540713, -28690.0733339874, -53122.161700983255, -101187.97882652031, -187500.02235174447, -187500.02235174447, -48570.07248044878, -47158.87274251851, -78472.41502671421, -49214.24975565073, -89039.89512203874, -32065.72318860569, 0.0, 0.0, 0.0, 193.0, 0.0, 1.0, 1.0, 0.0, 0.0, 1.0, 1.0, 256.0, 1.0, 1.750528717445989E9, 0.0, 2025-06-21 19:58:37.445
92.0, -44273.106071127186, -38210.24009111406, -30234.802393293667, -73383.03457296308, -27916.971196767237, -28727.423098972216, -53137.2938319795, -101198.75236734777, -187500.02235174447, -187500.02235174447, -48587.26097193491, -47181.51505965174, -78483.63560243078, -49245.13986648797, -89033.34606091333, -32093.81933138601, 0.0, 0.0, 0.0, 193.0, 0.0, 1.0, 1.0, 0.0, 0.0, 1.0, 1.0, 256.0, 1.0, 1.750528717454041E9, 0.0, 2025-06-21 19:58:37.454
94.0, -44275.47535603945, -38212.60937602632, -30251.007408023765, -73384.57684333049, -27920.43571715781, -28748.97018062713, -53114.606811357364, -101200.38404469301, -187500.02235174447, -187500.02235174447, -48567.502029836425, -47157.62104482902, -78469.59870691285, -49220.865872009505, -89031.9155492682, -32073.34513346495, 0.0, 0.0, 0.0, 193.0, 0.0, 1.0, 1.0, 0.0, 0.0, 1.0, 1.0, 256.0, 1.0, 1.750528717462044E9, 0.0, 2025-06-21 19:58:37.462
96.0, -44276.92821942904, -38209.48013180258, -30238.691596828892, -73384.93447124178, -27918.37935666792, -28707.664156873725, -53125.60386962937, -101202.44040518289, -187500.02235174447, -187500.02235174447, -48582.29888466583, -47168.72986182331, -78480.99809658506, -49240.53540713018, -89048.45584016513, -32088.276098761096, 0.0, 0.0, 0.0, 193.0, 0.0, 1.0, 1.0, 0.0, 0.0, 1.0, 1.0, 256.0, 1.0, 1.75052871747206E9, 0.0, 2025-06-21 19:58:37.472
98.0, -44302.92329823057, -38239.36441413932, -30279.014143826265, -73419.11028851394, -27938.56298191106, -28698.030555013487, -53141.07127679244, -101214.59975416659, -187500.02235174447, -187500.02235174447, -48585.741053311955, -47177.067062505135, -78484.55202395345, -49245.58690137707, -89039.29162493844, -32096.16626455382, 0.0, 0.0, 0.0, 193.0, 0.0, 1.0, 1.0, 0.0, 0.0, 1.0, 1.0, 256.0, 1.0, 1.750528717478088E9, 0.0, 2025-06-21 19:58:37.478
100.0, -44290.42867308005, -38229.730812279086, -30274.588498424113, -73408.20263721974, -27919.29577819059, -28747.5843724709, -53137.33853546841, -101215.91850708945, -187500.02235174447, -187500.02235174447, -48610.30562046834, -47201.02813256122, -78512.89403592277, -49252.404183435945, -89076.41787247872, -32103.58704371298, 0.0, 0.0, 0.0, 193.0, 0.0, 1.0, 1.0, 0.0, 0.0, 1.0, 1.0, 256.0, 1.0, 1.750528717486116E9, 0.0, 2025-06-21 19:58:37.486
102.0, -44281.487975297925, -38213.861073715816, -30253.779024336225, -73397.07146848101, -27940.99932205669, -28692.599081110846, -53147.888558851315, -101217.32666699013, -187500.02235174447, -187500.02235174447, -48601.968419786506, -47183.72788235282, -78493.80564615794, -49260.11553527302, -89051.85330532234, -32108.035040859588, 0.0, 0.0, 0.0, 193.0, 0.0, 1.0, 1.0, 0.0, 0.0, 1.0, 1.0, 256.0, 1.0, 1.750528717494095E9, 0.0, 2025-06-21 19:58:37.494
104.0, -44276.592943262214, -38213.52579754899, -30256.237716226307, -73392.3776021454, -27941.692226134805, -28728.563037939435, -53131.90706156577, -101207.20132675188, -187500.02235174447, -187500.02235174447, -48576.82270727429, -47167.344053667075, -78477.08654130537, -49224.79977903364, -89043.7172703406, -32076.697895133246, 0.0, 0.0, 0.0, 193.0, 0.0, 1.0, 1.0, 0.0, 0.0, 1.0, 1.0, 256.0, 1.0, 1.750528717502236E9, 0.0, 2025-06-21 19:58:37.502
106.0, -44280.7503677309, -38220.343079607854, -30253.689617358403, -73397.6749655813, -27919.161667723856, -28728.69714840617, -53138.32201222444, -101220.23239376931, -187500.02235174447, -187500.02235174447, -48591.08312023677, -47178.385815428, -78489.29059377797, -49245.25162521024, -89056.05543327994, -32095.629822686893, 0.0, 0.0, 0.0, 193.0, 0.0, 1.0, 1.0, 0.0, 0.0, 1.0, 1.0, 256.0, 1.0, 1.750528717509194E9, 0.0, 2025-06-21 19:58:37.509
108.0, -44296.173071405065, -38229.864922745815, -30276.108417047075, -73417.81388733553, -27962.926383367347, -28711.933340064686, -53130.677715620724, -101215.22560301133, -187500.02235174447, -187500.02235174447, -48580.4660416205, -47173.3343211811, -78477.71239015012, -49241.898863541945, -89040.83389530587, -32094.93691860878, 0.0, 0.0, 0.0, 193.0, 0.0, 1.0, 1.0, 0.0, 0.0, 1.0, 1.0, 256.0, 1.0, 1.750528717518224E9, 0.0, 2025-06-21 19:58:37.518
110.0, -44299.65994354009, -38235.743431537565, -30275.504919946783, -73416.60689313494, -27950.185889027824, -28711.173380753207, -53146.92743383974, -101234.67162068744, -187500.02235174447, -187500.02235174447, -48616.94408857156, -47211.175824543934, -78519.84542844837, -49258.57326490561, -89080.88822136978, -32115.45582001875, 0.0, 0.0, 0.0, 193.0, 0.0, 1.0, 1.0, 0.0, 0.0, 1.0, 1.0, 256.0, 1.0, 1.750528717526233E9, 0.0, 2025-06-21 19:58:37.526
112.0, -44302.52096683037, -38234.04469895896, -30272.08510304512, -73408.76143083113, -27927.09653700549, -28737.50373572156, -53148.08972455141, -101226.53558570571, -187500.02235174447, -187500.02235174447, -48607.35519020024, -47183.32555095262, -78496.9795938706, -49263.24477949677, -89052.38974718926, -32114.22647407371, 0.0, 0.0, 0.0, 193.0, 0.0, 1.0, 1.0, 0.0, 0.0, 1.0, 1.0, 256.0, 1.0, 1.75052871753324E9, 0.0, 2025-06-21 19:58:37.533
114.0, -44314.16622569159, -38245.667606075716, -30293.833350400135, -73417.2774454686, -27926.448336416288, -28726.417270471728, -53132.46585517715, -101212.3422279766, -187500.02235174447, -187500.02235174447, -48615.55828041533, -47192.98150455731, -78513.788105701, -49257.567436405116, -89074.85325036684, -32109.51025599364, 0.0, 0.0, 0.0, 193.0, 0.0, 1.0, 1.0, 0.0, 0.0, 1.0, 1.0, 256.0, 1.0, 1.750528717541275E9, 0.0, 2025-06-21 19:58:37.541
116.0, -44310.500539600915, -38244.37120489731, -30275.9966583248, -73417.99270129118, -27956.82435713105, -28715.15199126625, -53143.88759659381, -101223.3392862486, -187500.02235174447, -187500.02235174447, -48620.207443262036, -47203.86680410705, -78518.14669586977, -49266.91046558744, -89078.58599169088, -32116.26048281914, 0.0, 0.0, 0.0, 193.0, 0.0, 1.0, 1.0, 0.0, 0.0, 1.0, 1.0, 256.0, 1.0, 1.750528717550274E9, 0.0, 2025-06-21 19:58:37.550
118.0, -44296.106016171696, -38229.3731843678, -30263.07735002963, -73400.67009933831, -27959.39480774341, -28682.831368783878, -53129.82834933142, -101210.37527446453, -187500.02235174447, -187500.02235174447, -48604.15889074313, -47196.55778367016, -78502.25460556205, -49257.96976780531, -89058.13414551427, -32107.900930392854, 0.0, 0.0, 0.0, 193.0, 0.0, 1.0, 1.0, 0.0, 0.0, 1.0, 1.0, 256.0, 1.0, 1.750528717557324E9, 0.0, 2025-06-21 19:58:37.557
120.0, -44317.362525148696, -38246.025233987006, -30277.94126009241, -73412.80709657754, -27952.041083817614, -28758.134395853805, -53160.47259097965, -101237.97967886683, -187500.02235174447, -187500.02235174447, -48602.035475019875, -47187.706492865866, -78508.02135563151, -49247.75502058924, -89077.84838412385, -32098.334383765985, 0.0, 0.0, 0.0, 193.0, 0.0, 1.0, 1.0, 0.0, 0.0, 1.0, 1.0, 256.0, 1.0, 1.750528717565392E9, 0.0, 2025-06-21 19:58:37.565
122.0, -44294.47433882646, -38226.735678522076, -30256.662399370958, -73400.31247142702, -27900.3862023814, -28717.811848856432, -53152.96240484267, -101240.01368761227, -187500.02235174447, -187500.02235174447, -48606.66228612212, -47187.52767891022, -78499.43828576068, -49260.40610795094, -89050.33338669938, -32112.237168817184, 0.0, 0.0, 0.0, 193.0, 0.0, 1.0, 1.0, 0.0, 0.0, 1.0, 1.0, 256.0, 1.0, 1.750528717573403E9, 0.0, 2025-06-21 19:58:37.573
124.0, -44293.446158581515, -38218.57729179589, -30261.155100006476, -73392.66817482331, -27955.86323211947, -28664.72645577508, -53147.57563442894, -101222.91460310396, -187500.02235174447, -187500.02235174447, -48584.221134688996, -47170.383890913, -78487.01071584353, -49228.44311337985, -89045.8183343194, -32082.822273114, 0.0, 0.0, 0.0, 193.0, 0.0, 1.0, 1.0, 0.0, 0.0, 1.0, 1.0, 256.0, 1.0, 1.750528717582429E9, 0.0, 2025-06-21 19:58:37.582
126.0, -44316.043772225836, -38251.36730091182, -30278.32123974815, -73424.65352113885, -27948.24128726021, -28702.657366115734, -53144.312279738464, -101247.0991906046, -187500.02235174447, -187500.02235174447, -48609.165681501116, -47199.19528951589, -78510.65886147725, -49256.13692475998, -89064.41498570621, -32108.750296682156, 0.0, 0.0, 0.0, 193.0, 0.0, 1.0, 1.0, 0.0, 0.0, 1.0, 1.0, 256.0, 1.0, 1.750528717589465E9, 0.0, 2025-06-21 19:58:37.589
128.0, -44312.48984485744, -38243.275969419, -30292.782818410735, -73415.93634080129, -27929.510525406662, -28757.59795398688, -53144.446390205194, -101217.37137047904, -187500.02235174447, -187500.02235174447, -48633.9314143576, -47216.62965019103, -78527.46737330763, -49275.31472150263, -89071.85811660983, -32127.615169002434, 0.0, 0.0, 0.0, 193.0, 0.0, 1.0, 1.0, 0.0, 0.0, 1.0, 1.0, 256.0, 1.0, 1.750528717597505E9, 0.0, 2025-06-21 19:58:37.597
130.0, -44323.017516495886, -38252.306074178945, -30291.508768976782, -73421.99366354867, -27976.78446492964, -28708.334709207382, -53145.18399777222, -101225.14977754948, -187500.02235174447, -187500.02235174447, -48614.03836179237, -47192.445062690385, -78519.04076564798, -49251.68892761337, -89081.2234975366, -32102.69297393477, 0.0, 0.0, 0.0, 193.0, 0.0, 1.0, 1.0, 0.0, 0.0, 1.0, 1.0, 256.0, 1.0, 1.750528717606549E9, 0.0, 2025-06-21 19:58:37.606
132.0, -44318.480112371464, -38244.50531536404, -30284.155045050986, -73425.74875661716, -27953.00220882919, -28674.360057635316, -53159.60087294589, -101226.91556536146, -187500.02235174447, -187500.02235174447, -48631.8303503788, -47217.56842345816, -78524.80751571746, -49282.02024483922, -89072.39455847676, -32131.45966904875, 0.0, 0.0, 0.0, 193.0, 0.0, 1.0, 1.0, 0.0, 0.0, 1.0, 1.0, 256.0, 1.0, 1.750528717613561E9, 0.0, 2025-06-21 19:58:37.613
134.0, -44263.740690200415, -38204.60745151132, -30236.99286425029, -73370.67405827928, -27900.676775059317, -28745.148032325273, -53104.2356019301, -101182.79322180669, -187500.02235174447, -187500.02235174447, -48581.29305616535, -47170.361539168545, -78484.73083790908, -49228.0184302352, -89045.99714827504, -32084.565709181516, 0.0, 0.0, 0.0, 193.0, 0.0, 1.0, 1.0, 0.0, 0.0, 1.0, 1.0, 256.0, 1.0, 1.750528717621591E9, 0.0, 2025-06-21 19:58:37.621
136.0, -44323.464551385, -38257.7822515705, -30284.758542151278, -73424.56411416104, -27959.43951123232, -28724.651482659756, -53153.00710833158, -101247.76974293825, -187500.02235174447, -187500.02235174447, -48597.05103600634, -47182.23031547431, -78495.45967524764, -49249.0737735121, -89057.44124143616, -32103.318822779518, 0.0, 0.0, 0.0, 193.0, 0.0, 1.0, 1.0, 0.0, 0.0, 1.0, 1.0, 256.0, 1.0, 1.750528717629615E9, 0.0, 2025-06-21 19:58:37.629
138.0, -44319.19536819403, -38251.21083870064, -30279.57293743765, -73409.65550060934, -27950.811737872573, -28708.938206307677, -53139.70782038067, -101231.36356250806, -187500.02235174447, -187500.02235174447, -48631.00333583395, -47211.734618155315, -78522.08060289391, -49277.03580582569, -89072.81924162142, -32130.364433570438, 0.0, 0.0, 0.0, 193.0, 0.0, 1.0, 1.0, 0.0, 0.0, 1.0, 1.0, 256.0, 1.0, 1.750528717638639E9, 0.0, 2025-06-21 19:58:37.638
140.0, -44306.43252211005, -38235.49756234855, -30270.47577744434, -73405.16279997383, -27934.964351053757, -28710.905159819744, -53133.24816623308, -101227.31789676165, -187500.02235174447, -187500.02235174447, -48603.24246922046, -47189.47228067783, -78507.2837480645, -49238.210825706825, -89066.98543631857, -32093.573462197004, 0.0, 0.0, 0.0, 193.0, 0.0, 1.0, 1.0, 0.0, 0.0, 1.0, 1.0, 256.0, 1.0, 1.750528717645685E9, 0.0, 2025-06-21 19:58:37.645
142.0, -44317.429580382064, -38251.90374277875, -30273.448559456894, -73422.7759746046, -27930.650464373884, -28688.687525831167, -53146.45804720617, -101238.87374864504, -187500.02235174447, -187500.02235174447, -48625.01306831993, -47214.14860655649, -78515.79976270196, -49278.332207004096, -89063.74443337256, -32133.516029538638, 0.0, 0.0, 0.0, 193.0, 0.0, 1.0, 1.0, 0.0, 0.0, 1.0, 1.0, 256.0, 1.0, 1.750528717653781E9, 0.0, 2025-06-21 19:58:37.653
144.0, -44288.39466433462, -38212.02823067048, -30262.0938732736, -73389.40482013284, -27962.747569411706, -28729.658273417746, -53104.99556124158, -101196.11486150204, -187500.02235174447, -187500.02235174447, -48586.90334402363, -47181.760928840755, -78491.97280311261, -49227.861968024015, -89052.30034021144, -32086.24209001566, 0.0, 0.0, 0.0, 193.0, 0.0, 1.0, 1.0, 0.0, 0.0, 1.0, 1.0, 256.0, 1.0, 1.750528717661784E9, 0.0, 2025-06-21 19:58:37.661
146.0, -44333.63459511216, -38271.50622266605, -30300.80709467019, -73447.1840795498, -27942.25101974619, -28721.11990703582, -53166.70872768268, -101260.89021693352, -187500.02235174447, -187500.02235174447, -48608.89746056765, -47197.138929026005, -78508.60250098736, -49254.54995090365, -89066.94073282967, -32111.29839555006, 0.0, 0.0, 0.0, 193.0, 0.0, 1.0, 1.0, 0.0, 0.0, 1.0, 1.0, 256.0, 1.0, 1.750528717669773E9, 0.0, 2025-06-21 19:58:37.669
148.0, -44330.59475786624, -38255.94940852516, -30307.24439707332, -73429.86147759695, -27982.01477313218, -28739.493040978083, -53146.52510243954, -101235.67744918793, -187500.02235174447, -187500.02235174447, -48657.22193208003, -47242.33415631463, -78550.06498695195, -49306.00366663977, -89104.15638734776, -32161.12043394094, 0.0, 0.0, 0.0, 193.0, 0.0, 1.0, 1.0, 0.0, 0.0, 1.0, 1.0, 256.0, 1.0, 1.750528717677771E9, 0.0, 2025-06-21 19:58:37.677
150.0, -44306.43252211005, -38243.58889384138, -30276.17547228044, -73413.70116635575, -27962.948735111804, -28731.468764718626, -53122.94401203919, -101216.96903907885, -187500.02235174447, -187500.02235174447, -48607.91398381162, -47193.18267025741, -78512.20113184466, -49242.390601919964, -89081.40231149225, -32095.048677331055, 0.0, 0.0, 0.0, 193.0, 0.0, 1.0, 1.0, 0.0, 0.0, 1.0, 1.0, 256.0, 1.0, 1.750528717685793E9, 0.0, 2025-06-21 19:58:37.685
152.0, -44318.681278071555, -38246.06993747591, -30278.634164170526, -73420.31728271453, -27940.127604022935, -28705.741906850566, -53138.54552966899, -101225.50740546077, -187500.02235174447, -187500.02235174447, -48625.50480669794, -47217.18844380241, -78518.25845459205, -49270.68791040038, -89053.015596034, -32124.441221289784, 0.0, 0.0, 0.0, 193.0, 0.0, 1.0, 1.0, 0.0, 0.0, 1.0, 1.0, 256.0, 1.0, 1.750528717693833E9, 0.0, 2025-06-21 19:58:37.693
154.0, -44290.585135291236, -38226.37805061079, -30261.08804477311, -73389.4718753662, -27956.310267008575, -28741.147070067775, -53092.992674469075, -101184.380195663, -187500.02235174447, -187500.02235174447, -48608.249259978445, -47193.987333057805, -78513.07284987842, -49238.25552919573, -89063.99030256156, -32091.762970896125, 0.0, 0.0, 0.0, 193.0, 0.0, 1.0, 1.0, 0.0, 0.0, 1.0, 1.0, 256.0, 1.0, 1.750528717700881E9, 0.0, 2025-06-21 19:58:37.700
156.0, -44335.333327690765, -38264.51012665154, -30294.459199244884, -73444.99360859318, -27987.73681971274, -28701.383316681782, -53159.91379736827, -101252.3965540405, -187500.02235174447, -187500.02235174447, -48613.3231059698, -47205.43142621892, -78513.3857743008, -49243.82111356511, -89053.2167617341, -32098.312032021528, 0.0, 0.0, 0.0, 193.0, 0.0, 1.0, 1.0, 0.0, 0.0, 1.0, 1.0, 256.0, 1.0, 1.750528717709897E9, 0.0, 2025-06-21 19:58:37.709
158.0, -44345.816295840305, -38275.82010934593, -30317.257978589296, -73445.77591964912, -27974.817511417572, -28749.43956726069, -53176.65525396529, -101259.88438843303, -187500.02235174447, -187500.02235174447, -48658.49598151398, -47250.98428141884, -78554.44592886519, -49292.19028856639, -89082.78811964848, -32147.12824191192, 0.0, 0.0, 0.0, 193.0, 0.0, 1.0, 1.0, 0.0, 0.0, 1.0, 1.0, 256.0, 1.0, 1.75052871771793E9, 0.0, 2025-06-21 19:58:37.717
160.0, -44343.17878999458, -38277.22826924661, -30313.48053377635, -73445.57475394903, -27952.33165649553, -28736.140279309784, -53178.711614455184, -101264.86882744657, -187500.02235174447, -187500.02235174447, -48644.883769140695, -47224.27394679475, -78551.45079510818, -49268.340977232576, -89106.92800366021, -32120.35085205446, 0.0, 0.0, 0.0, 193.0, 0.0, 1.0, 1.0, 0.0, 0.0, 1.0, 1.0, 256.0, 1.0, 1.750528717725955E9, 0.0, 2025-06-21 19:58:37.725
162.0, -44364.94938909404, -38295.82492063343, -30330.7584322403, -73469.46876877175, -27984.987555144737, -28716.515447678026, -53194.33548382944, -101283.37607185556, -187500.02235174447, -187500.02235174447, -48681.47357481404, -47259.09796465612, -78566.76174006007, -49312.84330044309, -89092.39936976426, -32166.909535754865, 0.0, 0.0, 0.0, 193.0, 0.0, 1.0, 1.0, 0.0, 0.0, 1.0, 1.0, 256.0, 1.0, 1.750528717732996E9, 0.0, 2025-06-21 19:58:37.732
164.0, -44332.38289742266, -38266.655894119256, -30303.846931916112, -73427.49219268467, -27996.87868319496, -28742.287009034993, -53119.94887828218, -101226.647344428, -187500.02235174447, -187500.02235174447, -48648.99649012047, -47234.37693528854, -78556.45758586617, -49279.382738993496, -89107.7326664606, -32133.7842504721, 0.0, 0.0, 0.0, 193.0, 0.0, 1.0, 1.0, 0.0, 0.0, 1.0, 1.0, 256.0, 1.0, 1.750528717742018E9, 0.0, 2025-06-21 19:58:37.742
166.0, -44362.088365803764, -38297.27778402303, -30285.987888096322, -73438.71276840124, -27938.540630166608, -28679.366848393303, -53159.44441073471, -101252.21774008486, -187500.02235174447, -187500.02235174447, -48641.173379561114, -47225.97267937335, -78538.6879490242, -49268.542142932674, -89076.08259631188, -32124.240055589686, 0.0, 0.0, 0.0, 193.0, 0.0, 1.0, 1.0, 0.0, 0.0, 1.0, 1.0, 256.0, 1.0, 1.75052871775003E9, 0.0, 2025-06-21 19:58:37.750
168.0, -44371.945485108554, -38302.843368392394, -30306.685603461934, -73435.89644859987, -27950.96820008376, -28715.196694755163, -53132.37644819933, -101231.00593459677, -187500.02235174447, -187500.02235174447, -48642.76035341744, -47231.65002246499, -78536.69864376768, -49272.05136681216, -89050.84747682184, -32130.20797135925, 0.0, 0.0, 0.0, 193.0, 0.0, 1.0, 1.0, 0.0, 0.0, 1.0, 1.0, 256.0, 1.0, 1.750528717757114E9, 0.0, 2025-06-21 19:58:37.757
170.0, -44386.138842837674, -38314.42157202024, -30304.718649949868, -73437.19284977828, -27990.620194747473, -28751.585334728403, -53126.31912545194, -101235.11865557656, -187500.02235174447, -187500.02235174447, -48647.49892324197, -47225.97267937335, -78554.55768758747, -49260.24964573976, -89097.20499482215, -32113.39945952886, 0.0, 0.0, 0.0, 193.0, 0.0, 1.0, 1.0, 0.0, 0.0, 1.0, 1.0, 256.0, 1.0, 1.750528717766067E9, 0.0, 2025-06-21 19:58:37.766
172.0, -44443.0910877098, -38363.01426446608, -30332.166592140984, -73469.73698970521, -27987.468598779276, -28718.147125023264, -53153.118867053854, -101280.04566193173, -187500.02235174447, -187500.02235174447, -48699.73495003402, -47277.62756080956, -78584.62078387986, -49320.845224958095, -89100.5801082349, -32173.65976258037, 0.0, 0.0, 0.0, 193.0, 0.0, 1.0, 1.0, 0.0, 0.0, 1.0, 1.0, 256.0, 1.0, 1.750528717774098E9, 0.0, 2025-06-21 19:58:37.774
174.0, -44420.29230836539, -38334.672252496755, -30320.18605711294, -73438.46689921223, -27952.15284253989, -28716.96248256713, -53116.26084044705, -101210.57644016463, -187500.02235174447, -187500.02235174447, -48654.69618495658, -47239.02609813525, -78563.7442545586, -49267.290445243176, -89091.7288174306, -32124.50827652315, 0.0, 0.0, 0.0, 193.0, 0.0, 1.0, 1.0, 0.0, 0.0, 1.0, 1.0, 256.0, 1.0, 1.750528717781118E9, 0.0, 2025-06-21 19:58:37.781
176.0, -44483.27952424044, -38387.33296243346, -30317.347385567118, -73463.7914256801, -27979.891357408927, -28735.223857787118, -53167.13341082733, -101263.59477801262, -187500.02235174447, -187500.02235174447, -48669.694205486085, -47249.218493606866, -78566.64998133779, -49274.53241044669, -89083.3245615154, -32130.006805659155, 0.0, 0.0, 0.0, 193.0, 0.0, 1.0, 1.0, 0.0, 0.0, 1.0, 1.0, 256.0, 1.0, 1.750528717789159E9, 0.0, 2025-06-21 19:58:37.789
178.0, -44473.6459223802, -38366.121156945366, -30318.24145534533, -73443.7866143926, -27988.139151112933, -28732.899276363765, -53153.118867053854, -101241.26538530177, -187500.02235174447, -187500.02235174447, -48704.45116811409, -47274.811241008196, -78594.20968225118, -49311.21162309786, -89087.21376505063, -32169.658800322868, 0.0, 0.0, 0.0, 193.0, 0.0, 1.0, 1.0, 0.0, 0.0, 1.0, 1.0, 256.0, 1.0, 1.750528717798136E9, 0.0, 2025-06-21 19:58:37.798
180.0, -44490.78971037742, -38375.17361344977, -30326.62335951607, -73454.02371335313, -27997.057497150603, -28736.967293854632, -53129.291907464496, -101230.02245784074, -187500.02235174447, -187500.02235174447, -48664.21802809454, -47231.22533932034, -78570.047446495, -49251.80068633565, -89092.86875639782, -32106.69393619227, 0.0, 0.0, 0.0, 193.0, 0.0, 1.0, 1.0, 0.0, 0.0, 1.0, 1.0, 256.0, 1.0, 1.750528717806233E9, 0.0, 2025-06-21 19:58:37.806
182.0, -44532.20749285311, -38414.289166246555, -30356.95467674192, -73491.3511265935, -27982.372401043463, -28700.086915503376, -53199.36462633189, -101291.02036845927, -187500.02235174447, -187500.02235174447, -48724.7018485906, -47291.21742143839, -78602.3457172329, -49336.31263212117, -89107.24092808258, -32190.602384877493, 0.0, 0.0, 0.0, 193.0, 0.0, 1.0, 1.0, 0.0, 0.0, 1.0, 1.0, 256.0, 1.0, 1.75052871781322E9, 0.0, 2025-06-21 19:58:37.813
184.0, -44479.14445151621, -38361.53904933203, -30305.85858891709, -73429.19092526328, -27988.407372046397, -28726.707843149645, -53105.95668625316, -101229.17309155143, -187500.02235174447, -187500.02235174447, -48691.665970285656, -47258.11448790008, -78591.41571419427, -49288.390492008984, -89111.71127697364, -32143.283741865605, 0.0, 0.0, 0.0, 193.0, 0.0, 1.0, 1.0, 0.0, 0.0, 1.0, 1.0, 256.0, 1.0, 1.750528717822257E9, 0.0, 2025-06-21 19:58:37.822
186.0, -44534.86735044329, -38411.428142956276, -30348.729234782368, -73493.00515568319, -27997.750401228717, -28710.279310974995, -53172.02844286305, -101296.18362142846, -187500.02235174447, -187500.02235174447, -48681.27240911394, -47250.22432210736, -78572.90846978528, -49282.869611128524, -89091.95233487515, -32137.20406737376, 0.0, 0.0, 0.0, 193.0, 0.0, 1.0, 1.0, 0.0, 0.0, 1.0, 1.0, 256.0, 1.0, 1.750528717830255E9, 0.0, 2025-06-21 19:58:37.830
188.0, -44501.71971341607, -38377.78876755104, -30325.438717059937, -73445.46299522674, -27984.2052440888, -28729.814735628934, -53112.170471211735, -101215.24795475579, -187500.02235174447, -187500.02235174447, -48722.57843286735, -47292.80439529472, -78606.5031417016, -49338.23488214432, -89114.37113456383, -32195.318602957563, 0.0, 0.0, 0.0, 193.0, 0.0, 1.0, 1.0, 0.0, 0.0, 1.0, 1.0, 256.0, 1.0, 1.750528717837312E9, 0.0, 2025-06-21 19:58:37.837
190.0, -44505.966544862575, -38382.616744353385, -30309.47957151885, -73438.08691955649, -27997.34806982852, -28744.54453522498, -53127.8390440749, -101221.48409145881, -187500.02235174447, -187500.02235174447, -48648.25888255345, -47209.67825766543, -78551.31668464145, -49231.147674458945, -89078.9212678577, -32079.894194590357, 0.0, 0.0, 0.0, 193.0, 0.0, 1.0, 1.0, 0.0, 0.0, 1.0, 1.0, 256.0, 1.0, 1.750528717845315E9, 0.0, 2025-06-21 19:58:37.845
192.0, -44533.12391437578, -38405.348468464435, -30338.67094977748, -73477.38128630893, -27997.906863439905, -28667.00633370952, -53176.31997779846, -101269.80856297119, -187500.02235174447, -187500.02235174447, -48724.94771777961, -47283.953104490414, -78601.18342652124, -49314.60908825506, -89074.49562245556, -32171.536346857116, 0.0, 0.0, 0.0, 193.0, 0.0, 1.0, 1.0, 0.0, 0.0, 1.0, 1.0, 256.0, 1.0, 1.750528717854441E9, 0.0, 2025-06-21 19:58:37.854
194.0, -44460.525448384935, -38347.300988114, -30315.11221112159, -73431.9848933202, -27978.594956230518, -28765.175195357227, -53124.06159926196, -101212.76691112125, -187500.02235174447, -187500.02235174447, -48676.37737707822, -47243.36233655958, -78577.57998437644, -49274.80063138016, -89103.19526233617, -32127.391651557882, 0.0, 0.0, 0.0, 193.0, 0.0, 1.0, 1.0, 0.0, 0.0, 1.0, 1.0, 256.0, 1.0, 1.75052871786239E9, 0.0, 2025-06-21 19:58:37.862
196.0, -44528.31828931788, -38414.11035229091, -30340.615551545092, -73490.70292600429, -28007.49576181123, -28744.276314291517, -53221.33639113145, -101286.32650212366, -187500.02235174447, -187500.02235174447, -48685.63099928272, -47258.04743266672, -78579.83751056642, -49290.82683215461, -89091.6841139417, -32145.40715758886, 0.0, 0.0, 0.0, 193.0, 0.0, 1.0, 1.0, 0.0, 0.0, 1.0, 1.0, 256.0, 1.0, 1.750528717869423E9, 0.0, 2025-06-21 19:58:37.869
198.0, -44482.22899225104, -38367.46226161269, -30327.18215312745, -73454.7836726646, -28002.958357686803, -28735.000340342565, -53169.413288761774, -101253.402382541, -187500.02235174447, -187500.02235174447, -48706.01579022596, -47278.87925849906, -78590.09696127141, -49326.90254770548, -89097.40616052225, -32183.293364440608, 0.0, 0.0, 0.0, 193.0, 0.0, 1.0, 1.0, 0.0, 0.0, 1.0, 1.0, 256.0, 1.0, 1.750528717877428E9, 0.0, 2025-06-21 19:58:37.877
200.0, -44456.36802391625, -38344.70818575718, -30295.017992856265, -73418.81971583601, -27964.06632233457, -28707.597101640356, -53157.03042233353, -101203.82621333913, -187500.02235174447, -187500.02235174447, -48652.8856936557, -47218.306031025175, -78554.40122537628, -49248.11264850052, -89093.1816808202, -32095.96509885372, 0.0, 0.0, 0.0, 193.0, 0.0, 1.0, 1.0, 0.0, 0.0, 1.0, 1.0, 256.0, 1.0, 1.750528717886472E9, 0.0, 2025-06-21 19:58:37.886
202.0, -44495.3047627574, -38375.419482638776, -30334.848801475622, -73475.63785024142, -27993.81649420458, -28676.371714636294, -53227.68428655676, -101304.14084245454, -187500.02235174447, -187500.02235174447, -48699.08674944482, -47256.482810554844, -78570.33801917291, -49297.53235549121, -89053.46263092311, -32152.291494881094, 0.0, 0.0, 0.0, 193.0, 0.0, 1.0, 1.0, 0.0, 0.0, 1.0, 1.0, 256.0, 1.0, 1.750528717893487E9, 0.0, 2025-06-21 19:58:37.893
204.0, -44431.579939315314, -38324.68102272523, -30303.55635923819, -73422.9771403047, -28002.131343141955, -28763.141186611796, -53156.44927697769, -101200.27228597073, -187500.02235174447, -187500.02235174447, -48660.328824559314, -47236.835627178625, -78566.33705691542, -49274.80063138016, -89100.28953555698, -32124.374166056416, 0.0, 0.0, 0.0, 193.0, 0.0, 1.0, 1.0, 0.0, 0.0, 1.0, 1.0, 256.0, 1.0, 1.750528717901529E9, 0.0, 2025-06-21 19:58:37.901
206.0, -44505.29599252892, -38393.032657269556, -30352.23845866185, -73494.63683302842, -28037.737672059262, -28732.228724030105, -53227.97485923468, -101263.72888847935, -187500.02235174447, -187500.02235174447, -48687.75441500598, -47253.3535663311, -78578.0940744989, -49300.4380822704, -89111.08542812889, -32147.038834934097, 0.0, 0.0, 0.0, 193.0, 0.0, 1.0, 1.0, 0.0, 0.0, 1.0, 1.0, 256.0, 1.0, 1.750528717909514E9, 0.0, 2025-06-21 19:58:37.909
208.0, -44433.27867189392, -38326.98325240413, -30295.912062634477, -73432.2307625092, -27958.456034476287, -28671.923717489688, -53213.82620499447, -101242.47237950235, -187500.02235174447, -187500.02235174447, -48698.3938453667, -47271.50318282881, -78582.4973681566, -49319.45941680187, -89083.54807895995, -32178.018352749154, 0.0, 0.0, 0.0, 193.0, 0.0, 1.0, 1.0, 0.0, 0.0, 1.0, 1.0, 256.0, 1.0, 1.750528717918555E9, 0.0, 2025-06-21 19:58:37.918
210.0, -44458.06675649485, -38359.1027091864, -30325.259903104296, -73453.8896028864, -27984.2052440888, -28730.820564129423, -53202.24800136662, -101234.895138132, -187500.02235174447, -187500.02235174447, -48633.842007379775, -47205.20790877437, -78537.97269320163, -49238.210825706825, -89079.94944810265, -32085.191558026265, 0.0, 0.0, 0.0, 193.0, 0.0, 1.0, 1.0, 0.0, 0.0, 1.0, 1.0, 256.0, 1.0, 1.750528717925568E9, 0.0, 2025-06-21 19:58:37.925
212.0, -44483.43598645163, -38379.15222396281, -30344.974141713876, -73488.1995306253, -27995.87285469447, -28718.81767735692, -53246.25858619912, -101277.49756306382, -187500.02235174447, -187500.02235174447, -48726.31117419138, -47292.558526105706, -78599.3505834759, -49344.895701992005, -89101.47417801312, -32196.078562269042, 0.0, 0.0, 0.0, 193.0, 0.0, 1.0, 1.0, 0.0, 0.0, 1.0, 1.0, 256.0, 1.0, 1.750528717933564E9, 0.0, 2025-06-21 19:58:37.933
214.0, -44430.0376689479, -38332.10180188439, -30316.56507451118, -73437.88575385639, -28006.60169203302, -28717.811848856432, -53197.06239665299, -101227.60846943957, -187500.02235174447, -187500.02235174447, -48683.753452748475, -47258.226246622355, -78584.3525629464, -49295.453643256864, -89117.4333235542, -32143.127279654418, 0.0, 0.0, 0.0, 193.0, 0.0, 1.0, 1.0, 0.0, 0.0, 1.0, 1.0, 256.0, 1.0, 1.750528717942606E9, 0.0, 2025-06-21 19:58:37.942
216.0, -44471.32134095685, -38376.71588381718, -30336.547534054225, -73480.77875146613, -27993.481218037752, -28734.486250220092, -53250.39365892335, -101290.57333357017, -187500.02235174447, -187500.02235174447, -48656.17140009063, -47224.743333428305, -78544.56645781595, -49273.12425054601, -89075.97083758962, -32120.663776476835, 0.0, 0.0, 0.0, 193.0, 0.0, 1.0, 1.0, 0.0, 0.0, 1.0, 1.0, 256.0, 1.0, 1.750528717948658E9, 0.0, 2025-06-21 19:58:37.948
218.0, -44431.06584919284, -38335.63337750833, -30328.165629883486, -73453.42021625284, -27969.095464837013, -28740.610628200848, -53222.275164398576, -101237.19736781089, -187500.02235174447, -187500.02235174447, -48730.22272947106, -47297.92294477498, -78611.12995280385, -49358.75378355429, -89128.07275391492, -32210.316623487073, 0.0, 0.0, 0.0, 193.0, 0.0, 1.0, 1.0, 0.0, 0.0, 1.0, 1.0, 256.0, 1.0, 1.750528717957686E9, 0.0, 2025-06-21 19:58:37.957
220.0, -44455.31749192685, -38361.516697587576, -30335.564057298194, -73475.07905663003, -28029.64634056644, -28731.647578674267, -53269.92908357729, -101291.93678998195, -187500.02235174447, -187500.02235174447, -48633.14910330166, -47207.2419175198, -78539.96199845815, -49254.25937822573, -89092.46642499762, -32101.284814034083, 0.0, 0.0, 0.0, 193.0, 0.0, 1.0, 1.0, 0.0, 0.0, 1.0, 1.0, 256.0, 1.0, 1.750528717965736E9, 0.0, 2025-06-21 19:58:37.965
222.0, -44483.01130330698, -38380.78390130805, -30358.742816298345, -73502.16937090986, -28006.132305399457, -28682.361982150316, -53256.98742353766, -101284.53836256724, -187500.02235174447, -187500.02235174447, -48732.92729055015, -47317.54777640674, -78616.44966798421, -49374.53411513974, -89122.41776256774, -32232.37779526446, 0.0, 0.0, 0.0, 193.0, 0.0, 1.0, 1.0, 0.0, 0.0, 1.0, 1.0, 256.0, 1.0, 1.750528717973694E9, 0.0, 2025-06-21 19:58:37.973
224.0, -44393.917249908125, -38309.68300219572, -30288.915966619967, -73412.29300645507, -27965.429778746344, -28742.130546823806, -53171.648463207304, -101196.76306209124, -187500.02235174447, -187500.02235174447, -48664.039214138895, -47232.81231317667, -78564.794786548, -49283.026073339715, -89106.16804434873, -32128.039852147085, 0.0, 0.0, 0.0, 193.0, 0.0, 1.0, 1.0, 0.0, 0.0, 1.0, 1.0, 256.0, 1.0, 1.750528717980753E9, 0.0, 2025-06-21 19:58:37.980
226.0, -44473.31064621337, -38378.10169197341, -30337.128679410063, -73488.40069632539, -28035.100166213535, -28682.853720528332, -53265.07875503049, -101301.45863311991, -187500.02235174447, -187500.02235174447, -48659.30064431437, -47233.572272488156, -78553.08247245342, -49292.2349920553, -89091.70646568615, -32141.36149184245, 0.0, 0.0, 0.0, 193.0, 0.0, 1.0, 1.0, 0.0, 0.0, 1.0, 1.0, 256.0, 1.0, 1.750528717989783E9, 0.0, 2025-06-21 19:58:37.989
228.0, -44424.69560202308, -38334.13581062982, -30301.72351619286, -73436.99168407818, -27978.39379053042, -28702.7244213491, -53218.31890562998, -101242.11475159107, -187500.02235174447, -187500.02235174447, -48696.22572615454, -47268.97743570536, -78582.4526646677, -49325.941422693904, -89092.64523895326, -32178.75596031618, 0.0, 0.0, 0.0, 193.0, 0.0, 1.0, 1.0, 0.0, 0.0, 1.0, 1.0, 256.0, 1.0, 1.750528717997824E9, 0.0, 2025-06-21 19:58:37.997
230.0, -44411.86570070573, -38325.91036867027, -30291.575824210147, -73417.0315762796, -27956.10910130848, -28717.744793623067, -53196.97298967517, -101222.31110600366, -187500.02235174447, -187500.02235174447, -48629.43871372208, -47197.87653659303, -78532.72003325463, -49242.59176762006, -89087.81726215091, -32087.73965689417, 0.0, 0.0, 0.0, 193.0, 0.0, 1.0, 1.0, 0.0, 0.0, 1.0, 1.0, 256.0, 1.0, 1.750528718004822E9, 0.0, 2025-06-21 19:58:38.004
232.0, -44519.37759153576, -38418.066611059505, -30369.695171081446, -73508.00317621269, -28032.864991768005, -28701.58448238188, -53286.98346459669, -101325.17383398699, -187500.02235174447, -187500.02235174447, -48707.6474675712, -47274.74418577483, -78586.58773739192, -49325.47203606034, -89086.83378539489, -32177.392503904404, 0.0, 0.0, 0.0, 193.0, 0.0, 1.0, 1.0, 0.0, 0.0, 1.0, 1.0, 256.0, 1.0, 1.750528718013884E9, 0.0, 2025-06-21 19:58:38.013
234.0, -44452.65763433667, -38362.008435965596, -30285.876129374046, -73417.32214895751, -27987.66976447937, -28744.008093358054, -53199.31992284297, -101214.33153323311, -187500.02235174447, -187500.02235174447, -48679.4395660686, -47250.604301763095, -78579.92691754425, -49291.72090193283, -89128.63154752631, -32133.73954698319, 0.0, 0.0, 0.0, 193.0, 0.0, 1.0, 1.0, 0.0, 0.0, 1.0, 1.0, 256.0, 1.0, 1.750528718021907E9, 0.0, 2025-06-21 19:58:38.021
236.0, -44557.30850187642, -38445.246332317154, -30339.542667811238, -73484.0421061566, -28003.561854787094, -28713.654424387747, -53279.04859531506, -101303.44793837643, -187500.02235174447, -187500.02235174447, -48683.57463879283, -47248.41383080648, -78573.98135351914, -49278.22044828182, -89076.93196260119, -32128.46453529174, 0.0, 0.0, 0.0, 193.0, 0.0, 1.0, 1.0, 0.0, 0.0, 1.0, 1.0, 256.0, 1.0, 1.750528718028961E9, 0.0, 2025-06-21 19:58:38.028
238.0, -44550.04418492844, -38434.40573625633, -30316.05098438871, -73448.2346115392, -27979.287860308632, -28733.279256019505, -53237.18377795027, -101225.97679209433, -187500.02235174447, -187500.02235174447, -48719.22567119905, -47283.818994023684, -78594.76847586257, -49326.61197502756, -89100.3342390459, -32173.41389339136, 0.0, 0.0, 0.0, 193.0, 0.0, 1.0, 1.0, 0.0, 0.0, 1.0, 1.0, 256.0, 1.0, 1.750528718037017E9, 0.0, 2025-06-21 19:58:38.037
240.0, -44593.026589516, -38473.90126870886, -30295.599138212103, -73432.87896309841, -27970.414217759877, -28742.845802646378, -53199.834012965446, -101226.15560604997, -187500.02235174447, -187500.02235174447, -48648.929434887104, -47214.08155132313, -78551.540202086, -49247.084468255576, -89088.44311099566, -32093.349944752452, 0.0, 0.0, 0.0, 193.0, 0.0, 1.0, 1.0, 0.0, 0.0, 1.0, 1.0, 256.0, 1.0, 1.750528718045992E9, 0.0, 2025-06-21 19:58:38.045
242.0, -44662.40640430527, -38535.90500782788, -30342.87307773508, -73482.9915741672, -28004.657090265406, -28695.169531723208, -53257.099182259946, -101305.14667095503, -187500.02235174447, -187500.02235174447, -48721.237328200026, -47278.991017221335, -78583.68201061273, -49325.2932221047, -89078.0271980795, -32181.102893483985, 0.0, 0.0, 0.0, 193.0, 0.0, 1.0, 1.0, 0.0, 0.0, 1.0, 1.0, 256.0, 1.0, 1.750528718053975E9, 0.0, 2025-06-21 19:58:38.053
244.0, -44658.83012519242, -38544.309263743075, -30305.947995894912, -73439.07039631253, -28021.420898606888, -28756.50271850857, -53193.77669021806, -101243.142931836, -187500.02235174447, -187500.02235174447, -48706.686342559624, -47258.42741232245, -78564.16893770325, -49309.021152141235, -89148.92693149173, -32147.619980289935, 0.0, 0.0, 0.0, 193.0, 0.0, 1.0, 1.0, 0.0, 0.0, 1.0, 1.0, 256.0, 1.0, 1.750528718061097E9, 0.0, 2025-06-21 19:58:38.061
246.0, -44752.61804492689, -38635.92906426538, -30341.86724923459, -73493.20632138329, -28018.671634038885, -28735.134450809295, -53272.7230516342, -101304.85609827712, -187500.02235174447, -187500.02235174447, -48699.66789480065, -47270.92203747297, -78545.75110027207, -49277.88517211499, -89066.024311307, -32136.242942362183, 0.0, 0.0, 0.0, 193.0, 0.0, 1.0, 1.0, 0.0, 0.0, 1.0, 1.0, 256.0, 1.0, 1.750528718069102E9, 0.0, 2025-06-21 19:58:38.069
248.0, -44706.28287867104, -38600.47919755927, -30310.61951048607, -73441.03734982459, -27980.67366846486, -28732.49694496357, -53229.40537087982, -101242.0923998466, -187500.02235174447, -187500.02235174447, -48750.518113436476, -47302.907383788515, -78595.84135959642, -49328.26600411726, -89102.16708209123, -32177.50426262668, 0.0, 0.0, 0.0, 193.0, 0.0, 1.0, 1.0, 0.0, 0.0, 1.0, 1.0, 256.0, 1.0, 1.750528718078122E9, 0.0, 2025-06-21 19:58:38.078
250.0, -44726.04182076953, -38621.10985769151, -30312.519408764772, -73443.56309694804, -27983.378229543952, -28769.80200645948, -53186.71353897018, -101272.64723451702, -187500.02235174447, -187500.02235174447, -48669.135411874704, -47222.82108340515, -78493.80564615794, -49227.63845057946, -89075.30028525594, -32073.1216160204, 0.0, 0.0, 0.0, 193.0, 0.0, 1.0, 1.0, 0.0, 0.0, 1.0, 1.0, 256.0, 1.0, 1.75052871808516E9, 0.0, 2025-06-21 19:58:38.085
252.0, -44785.63157148738, -38672.40711121644, -30365.984781501866, -73499.33069936403, -28029.35576788852, -28698.63405211378, -53268.00683355413, -101291.46740334838, -187500.02235174447, -187500.02235174447, -48773.518058480986, -47317.25720372882, -78589.62757463784, -49343.1969694134, -89100.84832916837, -32193.865739567966, 0.0, 0.0, 0.0, 193.0, 0.0, 1.0, 1.0, 0.0, 0.0, 1.0, 1.0, 256.0, 1.0, 1.750528718093185E9, 0.0, 2025-06-21 19:58:38.093
254.0, -44738.33528021995, -38628.64239557295, -30327.271560105273, -73449.50866097315, -28030.45100336683, -28751.562982983945, -53213.24505963863, -101231.22945204133, -187500.02235174447, -187500.02235174447, -48726.467636402565, -47276.08529044215, -78564.66067608127, -49300.080454359115, -89131.71608826115, -32142.099099409475, 0.0, 0.0, 0.0, 193.0, 0.0, 1.0, 1.0, 0.0, 0.0, 1.0, 1.0, 256.0, 1.0, 1.750528718101249E9, 0.0, 2025-06-21 19:58:38.101
0.0, -44779.21662082871, -38679.805538631146, -30324.09761239262, -73473.11210311796, -27977.030334118648, -28683.412514139716, -53235.30623141602, -101249.31201330567, -187500.02235174447, -187500.02235174447, -48728.09931374781, -47280.57799107766, -78581.15626348928, -49308.28354457421, -89110.05724788395, -32155.532497827116, 0.0, 0.0, 0.0, 193.0, 0.0, 1.0, 1.0, 0.0, 0.0, 1.0, 1.0, 256.0, 1.0, 1.750528718110221E9, 0.0, 2025-06-21 19:58:38.110
2.0, -44743.43147795576, -38646.61319811502, -30308.80901918519, -73441.4843847137, -27971.420046260366, -28745.50566023656, -53202.42681532226, -101228.16726305096, -187500.02235174447, -187500.02235174447, -48731.228557971546, -47286.2106306804, -78594.58966190692, -49312.82094869864, -89073.66860791072, -32166.127224698932, 0.0, 0.0, 0.0, 193.0, 0.0, 1.0, 1.0, 0.0, 0.0, 1.0, 1.0, 256.0, 1.0, 1.750528718117254E9, 0.0, 2025-06-21 19:58:38.117
4.0, -44788.269077333105, -38699.028038862714, -30343.8118510022, -73476.2413473417, -28008.345128100533, -28776.686343751713, -53269.68321438828, -101299.71519705238, -187500.02235174447, -187500.02235174447, -48681.56298179185, -47230.331269542134, -78550.42261486323, -49258.39445094996, -89097.31675354442, -32102.514159979128, 0.0, 0.0, 0.0, 193.0, 0.0, 1.0, 1.0, 0.0, 0.0, 1.0, 1.0, 256.0, 1.0, 1.750528718125297E9, 0.0, 2025-06-21 19:58:38.125
6.0, -44846.33890942799, -38748.33598713112, -30389.163540502017, -73526.37631015496, -28033.826116779583, -28687.860511286322, -53282.44606047226, -101317.17190947199, -187500.02235174447, -187500.02235174447, -48802.97765767308, -47353.69054719097, -78660.12497664988, -49391.29792348122, -89143.47310584463, -32241.43025176886, 0.0, 0.0, 0.0, 193.0, 0.0, 1.0, 1.0, 0.0, 0.0, 1.0, 1.0, 256.0, 1.0, 1.750528718134329E9, 0.0, 2025-06-21 19:58:38.134
8.0, -44768.15250732333, -38681.59367818757, -30333.82062123068, -73448.0334458391, -27964.021618845658, -28761.755378455568, -53213.71444627219, -101233.26346078677, -187500.02235174447, -187500.02235174447, -48742.270319732466, -47290.72568306037, -78606.07845855695, -49303.61202998305, -89134.75592550707, -32143.350797098974, 0.0, 0.0, 0.0, 193.0, 0.0, 1.0, 1.0, 0.0, 0.0, 1.0, 1.0, 256.0, 1.0, 1.750528718141351E9, 0.0, 2025-06-21 19:58:38.141
10.0, -44837.15234245686, -38744.91617022946, -30353.08782495115, -73498.77190575266, -28047.840660553058, -28700.422191670204, -53255.758077592625, -101289.43339460295, -187500.02235174447, -187500.02235174447, -48732.279089960946, -47283.751938790316, -78597.00365030809, -49302.00270438227, -89106.23509958209, -32147.664683778847, 0.0, 0.0, 0.0, 193.0, 0.0, 1.0, 1.0, 0.0, 0.0, 1.0, 1.0, 256.0, 1.0, 1.750528718149406E9, 0.0, 2025-06-21 19:58:38.149
12.0, -44805.01053393013, -38708.79575118968, -30334.915856708987, -73461.95858263476, -28011.317910113088, -28737.16845955473, -53214.69792302822, -101242.45002775789, -187500.02235174447, -187500.02235174447, -48770.6123317018, -47316.117264761604, -78616.33790926194, -49344.76159152527, -89119.780256722, -32192.055248267086, 0.0, 0.0, 0.0, 193.0, 0.0, 1.0, 1.0, 0.0, 0.0, 1.0, 1.0, 256.0, 1.0, 1.75052871815743E9, 0.0, 2025-06-21 19:58:38.157
