%OpenBCI Raw EXG Data
%Number of channels = 16
%Sample Rate = 125 Hz
%Board = OpenBCI_GUI$BoardCytonSerialDaisy
Sample Index, EXG Channel 0, EXG Channel 1, EXG Channel 2, EXG Channel 3, EXG Channel 4, EXG Channel 5, EXG Channel 6, EXG Channel 7, EXG Channel 8, EXG Channel 9, EXG Channel 10, EXG Channel 11, EXG Channel 12, EXG Channel 13, EXG Channel 14, EXG Channel 15, Accel Channel 0, Accel Channel 1, Accel Channel 2, Not Used, Digital Channel 0 (D11), Digital Channel 1 (D12), Digital Channel 2 (D13), Digital Channel 3 (D17), Not Used, Digital Channel 4 (D18), Analog Channel 0, Analog Channel 1, Analog Channel 2, Timestamp, Marker Channel, Timestamp (Formatted)
38.0, -42702.672505697316, -38832.66911896099, -28715.934302322188, -69845.982771633, -28111.789001439694, -28017.73286077176, -51857.52235144644, -99050.45915251484, -187500.02235174447, -187500.02235174447, -45654.91326509872, -44297.648286539115, -77744.32930282704, -47318.55360490723, -85969.7936141245, -30399.624156907103, 0.0, 0.0, 0.0, 193.0, 0.0, 1.0, 1.0, 0.0, 0.0, 1.0, 1.0, 256.0, 1.0, 1.750526387142659E9, 0.0, 2025-06-21 19:19:47.142
40.0, -42725.314822830536, -38855.132622138575, -28725.45614546015, -69857.5386235164, -28120.774402710726, -27982.618270232473, -51857.768220635444, -99059.39985029696, -187500.02235174447, -187500.02235174447, -45634.394363688756, -44273.62016124966, -77720.9493781268, -47291.9103255165, -85949.65469237027, -30373.11498798311, 0.0, 0.0, 0.0, 193.0, 0.0, 1.0, 1.0, 0.0, 0.0, 1.0, 1.0, 256.0, 1.0, 1.750526387143411E9, 0.0, 2025-06-21 19:19:47.143
0.0, -20996.044098859322, -19030.297580992887, -13974.176522991243, -34579.3109630717, -13724.596944403285, -14295.035814647177, -25642.860012395384, -49226.386752889965, -93750.01117587223, -93750.01117587223, -22832.776347729727, -22149.841147642273, -38864.25213387634, -23665.892918812388, -42966.13251759202, -15202.67310174383, 0.0, 0.0, 0.0, 193.0, 0.0, 1.0, 1.0, 0.0, 0.0, 1.0, 1.0, 256.0, 1.0, 1.750526387216252E9, 0.0, 2025-06-21 19:19:47.216
2.0, -41983.572183081174, -38051.6321124592, -27927.67768236133, -69145.92613529279, -27432.452432209546, -28547.22333517353, -51270.118507160965, -98442.26818588593, -187500.02235174447, -187500.02235174447, -44816.96871721372, -43565.91922830573, -76990.0249826938, -46590.043197875406, -85236.63404424596, -29625.650301653186, 0.0, 0.0, 0.0, 193.0, 0.0, 1.0, 1.0, 0.0, 0.0, 1.0, 1.0, 256.0, 1.0, 1.750526387223272E9, 0.0, 2025-06-21 19:19:47.223
4.0, -42014.64110787405, -38080.42115931764, -27945.33556048102, -69175.96687984072, -27444.343560259767, -28508.219541099017, -51314.44201641584, -98469.11263097676, -187500.02235174447, -187500.02235174447, -44815.20292940175, -43590.39438848429, -76985.91226171402, -46631.013945461986, -85200.7594943952, -29663.134177104734, 0.0, 0.0, 0.0, 193.0, 0.0, 1.0, 1.0, 0.0, 0.0, 1.0, 1.0, 256.0, 1.0, 1.750526387231286E9, 0.0, 2025-06-21 19:19:47.231
6.0, -41983.52747959227, -38051.36389152573, -27931.678644618827, -69152.9222313073, -27437.705092156542, -28560.969658013542, -51278.43335609834, -98439.45186608456, -187500.02235174447, -187500.02235174447, -44819.89679573737, -43578.86088834535, -76996.3281746302, -46612.953735942094, -85229.30267206463, -29647.24208679701, 0.0, 0.0, 0.0, 193.0, 0.0, 1.0, 1.0, 0.0, 0.0, 1.0, 1.0, 256.0, 1.0, 1.750526387239343E9, 0.0, 2025-06-21 19:19:47.239
8.0, -42015.93750905246, -38080.21999361754, -27950.76703438366, -69182.04655433257, -27437.05689156734, -28498.20595958304, -51300.673341831374, -98454.58399708082, -187500.02235174447, -187500.02235174447, -44815.26998463512, -43588.96387683915, -76996.5740438192, -46613.78075048694, -85224.47469526228, -29648.896115886702, 0.0, 0.0, 0.0, 193.0, 0.0, 1.0, 1.0, 0.0, 0.0, 1.0, 1.0, 256.0, 1.0, 1.750526387247321E9, 0.0, 2025-06-21 19:19:47.247
10.0, -42020.54196841025, -38075.637886004195, -27973.96814512827, -69183.76763865563, -27438.800327634854, -28543.110614193753, -51309.30111519112, -98460.99894773948, -187500.02235174447, -187500.02235174447, -44850.33987168549, -43616.031839374526, -77021.11625923113, -46648.89534102623, -85230.68848022085, -29679.2050813681, 0.0, 0.0, 0.0, 193.0, 0.0, 1.0, 1.0, 0.0, 0.0, 1.0, 1.0, 256.0, 1.0, 1.750526387256366E9, 0.0, 2025-06-21 19:19:47.256
12.0, -42006.03568625876, -38067.814775444844, -27955.527955952643, -69167.49556869216, -27455.184156320593, -28565.70822783807, -51287.19523992482, -98449.06311620036, -187500.02235174447, -187500.02235174447, -44837.21939769023, -43583.95708608116, -77016.33298591769, -46610.003305674, -85258.29288462317, -29642.637627439217, 0.0, 0.0, 0.0, 193.0, 0.0, 1.0, 1.0, 0.0, 0.0, 1.0, 1.0, 256.0, 1.0, 1.75052638726238E9, 0.0, 2025-06-21 19:19:47.262
14.0, -42005.096912991634, -38065.020807387926, -27956.958467597782, -69182.13596131039, -27437.012188078428, -28495.724915948504, -51294.21368768379, -98450.89595924568, -187500.02235174447, -187500.02235174447, -44834.87246452242, -43602.956068868174, -77007.05701196873, -46640.51343685549, -85216.87510214747, -29670.53260451944, 0.0, 0.0, 0.0, 193.0, 0.0, 1.0, 1.0, 0.0, 0.0, 1.0, 1.0, 256.0, 1.0, 1.750526387271413E9, 0.0, 2025-06-21 19:19:47.271
16.0, -41992.15525295201, -38063.99262714299, -27939.09942377799, -69160.63358314439, -27446.28816202738, -28566.423483660637, -51283.417795111876, -98442.5364068194, -187500.02235174447, -187500.02235174447, -44826.26704290713, -43582.66068490275, -77002.81018052222, -46609.91389869618, -85231.5154947657, -29643.554048961887, 0.0, 0.0, 0.0, 193.0, 0.0, 1.0, 1.0, 0.0, 0.0, 1.0, 1.0, 256.0, 1.0, 1.750526387279456E9, 0.0, 2025-06-21 19:19:47.279
18.0, -42024.76644811231, -38082.54457504089, -27948.889487849414, -69178.98436534218, -27455.51943248742, -28505.291462575373, -51309.14465297993, -98466.81040129786, -187500.02235174447, -187500.02235174447, -44830.223301675716, -43595.15531005327, -77004.75478228985, -46620.441570334624, -85228.74387845324, -29653.746444433506, 0.0, 0.0, 0.0, 193.0, 0.0, 1.0, 1.0, 0.0, 0.0, 1.0, 1.0, 256.0, 1.0, 1.750526387287437E9, 0.0, 2025-06-21 19:19:47.287
20.0, -42002.727628079374, -38062.53976375339, -27942.42983370183, -69162.95816456774, -27435.693435155565, -28511.684061489592, -51296.04653072912, -98459.5907878388, -187500.02235174447, -187500.02235174447, -44837.9346535128, -43601.43615024521, -76999.41271536502, -46634.18789317464, -85212.7623811677, -29662.82125268236, 0.0, 0.0, 0.0, 193.0, 0.0, 1.0, 1.0, 0.0, 0.0, 1.0, 1.0, 256.0, 1.0, 1.750526387295496E9, 0.0, 2025-06-21 19:19:47.295
22.0, -41992.75875005231, -38058.06941486233, -27932.23743823021, -69151.71523710672, -27423.869362338708, -28540.763681025946, -51286.94937073581, -98453.08643020231, -187500.02235174447, -187500.02235174447, -44810.79963574406, -43568.95906555165, -76990.78494200528, -46592.39013104321, -85232.23075058828, -29627.930179587627, 0.0, 0.0, 0.0, 193.0, 0.0, 1.0, 1.0, 0.0, 0.0, 1.0, 1.0, 256.0, 1.0, 1.750526387304505E9, 0.0, 2025-06-21 19:19:47.304
24.0, -42025.70522137943, -38080.91289769565, -27956.176156541846, -69178.22440603071, -27445.639961438177, -28509.471238788516, -51310.23988845824, -98463.03295648491, -187500.02235174447, -187500.02235174447, -44833.66547032183, -43595.02119958654, -76994.98706996287, -46632.71267804059, -85209.38726775495, -29665.14583410571, 0.0, 0.0, 0.0, 193.0, 0.0, 1.0, 1.0, 0.0, 0.0, 1.0, 1.0, 256.0, 1.0, 1.750526387311548E9, 0.0, 2025-06-21 19:19:47.311
26.0, -41991.97643899637, -38052.10149909276, -27935.187868498313, -69151.0223330286, -27440.230839279993, -28519.26130285994, -51284.89301024593, -98438.2895753729, -187500.02235174447, -187500.02235174447, -44829.82097027552, -43585.25348725957, -77001.33496538817, -46607.455206806095, -85229.19091334235, -29644.135194317725, 0.0, 0.0, 0.0, 193.0, 0.0, 1.0, 1.0, 0.0, 0.0, 1.0, 1.0, 256.0, 1.0, 1.750526387319549E9, 0.0, 2025-06-21 19:19:47.319
28.0, -42021.525445166284, -38074.34148482579, -27952.801043129093, -69175.36338274043, -27454.53595573139, -28517.65197725916, -51310.86573730299, -98462.27299717344, -187500.02235174447, -187500.02235174447, -44820.12031318192, -43581.94542908018, -76995.79173276326, -46609.37745682925, -85226.39694528544, -29643.509345472976, 0.0, 0.0, 0.0, 193.0, 0.0, 1.0, 1.0, 0.0, 0.0, 1.0, 1.0, 256.0, 1.0, 1.750526387327675E9, 0.0, 2025-06-21 19:19:47.327
30.0, -42002.32529667918, -38059.90225790766, -27942.563944168563, -69167.6743826478, -27435.20169677755, -28491.723953691002, -51305.0095802557, -98450.47127610103, -187500.02235174447, -187500.02235174447, -44839.07459248002, -43604.31952527995, -77005.35827939013, -46640.580492088855, -85223.26770106169, -29670.845528941816, 0.0, 0.0, 0.0, 193.0, 0.0, 1.0, 1.0, 0.0, 0.0, 1.0, 1.0, 256.0, 1.0, 1.750526387334668E9, 0.0, 2025-06-21 19:19:47.334
32.0, -41985.98617148235, -38060.66221721914, -27931.656292874373, -69157.83961508746, -27420.695414626054, -28534.572247811826, -51297.4099871409, -98445.91152023216, -187500.02235174447, -187500.02235174447, -44805.122292652406, -43570.41192894124, -76984.83937798017, -46594.62530548874, -85231.33668081005, -29629.96418833306, 0.0, 0.0, 0.0, 193.0, 0.0, 1.0, 1.0, 0.0, 0.0, 1.0, 1.0, 256.0, 1.0, 1.750526387343684E9, 0.0, 2025-06-21 19:19:47.343
34.0, -42002.19118621245, -38073.02273190293, -27932.662121374862, -69167.71908613671, -27437.146298545158, -28498.63064272769, -51283.73071953425, -98446.42561035462, -187500.02235174447, -187500.02235174447, -44826.937595240786, -43593.83655713041, -76985.77815124729, -46630.432800106144, -85199.79836938363, -29662.463624771077, 0.0, 0.0, 0.0, 193.0, 0.0, 1.0, 1.0, 0.0, 0.0, 1.0, 1.0, 256.0, 1.0, 1.750526387351734E9, 0.0, 2025-06-21 19:19:47.351
36.0, -41981.91815399148, -38055.096632849774, -27923.900237548383, -69147.08842600447, -27410.7712400879, -28517.182590625598, -51260.820181467556, -98425.63848801119, -187500.02235174447, -187500.02235174447, -44817.37104861392, -43583.10771979186, -76990.38261060508, -46603.40954105968, -85223.17829408387, -29637.96611284806, 0.0, 0.0, 0.0, 193.0, 0.0, 1.0, 1.0, 0.0, 0.0, 1.0, 1.0, 256.0, 1.0, 1.750526387358773E9, 0.0, 2025-06-21 19:19:47.358
38.0, -42015.57988114117, -38076.88958369369, -27939.881734833925, -69170.7812751271, -27445.61760969372, -28475.608345938726, -51298.86285053049, -98447.18556966611, -187500.02235174447, -187500.02235174447, -44794.10288263594, -43565.47219341662, -76968.81317720571, -46583.02475011644, -85197.58554668255, -29617.760135860462, 0.0, 0.0, 0.0, 193.0, 0.0, 1.0, 1.0, 0.0, 0.0, 1.0, 1.0, 256.0, 1.0, 1.750526387366776E9, 0.0, 2025-06-21 19:19:47.366
40.0, -42022.55362541123, -38079.88471745071, -27971.68826719383, -69185.24285378968, -27468.66225822714, -28497.20013108255, -51311.379827425466, -98463.6364535852, -187500.02235174447, -187500.02235174447, -44863.66151138086, -43625.888958679316, -77026.7265470894, -46653.589207361845, -85238.8692186915, -29685.77649423796, 0.0, 0.0, 0.0, 193.0, 0.0, 1.0, 1.0, 0.0, 0.0, 1.0, 1.0, 256.0, 1.0, 1.750526387375801E9, 0.0, 2025-06-21 19:19:47.375
42.0, -42004.24754670233, -38074.72146448153, -27941.28989473461, -69160.99121105566, -27443.80711839284, -28539.84725950328, -51296.5606208516, -98452.12530519073, -187500.02235174447, -187500.02235174447, -44834.000746488666, -43584.44882445918, -77009.58275909218, -46598.425102046145, -85249.39689032995, -29635.261551768966, 0.0, 0.0, 0.0, 193.0, 0.0, 1.0, 1.0, 0.0, 0.0, 1.0, 1.0, 256.0, 1.0, 1.750526387382807E9, 0.0, 2025-06-21 19:19:47.382
44.0, -42022.75479111133, -38085.092673908795, -27954.83505187453, -69175.81041762953, -27424.76343211692, -28484.54904372085, -51304.92017327788, -98453.24289241349, -187500.02235174447, -187500.02235174447, -44836.0347552341, -43596.29524902049, -77000.15032293205, -46624.710753525585, -85205.47571247527, -29657.54624099091, 0.0, 0.0, 0.0, 193.0, 0.0, 1.0, 1.0, 0.0, 0.0, 1.0, 1.0, 256.0, 1.0, 1.750526387390839E9, 0.0, 2025-06-21 19:19:47.390
46.0, -41993.429302385965, -38060.885734663694, -27936.90895282137, -69152.18462374028, -27436.6769119116, -28515.662672002636, -51277.248713642206, -98431.85227296976, -187500.02235174447, -187500.02235174447, -44836.504141867656, -43593.12130130784, -77008.5769305917, -46610.740913241025, -85240.47854429229, -29643.844621639804, 0.0, 0.0, 0.0, 193.0, 0.0, 1.0, 1.0, 0.0, 0.0, 1.0, 1.0, 256.0, 1.0, 1.750526387398867E9, 0.0, 2025-06-21 19:19:47.398
48.0, -42008.606136871116, -38077.94011568309, -27937.53480166612, -69159.76186511063, -27428.540876929866, -28487.387715266672, -51285.2059346683, -98436.41202883865, -187500.02235174447, -187500.02235174447, -44802.99887692915, -43571.59657139738, -76980.99487793384, -46587.808023429876, -85201.89943336243, -29620.57645566183, 0.0, 0.0, 0.0, 193.0, 0.0, 1.0, 1.0, 0.0, 0.0, 1.0, 1.0, 256.0, 1.0, 1.750526387407891E9, 0.0, 2025-06-21 19:19:47.407
50.0, -41995.12803496457, -38069.066473134335, -27931.276313218634, -69154.0174667856, -27437.034539822882, -28486.940680377567, -51276.824030497555, -98428.79008397939, -187500.02235174447, -187500.02235174447, -44829.7315632977, -43596.00467634257, -76995.38940136306, -46616.395904588215, -85199.97718333926, -29645.945685618604, 0.0, 0.0, 0.0, 193.0, 0.0, 1.0, 1.0, 0.0, 0.0, 1.0, 1.0, 256.0, 1.0, 1.750526387414869E9, 0.0, 2025-06-21 19:19:47.414
52.0, -41999.531328622266, -38072.843917947284, -27934.696130120294, -69161.66176338932, -27443.605952692742, -28508.26424458793, -51283.35073987851, -98434.51213055995, -187500.02235174447, -187500.02235174447, -44802.50713855113, -43575.418719699235, -76985.93461345848, -46575.559267468365, -85216.87510214747, -29611.76986834644, 0.0, 0.0, 0.0, 193.0, 0.0, 1.0, 1.0, 0.0, 0.0, 1.0, 1.0, 256.0, 1.0, 1.750526387422936E9, 0.0, 2025-06-21 19:19:47.422
54.0, -42033.617738916604, -38097.028505447925, -27968.15669156989, -69190.67432769231, -27449.931496373596, -28490.762828679424, -51307.55767912361, -98458.7414215495, -187500.02235174447, -187500.02235174447, -44843.008499504154, -43613.70725795117, -77011.12502945961, -46632.28799489594, -85210.03546834415, -29663.938839905124, 0.0, 0.0, 0.0, 193.0, 0.0, 1.0, 1.0, 0.0, 0.0, 1.0, 1.0, 256.0, 1.0, 1.750526387430961E9, 0.0, 2025-06-21 19:19:47.430
56.0, -42005.163968225, -38075.369665070735, -27954.946810596804, -69166.80266461405, -27453.03838885288, -28502.296328818364, -51290.123318448466, -98438.71425851755, -187500.02235174447, -187500.02235174447, -44852.84326706449, -43606.06296134746, -77025.25133195535, -46615.501834810006, -85242.0208146597, -29649.611371709274, 0.0, 0.0, 0.0, 193.0, 0.0, 1.0, 1.0, 0.0, 0.0, 1.0, 1.0, 256.0, 1.0, 1.750526387438926E9, 0.0, 2025-06-21 19:19:47.438
58.0, -42032.41074471602, -38097.9896304595, -27976.046857362613, -69190.92019688133, -27448.210412050536, -28471.54032844786, -51292.134975449444, -98454.31577614734, -187500.02235174447, -187500.02235174447, -44843.701403582265, -43606.77821717003, -77017.71879407392, -46614.38424758724, -85237.0140239017, -29646.839755396817, 0.0, 0.0, 0.0, 193.0, 0.0, 1.0, 1.0, 0.0, 0.0, 1.0, 1.0, 256.0, 1.0, 1.750526387447013E9, 0.0, 2025-06-21 19:19:47.447
60.0, -42009.45550316042, -38078.92359243913, -27951.97402858425, -69175.49749320716, -27429.41259496362, -28493.869721158713, -51296.58297259605, -98448.32550863332, -187500.02235174447, -187500.02235174447, -44861.00165379068, -43625.41957204576, -77024.55842787724, -46635.03725946394, -85215.98103236927, -29670.66671498617, 0.0, 0.0, 0.0, 193.0, 0.0, 1.0, 1.0, 0.0, 0.0, 1.0, 1.0, 256.0, 1.0, 1.750526387454993E9, 0.0, 2025-06-21 19:19:47.454
62.0, -41977.04547370022, -38050.134545580695, -27913.57373161003, -69145.99319052616, -27424.629321650187, -28484.191415809564, -51268.218608882264, -98435.09327591579, -187500.02235174447, -187500.02235174447, -44808.65386827634, -43578.01152205605, -76989.89087222706, -46584.1423373392, -85219.98199462677, -29625.85146735328, 0.0, 0.0, 0.0, 193.0, 0.0, 1.0, 1.0, 0.0, 0.0, 1.0, 1.0, 256.0, 1.0, 1.750526387464066E9, 0.0, 2025-06-21 19:19:47.464
64.0, -42001.811206556704, -38071.34635106878, -27942.38513021292, -69169.9319088378, -27441.862516625228, -28487.566529222317, -51293.76665279468, -98452.88526450221, -187500.02235174447, -187500.02235174447, -44819.87444399291, -43584.40412097027, -76979.72082849989, -46618.51932031147, -85187.57196516657, -29654.01466536697, 0.0, 0.0, 0.0, 193.0, 0.0, 1.0, 1.0, 0.0, 0.0, 1.0, 1.0, 256.0, 1.0, 1.750526387471093E9, 0.0, 2025-06-21 19:19:47.471
66.0, -41988.98130523936, -38065.49019402149, -27947.57073492655, -69164.83571110197, -27438.800327634854, -28515.17093362462, -51273.38186185144, -98443.22931089751, -187500.02235174447, -187500.02235174447, -44832.97256624372, -43585.7899291265, -77001.6255380661, -46613.601936531304, -85233.12482036649, -29648.91846763116, 0.0, 0.0, 0.0, 193.0, 0.0, 1.0, 1.0, 0.0, 0.0, 1.0, 1.0, 256.0, 1.0, 1.750526387479152E9, 0.0, 2025-06-21 19:19:47.479
68.0, -42021.83836958866, -38091.664086778655, -27951.683455906328, -69188.05917359104, -27435.984007833482, -28443.9135723011, -51311.17866172537, -98463.70350881858, -187500.02235174447, -187500.02235174447, -44834.53718835559, -43604.364228768856, -77010.09684921466, -46619.27927962295, -85228.05097437513, -29657.814461924372, 0.0, 0.0, 0.0, 193.0, 0.0, 1.0, 1.0, 0.0, 0.0, 1.0, 1.0, 256.0, 1.0, 1.750526387487158E9, 0.0, 2025-06-21 19:19:47.487
70.0, -42010.43897991646, -38076.129624382214, -27953.82922337404, -69175.60925192943, -27433.77118513241, -28507.88426493219, -51304.45078664432, -98453.51111334696, -187500.02235174447, -187500.02235174447, -44850.697499596776, -43616.523577752545, -77012.75670680484, -46636.244253664525, -85214.10348583502, -29674.19829061011, 0.0, 0.0, 0.0, 193.0, 0.0, 1.0, 1.0, 0.0, 0.0, 1.0, 1.0, 256.0, 1.0, 1.750526387495185E9, 0.0, 2025-06-21 19:19:47.495
72.0, -41983.97451448137, -38047.80996415734, -27917.641749100894, -69146.21670797071, -27443.76241490393, -28468.165215035107, -51284.736548034736, -98437.17198815012, -187500.02235174447, -187500.02235174447, -44809.592641543466, -43570.05430102996, -76989.95792746043, -46587.02571237394, -85230.62142498749, -29626.589074920306, 0.0, 0.0, 0.0, 193.0, 0.0, 1.0, 1.0, 0.0, 0.0, 1.0, 1.0, 256.0, 1.0, 1.750526387502266E9, 0.0, 2025-06-21 19:19:47.502
74.0, -42019.20086374293, -38079.79531047289, -27952.91280185137, -69182.20301654375, -27438.599161934755, -28468.791063879857, -51309.92696403587, -98461.40127913968, -187500.02235174447, -187500.02235174447, -44823.58483357249, -43600.027990344526, -76993.48950308436, -46627.34825937131, -85198.43491297185, -29663.67061897166, 0.0, 0.0, 0.0, 193.0, 0.0, 1.0, 1.0, 0.0, 0.0, 1.0, 1.0, 256.0, 1.0, 1.750526387511259E9, 0.0, 2025-06-21 19:19:47.511
76.0, -41983.706293547904, -38057.890600906685, -27933.265618475154, -69157.39258019836, -27421.097746026247, -28499.904692161643, -51272.510143817686, -98436.8367119833, -187500.02235174447, -187500.02235174447, -44834.403077888855, -43595.57999319792, -77008.66633756952, -46618.02758193345, -85233.97418665579, -29655.601639223296, 0.0, 0.0, 0.0, 193.0, 0.0, 1.0, 1.0, 0.0, 0.0, 1.0, 1.0, 256.0, 1.0, 1.750526387519257E9, 0.0, 2025-06-21 19:19:47.519
78.0, -42002.07942749017, -38068.172403356126, -27961.138243810925, -69192.41776375983, -27412.98406278897, -28434.279970440864, -51290.01155972619, -98455.25454941447, -187500.02235174447, -187500.02235174447, -44817.907490480844, -43592.607211185365, -76992.26015713933, -46609.89154695172, -85213.92467187937, -29647.44325249711, 0.0, 0.0, 0.0, 193.0, 0.0, 1.0, 1.0, 0.0, 0.0, 1.0, 1.0, 256.0, 1.0, 1.750526387526312E9, 0.0, 2025-06-21 19:19:47.526
80.0, -41994.52453786427, -38077.91776393864, -27945.424967458843, -69175.67630716281, -27427.33388272928, -28487.857101900234, -51280.892047988425, -98452.99702322448, -187500.02235174447, -187500.02235174447, -44848.84230480699, -43621.82094118845, -77012.22026493792, -46649.20826544861, -85220.42902951587, -29684.4577413151, 0.0, 0.0, 0.0, 193.0, 0.0, 1.0, 1.0, 0.0, 0.0, 1.0, 1.0, 256.0, 1.0, 1.750526387535309E9, 0.0, 2025-06-21 19:19:47.535
82.0, -41988.02018022778, -38072.19571735808, -27923.497906148186, -69154.4197981858, -27432.43008046509, -28505.604386997747, -51278.165135164876, -98444.86098824276, -187500.02235174447, -187500.02235174447, -44802.55184204005, -43577.855059844864, -76986.8733867256, -46590.75845369798, -85221.68072720537, -29631.975845334036, 0.0, 0.0, 0.0, 193.0, 0.0, 1.0, 1.0, 0.0, 0.0, 1.0, 1.0, 256.0, 1.0, 1.750526387543369E9, 0.0, 2025-06-21 19:19:47.543
84.0, -42010.97542178338, -38094.43570309111, -27945.648484903395, -69178.40321998636, -27418.169667502603, -28474.58016569378, -51296.38180689595, -98457.98146223802, -187500.02235174447, -187500.02235174447, -44821.50612133815, -43601.570260711946, -76989.26502338231, -46625.91774772618, -85196.60206992652, -29663.514156760473, 0.0, 0.0, 0.0, 193.0, 0.0, 1.0, 1.0, 0.0, 0.0, 1.0, 1.0, 256.0, 1.0, 1.750526387551385E9, 0.0, 2025-06-21 19:19:47.551
86.0, -41979.526517334765, -38070.474633035024, -27920.30160669108, -69149.05537951653, -27411.777068588388, -28486.627755955193, -51267.41394608188, -98432.27695611441, -187500.02235174447, -187500.02235174447, -44817.77338001411, -43597.61400194335, -76997.71398278642, -46604.12479688225, -85226.44164877434, -29645.029264095934, 0.0, 0.0, 0.0, 193.0, 0.0, 1.0, 1.0, 0.0, 0.0, 1.0, 1.0, 256.0, 1.0, 1.750526387558433E9, 0.0, 2025-06-21 19:19:47.558
88.0, -42004.336953680155, -38096.08973218081, -27922.96146428126, -69164.5227866796, -27390.095876466738, -28468.522842946393, -51286.256466657695, -98439.96595620704, -187500.02235174447, -187500.02235174447, -44800.227260616695, -43593.83655713041, -76983.69943901294, -46587.74096819651, -85194.99274432573, -29631.99819707849, 0.0, 0.0, 0.0, 193.0, 0.0, 1.0, 1.0, 0.0, 0.0, 1.0, 1.0, 256.0, 1.0, 1.750526387567458E9, 0.0, 2025-06-21 19:19:47.567
90.0, -41995.105683220114, -38089.138339655205, -27931.477478918732, -69165.26039424662, -27402.121114983693, -28480.59278495226, -51285.67532130186, -98442.26818588593, -187500.02235174447, -187500.02235174447, -44823.1825021723, -43605.81709215845, -76994.69649728495, -46616.15003539921, -85189.11423553398, -29656.62981946824, 0.0, 0.0, 0.0, 193.0, 0.0, 1.0, 1.0, 0.0, 0.0, 1.0, 1.0, 256.0, 1.0, 1.75052638757548E9, 0.0, 2025-06-21 19:19:47.575
92.0, -41964.26027587179, -38065.9819323995, -27907.449353629276, -69142.57337362449, -27394.186245702058, -28477.038857583866, -51259.65789075588, -98428.231290368, -187500.02235174447, -187500.02235174447, -44797.34388558196, -43581.29722849098, -76987.1192559146, -46583.87411640574, -85219.37849752647, -29625.270321997443, 0.0, 0.0, 0.0, 193.0, 0.0, 1.0, 1.0, 0.0, 0.0, 1.0, 1.0, 256.0, 1.0, 1.750526387582495E9, 0.0, 2025-06-21 19:19:47.582
94.0, -41981.3593603801, -38077.42602556062, -27923.296740448088, -69162.10879827844, -27380.03759146185, -28449.14388050364, -51277.315768875575, -98437.4849125725, -187500.02235174447, -187500.02235174447, -44791.130100623384, -43585.611115170854, -76964.61104924811, -46604.303610837895, -85171.94809579231, -29640.71537741606, 0.0, 0.0, 0.0, 193.0, 0.0, 1.0, 1.0, 0.0, 0.0, 1.0, 1.0, 256.0, 1.0, 1.750526387591526E9, 0.0, 2025-06-21 19:19:47.591
96.0, -41971.83751724214, -38072.95567666956, -27931.343368452, -69161.84057734496, -27404.55745512932, -28509.918273677624, -51277.025196197654, -98441.35176436327, -187500.02235174447, -187500.02235174447, -44811.604298544444, -43600.38561825581, -76995.63527055208, -46610.875023707755, -85226.84398017454, -29649.52196473145, 0.0, 0.0, 0.0, 193.0, 0.0, 1.0, 1.0, 0.0, 0.0, 1.0, 1.0, 256.0, 1.0, 1.750526387599567E9, 0.0, 2025-06-21 19:19:47.599
98.0, -41987.52844184976, -38083.416293074646, -27928.638807372907, -69168.50139719265, -27394.72268756899, -28467.539366190358, -51291.643237071425, -98448.32550863332, -187500.02235174447, -187500.02235174447, -44796.025132659095, -43591.087292562406, -76981.4195610785, -46602.18019511464, -85211.77890441167, -29641.96707510556, 0.0, 0.0, 0.0, 193.0, 0.0, 1.0, 1.0, 0.0, 0.0, 1.0, 1.0, 256.0, 1.0, 1.75052638760652E9, 0.0, 2025-06-21 19:19:47.606
100.0, -41981.627581313565, -38073.58152551431, -27932.81858358605, -69168.70256289275, -27411.79942033284, -28482.313869275316, -51285.94354223532, -98442.04466844138, -187500.02235174447, -187500.02235174447, -44819.382705614895, -43611.31562129446, -76995.45645659644, -46625.4036576037, -85200.08894206154, -29667.179842851147, 0.0, 0.0, 0.0, 193.0, 0.0, 1.0, 1.0, 0.0, 0.0, 1.0, 1.0, 256.0, 1.0, 1.750526387614631E9, 0.0, 2025-06-21 19:19:47.614
102.0, -41973.20097365391, -38069.491156278986, -27925.107231748967, -69158.77838835459, -27409.251321464937, -28506.0290701424, -51273.71713801827, -98439.07188642882, -187500.02235174447, -187500.02235174447, -44802.86476646242, -43586.28166750451, -76990.62847979409, -46590.110253108774, -85227.5145325082, -29635.976807591538, 0.0, 0.0, 0.0, 193.0, 0.0, 1.0, 1.0, 0.0, 0.0, 1.0, 1.0, 256.0, 1.0, 1.7505263876236E9, 0.0, 2025-06-21 19:19:47.623
104.0, -41985.1591569375, -38070.36287431275, -27938.00418829968, -69173.41878097282, -27398.99187075995, -28448.383921192162, -51287.01642596918, -98443.83280799781, -187500.02235174447, -187500.02235174447, -44812.05133343355, -43601.05617058947, -76982.20187213444, -46622.207358146596, -85191.77409312417, -29662.642438726718, 0.0, 0.0, 0.0, 193.0, 0.0, 1.0, 1.0, 0.0, 0.0, 1.0, 1.0, 256.0, 1.0, 1.75052638763167E9, 0.0, 2025-06-21 19:19:47.631
106.0, -41960.54988629221, -38058.76231894044, -27922.58148462552, -69160.56652791101, -27403.976309773483, -28491.567491479815, -51270.29732111661, -98439.1389416622, -187500.02235174447, -187500.02235174447, -44815.2252811462, -43601.547908967485, -76994.18240716249, -46616.664125521675, -85232.67778547738, -29657.255668312988, 0.0, 0.0, 0.0, 193.0, 0.0, 1.0, 1.0, 0.0, 0.0, 1.0, 1.0, 256.0, 1.0, 1.750526387638747E9, 0.0, 2025-06-21 19:19:47.638
108.0, -41982.70046504742, -38081.15876688466, -27925.487211404707, -69174.29049900657, -27400.645899849642, -28441.700749600026, -51292.93963824984, -98452.57234007983, -187500.02235174447, -187500.02235174447, -44787.30795232153, -43580.805490112965, -76965.86274693761, -46604.862404449275, -85204.40282874141, -29644.649284440195, 0.0, 0.0, 0.0, 193.0, 0.0, 1.0, 1.0, 0.0, 0.0, 1.0, 1.0, 256.0, 1.0, 1.750526387646726E9, 0.0, 2025-06-21 19:19:47.646
110.0, -41982.11931969158, -38079.549441283874, -27944.217973258255, -69185.08639157849, -27413.76637384491, -28451.669627627092, -51285.18358292384, -98445.8891684877, -187500.02235174447, -187500.02235174447, -44828.97160398622, -43628.41470580277, -76999.3233083872, -46652.33750967235, -85218.57383472608, -29689.77745649546, 0.0, 0.0, 0.0, 193.0, 0.0, 1.0, 1.0, 0.0, 0.0, 1.0, 1.0, 256.0, 1.0, 1.750526387655769E9, 0.0, 2025-06-21 19:19:47.655
112.0, -41964.79671773872, -38064.752586454466, -27928.14706899489, -69155.8726615754, -27396.354364914223, -28510.924102178113, -51265.782268736635, -98433.12632240371, -187500.02235174447, -187500.02235174447, -44806.642211275364, -43589.90265010627, -76987.78980824826, -46607.07522715035, -85245.48533505027, -29646.280961785433, 0.0, 0.0, 0.0, 193.0, 0.0, 1.0, 1.0, 0.0, 0.0, 1.0, 1.0, 256.0, 1.0, 1.750526387662758E9, 0.0, 2025-06-21 19:19:47.662
114.0, -41990.568279095685, -38074.185022614605, -27943.86034534697, -69175.47514146271, -27395.192074202547, -28437.990360020445, -51296.65002782942, -98447.94552897758, -187500.02235174447, -187500.02235174447, -44814.53237706809, -43595.80351064247, -76977.48565405437, -46620.97801220155, -85192.89168034693, -29658.417959024664, 0.0, 0.0, 0.0, 193.0, 0.0, 1.0, 1.0, 0.0, 0.0, 1.0, 1.0, 256.0, 1.0, 1.750526387670828E9, 0.0, 2025-06-21 19:19:47.670
116.0, -41982.186374924946, -38070.63109524621, -27947.1460517819, -69169.79779837106, -27422.99764430495, -28476.658877928126, -51284.62478931246, -98442.60346205276, -187500.02235174447, -187500.02235174447, -44827.22816791871, -43608.49930149309, -77005.47003811241, -46613.35606734229, -85235.4717535343, -29653.277057799944, 0.0, 0.0, 0.0, 193.0, 0.0, 1.0, 1.0, 0.0, 0.0, 1.0, 1.0, 256.0, 1.0, 1.750526387678778E9, 0.0, 2025-06-21 19:19:47.678
118.0, -41993.362247152596, -38087.28314486541, -27931.94686555229, -69172.79293212807, -27417.70028086904, -28473.283764515374, -51291.7549957937, -98449.17487492262, -187500.02235174447, -187500.02235174447, -44820.09796143746, -43609.795702671494, -77000.5750060767, -46608.32692483985, -85221.90424464992, -29646.549182718896, 0.0, 0.0, 0.0, 193.0, 0.0, 1.0, 1.0, 0.0, 0.0, 1.0, 1.0, 256.0, 1.0, 1.750526387687871E9, 0.0, 2025-06-21 19:19:47.687
120.0, -41971.18931665293, -38065.020807387926, -27925.688377104805, -69161.10296977794, -27390.162931700102, -28453.63658113916, -51278.500411331705, -98435.69677301607, -187500.02235174447, -187500.02235174447, -44820.61205155993, -43615.338935296415, -76990.85199723864, -46616.12768365475, -85192.35523848001, -29653.21000256658, 0.0, 0.0, 0.0, 193.0, 0.0, 1.0, 1.0, 0.0, 0.0, 1.0, 1.0, 256.0, 1.0, 1.7505263876949E9, 0.0, 2025-06-21 19:19:47.694
122.0, -41971.72575851986, -38074.319133081335, -27923.09557474799, -69163.36049596794, -27401.361155672213, -28506.0290701424, -51282.09904218901, -98439.27305212892, -187500.02235174447, -187500.02235174447, -44801.03192341708, -43585.94639133768, -76982.24657562334, -46582.37654952724, -85216.58452946956, -29625.24797025299, 0.0, 0.0, 0.0, 193.0, 0.0, 1.0, 1.0, 0.0, 0.0, 1.0, 1.0, 256.0, 1.0, 1.750526387702914E9, 0.0, 2025-06-21 19:19:47.702
124.0, -41997.45261638792, -38092.088769923306, -27942.47453719074, -69184.63935668938, -27402.5681498728, -28423.841705780236, -51286.03294921314, -98449.62190981173, -187500.02235174447, -187500.02235174447, -44816.96871721372, -43612.477912006136, -76985.95696520293, -46623.16848315817, -85185.94028782133, -29662.24010732652, 0.0, 0.0, 0.0, 193.0, 0.0, 1.0, 1.0, 0.0, 0.0, 1.0, 1.0, 256.0, 1.0, 1.750526387711007E9, 0.0, 2025-06-21 19:19:47.711
126.0, -41966.45074682841, -38067.188926600094, -27931.231609729723, -69157.19141449826, -27376.37190537118, -28481.15157856364, -51257.17684712134, -98424.96793567753, -187500.02235174447, -187500.02235174447, -44825.37297312891, -43611.98617362812, -77001.98316597738, -46601.62140150325, -85213.14236082345, -29644.179897806633, 0.0, 0.0, 0.0, 193.0, 0.0, 1.0, 1.0, 0.0, 0.0, 1.0, 1.0, 256.0, 1.0, 1.750526387718985E9, 0.0, 2025-06-21 19:19:47.718
128.0, -41988.84719477263, -38089.406560588664, -27924.3919759264, -69162.08644653397, -27422.640016393667, -28472.188529037063, -51283.99894046771, -98439.40716259566, -187500.02235174447, -187500.02235174447, -44809.86086247693, -43598.93275486622, -76985.17465414699, -46592.65835197668, -85200.9606600953, -29634.501592457487, 0.0, 0.0, 0.0, 193.0, 0.0, 1.0, 1.0, 0.0, 0.0, 1.0, 1.0, 256.0, 1.0, 1.750526387726994E9, 0.0, 2025-06-21 19:19:47.726
130.0, -41998.63725884405, -38088.646601277185, -27946.475499448243, -69173.23996701717, -27437.302760756345, -28489.891110645665, -51296.42651038486, -98453.64522381368, -187500.02235174447, -187500.02235174447, -44832.41377263234, -43618.758752198075, -77002.20668342194, -46627.41531460468, -85205.58747119755, -29667.269249828965, 0.0, 0.0, 0.0, 193.0, 0.0, 1.0, 1.0, 0.0, 0.0, 1.0, 1.0, 256.0, 1.0, 1.750526387734995E9, 0.0, 2025-06-21 19:19:47.734
132.0, -41976.55373532221, -38078.856537205764, -27923.676720103827, -69155.82795808649, -27403.775144073385, -28472.702619159536, -51290.65976031539, -98440.86002598525, -187500.02235174447, -187500.02235174447, -44805.032885674584, -43587.75688263856, -76991.2766803833, -46589.059721119374, -85230.08498312057, -29632.28876975641, 0.0, 0.0, 0.0, 193.0, 0.0, 1.0, 1.0, 0.0, 0.0, 1.0, 1.0, 256.0, 1.0, 1.750526387744097E9, 0.0, 2025-06-21 19:19:47.744
134.0, -41997.92200302148, -38092.73697051251, -27940.48523193422, -69177.95618509724, -27398.23191144847, -28418.119659199678, -51291.933809749346, -98449.21957841153, -187500.02235174447, -187500.02235174447, -44815.78407475759, -43606.174720069735, -76986.49340706985, -46618.72048601157, -85185.62736339896, -29658.999104380502, 0.0, 0.0, 0.0, 193.0, 0.0, 1.0, 1.0, 0.0, 0.0, 1.0, 1.0, 256.0, 1.0, 1.750526387750114E9, 0.0, 2025-06-21 19:19:47.750
136.0, -41974.18445040994, -38078.43185406111, -27930.739871351707, -69162.51112967863, -27416.29212096836, -28483.0738285868, -51273.605379295994, -98437.59667129477, -187500.02235174447, -187500.02235174447, -44827.697554552266, -43612.20969107267, -77006.31940440171, -46612.976087686555, -85226.19577958534, -29656.898040401706, 0.0, 0.0, 0.0, 193.0, 0.0, 1.0, 1.0, 0.0, 0.0, 1.0, 1.0, 256.0, 1.0, 1.750526387759102E9, 0.0, 2025-06-21 19:19:47.759
138.0, -42000.17952921147, -38101.25298514998, -27940.641694145408, -69175.63160367389, -27419.242551236457, -28456.408197451616, -51284.08834744553, -98447.34203187728, -187500.02235174447, -187500.02235174447, -44814.93470846829, -43606.4429410032, -76991.23197689439, -46603.4989480375, -85206.79446539814, -29646.10214782979, 0.0, 0.0, 0.0, 193.0, 0.0, 1.0, 1.0, 0.0, 0.0, 1.0, 1.0, 256.0, 1.0, 1.750526387767192E9, 0.0, 2025-06-21 19:19:47.767
140.0, -41974.45267134341, -38072.642752247186, -27920.61453111345, -69150.32942895048, -27403.14929522864, -28462.554927176825, -51265.31288210308, -98429.25947061295, -187500.02235174447, -187500.02235174447, -44820.992031215676, -43604.78891191351, -76986.44870358094, -46620.32981161235, -85194.47865420327, -29658.1497380912, 0.0, 0.0, 0.0, 193.0, 0.0, 1.0, 1.0, 0.0, 0.0, 1.0, 1.0, 256.0, 1.0, 1.750526387775299E9, 0.0, 2025-06-21 19:19:47.775
142.0, -41976.88901148904, -38080.0858831508, -27916.546513622587, -69147.64721961584, -27396.153199214128, -28460.833842853768, -51268.375071093455, -98429.75120899096, -187500.02235174447, -187500.02235174447, -44798.66263850482, -43578.72677787862, -76979.58671803317, -46580.27548554844, -85216.89745389193, -29624.376252219234, 0.0, 0.0, 0.0, 193.0, 0.0, 1.0, 1.0, 0.0, 0.0, 1.0, 1.0, 256.0, 1.0, 1.750526387782288E9, 0.0, 2025-06-21 19:19:47.782
144.0, -41983.77334878127, -38077.15780462716, -27916.278292689123, -69149.99415278365, -27378.04828620533, -28394.89619671061, -51264.19529488031, -98419.1788338636, -187500.02235174447, -187500.02235174447, -44801.00957167263, -43589.00858032806, -76968.61201150561, -46599.38622705772, -85169.08707250204, -29638.144926803703, 0.0, 0.0, 0.0, 193.0, 0.0, 1.0, 1.0, 0.0, 0.0, 1.0, 1.0, 256.0, 1.0, 1.750526387791268E9, 0.0, 2025-06-21 19:19:47.791
146.0, -41996.53619486525, -38095.419179847144, -27947.101348292992, -69170.35659198245, -27422.28238848238, -28495.45669501504, -51284.46832710128, -98446.47031384353, -187500.02235174447, -187500.02235174447, -44824.836531261986, -43607.80639741497, -77002.58666307767, -46599.94502066911, -85221.30074754963, -29642.034130338925, 0.0, 0.0, 0.0, 193.0, 0.0, 1.0, 1.0, 0.0, 0.0, 1.0, 1.0, 256.0, 1.0, 1.750526387799291E9, 0.0, 2025-06-21 19:19:47.799
148.0, -42011.2659944613, -38113.27822366694, -27940.328769723033, -69175.74336239617, -27426.19394376206, -28471.78619763687, -51309.122301235475, -98462.22829368453, -187500.02235174447, -187500.02235174447, -44816.54403406907, -43610.846234660894, -76999.54682583176, -46602.493119537015, -85213.25411954572, -29646.88445888573, 0.0, 0.0, 0.0, 193.0, 0.0, 1.0, 1.0, 0.0, 0.0, 1.0, 1.0, 256.0, 1.0, 1.750526387806283E9, 0.0, 2025-06-21 19:19:47.806
150.0, -41986.94729649393, -38090.904127467176, -27931.477478918732, -69166.93677508077, -27418.594350647254, -28467.964049335013, -51310.23988845824, -98463.03295648491, -187500.02235174447, -187500.02235174447, -44827.94342374127, -43617.03766787502, -76996.93167173049, -46624.19666340312, -85200.67008741738, -29667.179842851147, 0.0, 0.0, 0.0, 193.0, 0.0, 1.0, 1.0, 0.0, 0.0, 1.0, 1.0, 256.0, 1.0, 1.75052638781533E9, 0.0, 2025-06-21 19:19:47.815
152.0, -41973.5586015652, -38088.087807665805, -27919.38518516841, -69155.31386796403, -27390.475856122477, -28436.15751697511, -51308.94348727984, -98459.1884564386, -187500.02235174447, -187500.02235174447, -44803.378856584895, -43591.62373442933, -76985.46522682492, -46585.68460770662, -85221.03252661617, -29633.24989476799, 0.0, 0.0, 0.0, 193.0, 0.0, 1.0, 1.0, 0.0, 0.0, 1.0, 1.0, 256.0, 1.0, 1.750526387823338E9, 0.0, 2025-06-21 19:19:47.823
154.0, -42003.30877343521, -38101.25298514998, -27942.653351146386, -69183.92410086682, -27424.919894328108, -28428.915551771588, -51300.29336217563, -98468.48678213201, -187500.02235174447, -187500.02235174447, -44828.92690049731, -43621.70918246618, -76991.5672530612, -46625.53776807043, -85195.12685479247, -29666.464587028575, 0.0, 0.0, 0.0, 193.0, 0.0, 1.0, 1.0, 0.0, 0.0, 1.0, 1.0, 256.0, 1.0, 1.75052638783038E9, 0.0, 2025-06-21 19:19:47.830
156.0, -41949.73164197584, -38056.840068917285, -27898.75452503616, -69134.03500724256, -27399.75183007143, -28459.559793419816, -51263.32357684655, -98427.71720024553, -187500.02235174447, -187500.02235174447, -44802.70830425123, -43592.49545246309, -76982.69361051245, -46597.64279099021, -85211.82360790057, -29643.1964210506, 0.0, 0.0, 0.0, 193.0, 0.0, 1.0, 1.0, 0.0, 0.0, 1.0, 1.0, 256.0, 1.0, 1.750526387838429E9, 0.0, 2025-06-21 19:19:47.838
158.0, -41993.07167447468, -38099.241328149, -27929.018787028646, -69166.64620240286, -27406.323242941293, -28449.97089504849, -51297.655856329904, -98460.57426459483, -187500.02235174447, -187500.02235174447, -44785.899792420845, -43582.258353502555, -76965.75098821532, -46584.99170362851, -85189.8071396121, -29630.590037177808, 0.0, 0.0, 0.0, 193.0, 0.0, 1.0, 1.0, 0.0, 0.0, 1.0, 1.0, 256.0, 1.0, 1.750526387847447E9, 0.0, 2025-06-21 19:19:47.847
160.0, -41987.282572660755, -38084.82445297533, -27932.103327763478, -69162.91346107882, -27403.32810918428, -28433.09532798473, -51291.48677486024, -98448.6384330557, -187500.02235174447, -187500.02235174447, -44824.545958584065, -43609.527481738034, -76990.24850013835, -46623.03437269144, -85197.42908447135, -29667.559822506886, 0.0, 0.0, 0.0, 193.0, 0.0, 1.0, 1.0, 0.0, 0.0, 1.0, 1.0, 256.0, 1.0, 1.75052638785546E9, 0.0, 2025-06-21 19:19:47.855
162.0, -41984.5109563483, -38090.65825827816, -27930.069319018046, -69159.78421685509, -27411.15121974364, -28437.76684257589, -51275.66173978588, -98441.55293006336, -187500.02235174447, -187500.02235174447, -44803.356504840434, -43585.409949470755, -76984.5711570467, -46581.728348938035, -85221.34545103853, -29629.96418833306, 0.0, 0.0, 0.0, 193.0, 0.0, 1.0, 1.0, 0.0, 0.0, 1.0, 1.0, 256.0, 1.0, 1.750526387862509E9, 0.0, 2025-06-21 19:19:47.862
164.0, -41984.5109563483, -38080.6893802511, -27918.781688068117, -69155.40327494184, -27397.918987026096, -28423.931112758055, -51271.169039150365, -98429.4829880575, -187500.02235174447, -187500.02235174447, -44818.10865618094, -43616.56828124145, -76988.66152628203, -46614.719523754065, -85184.7556453652, -29659.066159613867, 0.0, 0.0, 0.0, 193.0, 0.0, 1.0, 1.0, 0.0, 0.0, 1.0, 1.0, 256.0, 1.0, 1.750526387870543E9, 0.0, 2025-06-21 19:19:47.870
166.0, -41976.82195625567, -38080.35410408427, -27922.894409047894, -69150.88822256187, -27404.624510362686, -28490.516959490415, -51263.278873357645, -98435.65206952716, -187500.02235174447, -187500.02235174447, -44798.99791467165, -43584.47117620363, -76976.23395636487, -46572.899409878184, -85194.4563024588, -29619.30240622788, 0.0, 0.0, 0.0, 193.0, 0.0, 1.0, 1.0, 0.0, 0.0, 1.0, 1.0, 256.0, 1.0, 1.750526387879505E9, 0.0, 2025-06-21 19:19:47.879
168.0, -42003.37582866858, -38115.4463428791, -27923.497906148186, -69170.24483326016, -27403.618681862197, -28406.742621271926, -51294.303094661605, -98451.52180809043, -187500.02235174447, -187500.02235174447, -44807.491577564666, -43603.76073166856, -76985.12995065808, -46587.56215424087, -85194.34454373653, -29634.993330835503, 0.0, 0.0, 0.0, 193.0, 0.0, 1.0, 1.0, 0.0, 0.0, 1.0, 1.0, 256.0, 1.0, 1.750526387886578E9, 0.0, 2025-06-21 19:19:47.886
170.0, -41990.38946514004, -38103.01877296195, -27927.610627127964, -69169.10489429295, -27416.71680411301, -28445.00880777941, -51276.33229211954, -98443.72104927553, -187500.02235174447, -187500.02235174447, -44825.194159173276, -43629.68875523672, -76997.11048568612, -46618.80989298939, -85188.42133145587, -29663.648267227207, 0.0, 0.0, 0.0, 193.0, 0.0, 1.0, 1.0, 0.0, 0.0, 1.0, 1.0, 256.0, 1.0, 1.750526387894622E9, 0.0, 2025-06-21 19:19:47.894
172.0, -41973.73741552084, -38091.59703154529, -27918.066432245545, -69149.68122836128, -27402.925777784083, -28484.05730534283, -51260.820181467556, -98431.53934854739, -187500.02235174447, -187500.02235174447, -44801.43425481728, -43590.41674022874, -76985.57698554719, -46579.35906402577, -85217.3668405255, -29627.125516787233, 0.0, 0.0, 0.0, 193.0, 0.0, 1.0, 1.0, 0.0, 0.0, 1.0, 1.0, 256.0, 1.0, 1.750526387902623E9, 0.0, 2025-06-21 19:19:47.902
174.0, -42001.185357711955, -38109.38902013171, -27931.09749926299, -69169.9319088378, -27406.502056896934, -28389.799998974802, -51289.273952159165, -98442.04466844138, -187500.02235174447, -187500.02235174447, -44812.58777530048, -43604.006600857574, -76979.92199419999, -46607.92459343965, -85179.32417146256, -29651.980656621537, 0.0, 0.0, 0.0, 193.0, 0.0, 1.0, 1.0, 0.0, 0.0, 1.0, 1.0, 256.0, 1.0, 1.750526387911638E9, 0.0, 2025-06-21 19:19:47.911
176.0, -41974.22915389886, -38079.705903495065, -27921.977987525224, -69150.86587081742, -27403.171646973093, -28443.57829613427, -51268.57623679355, -98427.27016535643, -187500.02235174447, -187500.02235174447, -44812.40896134484, -43608.38754277081, -76995.85878799664, -46596.92753516764, -85216.27160504718, -29644.112842573268, 0.0, 0.0, 0.0, 193.0, 0.0, 1.0, 1.0, 0.0, 0.0, 1.0, 1.0, 256.0, 1.0, 1.750526387918703E9, 0.0, 2025-06-21 19:19:47.918
178.0, -42006.95210778143, -38111.73595329952, -27938.16065051087, -69174.13403679538, -27425.813964106317, -28452.563697405305, -51302.349722665516, -98452.54998833538, -187500.02235174447, -187500.02235174447, -44808.609164787435, -43596.92109786524, -76986.29224136975, -46601.152014869695, -85213.5670439681, -29645.45394724059, 0.0, 0.0, 0.0, 193.0, 0.0, 1.0, 1.0, 0.0, 0.0, 1.0, 1.0, 256.0, 1.0, 1.750526387926696E9, 0.0, 2025-06-21 19:19:47.926
180.0, -41985.29326740423, -38089.04893267738, -27922.13444973641, -69159.4712924327, -27406.65851910812, -28440.71727284399, -51288.357530636495, -98442.91638647515, -187500.02235174447, -187500.02235174447, -44830.11154295344, -43619.96574639866, -76997.78103801979, -46629.18110241665, -85201.51945370669, -29672.20898535359, 0.0, 0.0, 0.0, 193.0, 0.0, 1.0, 1.0, 0.0, 0.0, 1.0, 1.0, 256.0, 1.0, 1.750526387935752E9, 0.0, 2025-06-21 19:19:47.935
182.0, -41965.10964216109, -38072.642752247186, -27904.364812894444, -69140.18173696777, -27393.42628639058, -28430.994264005934, -51266.966911192765, -98438.51309281745, -187500.02235174447, -187500.02235174447, -44789.9231064228, -43574.14467026528, -76969.8190057062, -46575.246343046, -85209.3649160105, -29623.213961507558, 0.0, 0.0, 0.0, 193.0, 0.0, 1.0, 1.0, 0.0, 0.0, 1.0, 1.0, 256.0, 1.0, 1.750526387942771E9, 0.0, 2025-06-21 19:19:47.942
184.0, -41996.715008820895, -38093.273412379436, -27931.94686555229, -69178.53733045308, -27416.29212096836, -28388.414190818574, -51294.61601908398, -98460.75307855048, -187500.02235174447, -187500.02235174447, -44799.69081874977, -43598.21749904365, -76966.667409738, -46611.925555697155, -85178.49715691771, -29655.512232245474, 0.0, 0.0, 0.0, 193.0, 0.0, 1.0, 1.0, 0.0, 0.0, 1.0, 1.0, 256.0, 1.0, 1.750526387950801E9, 0.0, 2025-06-21 19:19:47.950
186.0, -41962.09215665962, -38065.378435299215, -27918.44641190129, -69156.4761586757, -27416.29212096836, -28474.714276160514, -51266.60928328148, -98437.52961606141, -187500.02235174447, -187500.02235174447, -44810.79963574406, -43612.20969107267, -76993.3777443621, -46605.912936438675, -85219.73612543776, -29652.33828453282, 0.0, 0.0, 0.0, 193.0, 0.0, 1.0, 1.0, 0.0, 0.0, 1.0, 1.0, 256.0, 1.0, 1.750526387958826E9, 0.0, 2025-06-21 19:19:47.958
188.0, -42000.04541874474, -38106.907976497176, -27926.67185386084, -69160.9241558223, -27406.099725496737, -28432.514182628893, -51284.24480965672, -98445.77740976542, -187500.02235174447, -187500.02235174447, -44799.89198444987, -43590.14851929528, -76976.90450869853, -46591.36195079827, -85201.98884034024, -29636.557952947376, 0.0, 0.0, 0.0, 193.0, 0.0, 1.0, 1.0, 0.0, 0.0, 1.0, 1.0, 256.0, 1.0, 1.750526387967896E9, 0.0, 2025-06-21 19:19:47.967
190.0, -41958.56058103569, -38060.95278989706, -27914.736022321707, -69146.06024575952, -27372.75092276942, -28426.009824992398, -51290.7044638043, -98437.8872439727, -187500.02235174447, -187500.02235174447, -44820.075609693005, -43609.28161254902, -76985.73344775838, -46612.28318360844, -85191.77409312417, -29654.39464502271, 0.0, 0.0, 0.0, 193.0, 0.0, 1.0, 1.0, 0.0, 0.0, 1.0, 1.0, 256.0, 1.0, 1.750526387974906E9, 0.0, 2025-06-21 19:19:47.974
192.0, -41962.98622643784, -38081.181118629116, -27913.059641487558, -69151.91640280682, -27418.437888436067, -28432.760051817902, -51283.28368464514, -98447.14086617719, -187500.02235174447, -187500.02235174447, -44780.98240864067, -43572.84826908687, -76967.85205219412, -46568.76433715395, -85210.12487532197, -29617.156638760167, 0.0, 0.0, 0.0, 193.0, 0.0, 1.0, 1.0, 0.0, 0.0, 1.0, 1.0, 256.0, 1.0, 1.750526387982956E9, 0.0, 2025-06-21 19:19:47.982
194.0, -41976.19610741092, -38085.651467520176, -27926.515391649653, -69173.19526352827, -27417.163839002114, -28417.203237677008, -51297.70055981881, -98458.85318027178, -187500.02235174447, -187500.02235174447, -44803.378856584895, -43609.68394394922, -76977.23978486536, -46613.22195687556, -85185.76147386568, -29657.00979912398, 0.0, 0.0, 0.0, 193.0, 0.0, 1.0, 1.0, 0.0, 0.0, 1.0, 1.0, 256.0, 1.0, 1.75052638799097E9, 0.0, 2025-06-21 19:19:47.990
196.0, -41932.274929556246, -38052.86145840424, -27905.70591756176, -69136.98543751067, -27384.776161286376, -28451.62492413818, -51264.86584721397, -98433.21572938154, -187500.02235174447, -187500.02235174447, -44797.209775115225, -43591.19905128468, -76978.13385464357, -46596.480500278536, -85211.55538696711, -29643.062310583868, 0.0, 0.0, 0.0, 193.0, 0.0, 1.0, 1.0, 0.0, 0.0, 1.0, 1.0, 256.0, 1.0, 1.750526387998996E9, 0.0, 2025-06-21 19:19:47.998
198.0, -41966.33898810613, -38077.113101138246, -27921.419193913844, -69160.20889999974, -27408.08903075326, -28412.91170274159, -51292.269085916174, -98454.65105231418, -187500.02235174447, -187500.02235174447, -44782.591734241454, -43576.9833418111, -76957.92787765598, -46588.16565134116, -85191.59527916853, -29632.512287200963, 0.0, 0.0, 0.0, 193.0, 0.0, 1.0, 1.0, 0.0, 0.0, 1.0, 1.0, 256.0, 1.0, 1.75052638800703E9, 0.0, 2025-06-21 19:19:48.007
200.0, -41953.799659466706, -38062.67387422012, -27915.920664777837, -69156.54321390906, -27415.48745816797, -28418.745508044423, -51287.12818469146, -98447.16321792165, -187500.02235174447, -187500.02235174447, -44805.5246240526, -43601.212632800656, -76973.23882260786, -46622.36382035778, -85191.99761056872, -29663.53650850493, 0.0, 0.0, 0.0, 193.0, 0.0, 1.0, 1.0, 0.0, 0.0, 1.0, 1.0, 256.0, 1.0, 1.750526388015017E9, 0.0, 2025-06-21 19:19:48.015
202.0, -41947.96585416387, -38061.10925210825, -27907.51640886264, -69150.06120801702, -27402.165818472604, -28399.701821768504, -51279.59564681002, -98441.50822657446, -187500.02235174447, -187500.02235174447, -44783.48580401967, -43582.05718780246, -76968.74612197235, -46581.52718323794, -85216.09279109155, -29627.751365631982, 0.0, 0.0, 0.0, 193.0, 0.0, 1.0, 1.0, 0.0, 0.0, 1.0, 1.0, 256.0, 1.0, 1.750526388023055E9, 0.0, 2025-06-21 19:19:48.023
204.0, -41970.67522653046, -38072.17336561363, -27922.0897462475, -69160.05243778854, -27391.459332878512, -28371.695085966003, -51297.99113249673, -98443.69869753107, -187500.02235174447, -187500.02235174447, -44798.752045482644, -43596.25054553158, -76967.00268590482, -46609.08688415133, -85177.3572179505, -29652.271229299455, 0.0, 0.0, 0.0, 193.0, 0.0, 1.0, 1.0, 0.0, 0.0, 1.0, 1.0, 256.0, 1.0, 1.750526388030186E9, 0.0, 2025-06-21 19:19:48.030
206.0, -41954.000825166804, -38064.55142075437, -27935.746662109694, -69154.39744644135, -27417.76733610241, -28497.155427593643, -51284.445975356815, -98443.09520043078, -187500.02235174447, -187500.02235174447, -44804.898775207854, -43589.09798730588, -76983.09594191264, -46591.45135777609, -85213.67880269037, -29635.999159335992, 0.0, 0.0, 0.0, 193.0, 0.0, 1.0, 1.0, 0.0, 0.0, 1.0, 1.0, 256.0, 1.0, 1.750526388039183E9, 0.0, 2025-06-21 19:19:48.039
208.0, -41969.08825267413, -38075.079092392814, -27931.969217296748, -69166.9814785697, -27399.081277737772, -28419.796040033823, -51301.165080209386, -98452.99702322448, -187500.02235174447, -187500.02235174447, -44810.509063066136, -43594.574164697435, -76987.87921522609, -46605.68941899412, -85219.64671845993, -29648.87376414225, 0.0, 0.0, 0.0, 193.0, 0.0, 1.0, 1.0, 0.0, 0.0, 1.0, 1.0, 256.0, 1.0, 1.750526388047215E9, 0.0, 2025-06-21 19:19:48.047
210.0, -41966.83072648415, -38075.90610693766, -27936.48426967672, -69177.59855718596, -27421.634187893178, -28373.48322552243, -51302.59559185453, -98459.00964248295, -187500.02235174447, -187500.02235174447, -44818.041600947574, -43614.31075505147, -76990.4720175829, -46634.6572798082, -85205.90039561992, -29676.4558168001, 0.0, 0.0, 0.0, 193.0, 0.0, 1.0, 1.0, 0.0, 0.0, 1.0, 1.0, 256.0, 1.0, 1.750526388054266E9, 0.0, 2025-06-21 19:19:48.054
212.0, -41954.76078447828, -38071.74868246898, -27934.71848186475, -69168.61315591492, -27388.195978188036, -28472.814377881812, -51293.29726616112, -98448.52667433342, -187500.02235174447, -187500.02235174447, -44803.91529845182, -43601.5926124564, -76989.4214855935, -46610.56209928538, -85244.7253757388, -29655.06519735637, 0.0, 0.0, 0.0, 193.0, 0.0, 1.0, 1.0, 0.0, 0.0, 1.0, 1.0, 256.0, 1.0, 1.750526388062216E9, 0.0, 2025-06-21 19:19:48.062
214.0, -41968.194182895924, -38075.12379588173, -27940.82050810105, -69178.26910951962, -27435.04523456636, -28394.270347865862, -51289.832745770545, -98459.90371226118, -187500.02235174447, -187500.02235174447, -44808.92208920981, -43608.56635672646, -76973.79761621924, -46639.03822172144, -85208.78377065466, -29676.701685989105, 0.0, 0.0, 0.0, 193.0, 0.0, 1.0, 1.0, 0.0, 0.0, 1.0, 1.0, 256.0, 1.0, 1.750526388071284E9, 0.0, 2025-06-21 19:19:48.071
216.0, -41928.05044985419, -38038.55634195284, -27901.32497564852, -69135.17494620978, -27408.71487959801, -28446.68518861356, -51274.164172907374, -98434.22155788202, -187500.02235174447, -187500.02235174447, -44797.67916174879, -43587.57806868292, -76972.68002899647, -46606.56113702788, -85220.20551207132, -29649.186688564623, 0.0, 0.0, 0.0, 193.0, 0.0, 1.0, 1.0, 0.0, 0.0, 1.0, 1.0, 256.0, 1.0, 1.750526388079321E9, 0.0, 2025-06-21 19:19:48.079
218.0, -41973.89387773203, -38078.096577894285, -27932.349196952488, -69167.78614137007, -27413.676966867086, -28406.38499336064, -51298.32640866356, -98454.94162499209, -187500.02235174447, -187500.02235174447, -44784.491632520156, -43576.08927203289, -76959.9171829125, -46586.6457327182, -85194.34454373653, -29631.461755211563, 0.0, 0.0, 0.0, 193.0, 0.0, 1.0, 1.0, 0.0, 0.0, 1.0, 1.0, 256.0, 1.0, 1.750526388086295E9, 0.0, 2025-06-21 19:19:48.086
220.0, -41970.38465385255, -38075.83905170429, -27942.876868590938, -69170.3789437269, -27416.403879690635, -28368.722303953447, -51297.70055981881, -98458.40614538267, -187500.02235174447, -187500.02235174447, -44823.38366787239, -43612.85789166187, -76990.33790711618, -46628.354087871805, -85210.37074451099, -29669.68323823014, 0.0, 0.0, 0.0, 193.0, 0.0, 1.0, 1.0, 0.0, 0.0, 1.0, 1.0, 256.0, 1.0, 1.750526388094363E9, 0.0, 2025-06-21 19:19:48.094
222.0, -41940.81329593817, -38050.87215314772, -27908.298719918577, -69143.55685038053, -27394.834446291265, -28428.490868626937, -51280.467364843775, -98439.96595620704, -187500.02235174447, -187500.02235174447, -44788.85022268894, -43585.81228087095, -76976.65863950952, -46584.7458344395, -85225.72639295178, -29632.62404592324, 0.0, 0.0, 0.0, 193.0, 0.0, 1.0, 1.0, 0.0, 0.0, 1.0, 1.0, 256.0, 1.0, 1.750526388103406E9, 0.0, 2025-06-21 19:19:48.103
224.0, -41976.3078661332, -38084.55623204187, -27934.562019653564, -69175.51984495162, -27412.58173138878, -28418.186714433043, -51301.41094939839, -98463.6364535852, -187500.02235174447, -187500.02235174447, -44792.180632612784, -43597.68105717672, -76964.00755214781, -46611.769093485964, -85180.01707554067, -29655.579287478842, 0.0, 0.0, 0.0, 193.0, 0.0, 1.0, 1.0, 0.0, 0.0, 1.0, 1.0, 256.0, 1.0, 1.750526388110408E9, 0.0, 2025-06-21 19:19:48.110
226.0, -41936.99114763631, -38057.57767648431, -27909.930397263815, -69145.52380389259, -27397.494303881445, -28446.215801979997, -51271.9513502063, -98441.10589517426, -187500.02235174447, -187500.02235174447, -44802.61889727341, -43598.46336823265, -76981.24074712287, -46605.063570149374, -85220.42902951587, -29652.38298802173, 0.0, 0.0, 0.0, 193.0, 0.0, 1.0, 1.0, 0.0, 0.0, 1.0, 1.0, 256.0, 1.0, 1.75052638811846E9, 0.0, 2025-06-21 19:19:48.118
228.0, -41963.32150260467, -38085.226784375525, -27919.966330524247, -69165.39450471336, -27385.46906536449, -28377.37242905765, -51287.172888180365, -98449.55485457837, -187500.02235174447, -187500.02235174447, -44780.06598711801, -43585.34289423739, -76959.1125201121, -46585.75166293999, -85190.32122973457, -29631.05942381137, 0.0, 0.0, 0.0, 193.0, 0.0, 1.0, 1.0, 0.0, 0.0, 1.0, 1.0, 256.0, 1.0, 1.750526388126464E9, 0.0, 2025-06-21 19:19:48.126
230.0, -41952.123278632556, -38065.87017367723, -27917.37352816743, -69157.571394154, -27403.70808884002, -28411.72706028546, -51281.83082125555, -98437.61902303924, -187500.02235174447, -187500.02235174447, -44803.44591181826, -43614.60132772939, -76978.78205523278, -46614.47365456506, -85188.08605528904, -29657.814461924372, 0.0, 0.0, 0.0, 193.0, 0.0, 1.0, 1.0, 0.0, 0.0, 1.0, 1.0, 256.0, 1.0, 1.750526388135489E9, 0.0, 2025-06-21 19:19:48.135
232.0, -41957.53240079074, -38073.38035981421, -27924.01199627066, -69157.90667032084, -27415.91214131262, -28442.48306065596, -51284.13305093444, -98448.10199118877, -187500.02235174447, -187500.02235174447, -44782.27880981908, -43582.683036647206, -76971.60714526262, -46575.849840146286, -85216.36101202501, -29622.610464407262, 0.0, 0.0, 0.0, 193.0, 0.0, 1.0, 1.0, 0.0, 0.0, 1.0, 1.0, 256.0, 1.0, 1.750526388142596E9, 0.0, 2025-06-21 19:19:48.142
234.0, -41984.57801158167, -38093.09459842379, -27947.57073492655, -69183.85704563344, -27416.560341901823, -28393.890368210123, -51299.77927205316, -98458.51790410494, -187500.02235174447, -187500.02235174447, -44816.14170266887, -43616.61298473037, -76986.6722210255, -46628.26468089398, -85198.88194786095, -29671.426674297654, 0.0, 0.0, 0.0, 193.0, 0.0, 1.0, 1.0, 0.0, 0.0, 1.0, 1.0, 256.0, 1.0, 1.750526388150544E9, 0.0, 2025-06-21 19:19:48.150
236.0, -41958.49352580232, -38060.57281024132, -27939.255885989176, -69165.50626343564, -27419.443716936556, -28419.19254293353, -51276.421699097365, -98440.68121202961, -187500.02235174447, -187500.02235174447, -44815.98524045769, -43605.258298547065, -76993.6236135511, -46610.78561672993, -85230.64377673194, -29657.68035145764, 0.0, 0.0, 0.0, 193.0, 0.0, 1.0, 1.0, 0.0, 0.0, 1.0, 1.0, 256.0, 1.0, 1.750526388159692E9, 0.0, 2025-06-21 19:19:48.159
238.0, -41993.25048843032, -38100.82830200533, -27953.13631929592, -69196.35167078396, -27422.23768499347, -28366.062446363267, -51303.48966163274, -98463.36823265174, -187500.02235174447, -187500.02235174447, -44812.319554367015, -43617.35059229739, -76994.80825600724, -46618.04993367791, -85225.34641329604, -29666.509290517486, 0.0, 0.0, 0.0, 193.0, 0.0, 1.0, 1.0, 0.0, 0.0, 1.0, 1.0, 256.0, 1.0, 1.75052638816667E9, 0.0, 2025-06-21 19:19:48.166
240.0, -41965.176697394454, -38073.67093249213, -27936.819545843548, -69172.77058038361, -27410.27950170988, -28432.514182628893, -51287.888144002936, -98451.85708425727, -187500.02235174447, -187500.02235174447, -44833.19608368827, -43635.947243684204, -77001.87140725511, -46648.73887881504, -85220.78665742716, -29693.599604797317, 0.0, 0.0, 0.0, 193.0, 0.0, 1.0, 1.0, 0.0, 0.0, 1.0, 1.0, 256.0, 1.0, 1.750526388174677E9, 0.0, 2025-06-21 19:19:48.174
242.0, -41952.65972049948, -38071.25694409096, -27914.937188021802, -69155.58208889748, -27402.769315572896, -28432.46947913998, -51282.30020788911, -98446.80559001036, -187500.02235174447, -187500.02235174447, -44784.066949375505, -43582.30305699147, -76967.98616266086, -46591.27254382045, -85222.53009349467, -29639.508383215474, 0.0, 0.0, 0.0, 193.0, 0.0, 1.0, 1.0, 0.0, 0.0, 1.0, 1.0, 256.0, 1.0, 1.750526388182704E9, 0.0, 2025-06-21 19:19:48.182
244.0, -41971.54694456422, -38085.9420401981, -27934.2937987201, -69175.92217635181, -27376.79658851583, -28370.532795254327, -51287.932847491844, -98447.52084583293, -187500.02235174447, -187500.02235174447, -44805.457568819234, -43613.8413684179, -76974.60227901963, -46629.58343381684, -85194.16572978089, -29670.53260451944, 0.0, 0.0, 0.0, 193.0, 0.0, 1.0, 1.0, 0.0, 0.0, 1.0, 1.0, 256.0, 1.0, 1.750526388191696E9, 0.0, 2025-06-21 19:19:48.191
246.0, -41934.95713889088, -38055.27544680541, -27900.073277959025, -69142.59572536896, -27406.680870852575, -28389.08474315223, -51260.9989954232, -98420.56464201983, -187500.02235174447, -187500.02235174447, -44777.69670220574, -43581.207821513155, -76957.63730497805, -46572.98881685601, -85191.05883730159, -29617.089583526802, 0.0, 0.0, 0.0, 193.0, 0.0, 1.0, 1.0, 0.0, 0.0, 1.0, 1.0, 256.0, 1.0, 1.750526388198714E9, 0.0, 2025-06-21 19:19:48.198
248.0, -41988.60132558362, -38102.12470318374, -27942.161612768366, -69185.75694391214, -27430.28431299738, -28418.05260396631, -51313.68205710436, -98467.65976758716, -187500.02235174447, -187500.02235174447, -44816.70049628025, -43621.06098187697, -76996.35052637465, -46615.30066910991, -85222.75361093922, -29660.25080207, 0.0, 0.0, 0.0, 193.0, 0.0, 1.0, 1.0, 0.0, 0.0, 1.0, 1.0, 256.0, 1.0, 1.750526388206742E9, 0.0, 2025-06-21 19:19:48.206
250.0, -41961.04162467022, -38073.7379877255, -27931.902162063383, -69167.94260358126, -27416.22506573499, -28415.0574702093, -51295.19716443982, -98454.51694184744, -187500.02235174447, -187500.02235174447, -44820.835569004485, -43618.892862664805, -76991.3213838722, -46624.48723608103, -85202.9052618629, -29667.671581229162, 0.0, 0.0, 0.0, 193.0, 0.0, 1.0, 1.0, 0.0, 0.0, 1.0, 1.0, 256.0, 1.0, 1.75052638821475E9, 0.0, 2025-06-21 19:19:48.214
252.0, -41958.627636269055, -38073.06743539184, -27926.560095138564, -69160.2759552331, -27402.188170217058, -28424.132278458153, -51289.29630390362, -98447.02910745492, -187500.02235174447, -187500.02235174447, -44795.98042917019, -43592.51780420754, -76982.24657562334, -46582.66712220516, -85225.86050341852, -29631.640569167208, 0.0, 0.0, 0.0, 193.0, 0.0, 1.0, 1.0, 0.0, 0.0, 1.0, 1.0, 256.0, 1.0, 1.750526388222776E9, 0.0, 2025-06-21 19:19:48.222
254.0, -41988.44486337243, -38100.02363920494, -27950.96820008376, -69187.18745555729, -27410.547722643343, -28350.572687455737, -51307.89295529044, -98463.7929157964, -187500.02235174447, -187500.02235174447, -44823.093095194476, -43622.62560398884, -76989.37678210459, -46627.66118379369, -85198.03258157165, -29671.225508597556, 0.0, 0.0, 0.0, 193.0, 0.0, 1.0, 1.0, 0.0, 0.0, 1.0, 1.0, 256.0, 1.0, 1.750526388230812E9, 0.0, 2025-06-21 19:19:48.230
0.0, -41952.615017010576, -38062.1821358421, -27931.56688589655, -69163.58401341249, -27429.926685086095, -28373.52792901134, -51276.8016787531, -98439.22834864001, -187500.02235174447, -187500.02235174447, -44822.62370856091, -43614.40016202929, -76996.19406416346, -46614.69717200961, -85230.08498312057, -29659.982581136537, 0.0, 0.0, 0.0, 193.0, 0.0, 1.0, 1.0, 0.0, 0.0, 1.0, 1.0, 256.0, 1.0, 1.750526388238855E9, 0.0, 2025-06-21 19:19:48.238
2.0, -41963.81324098269, -38074.78851971489, -27927.834144572516, -69168.9260803373, -27409.921873798594, -28404.7533160154, -51282.12139393346, -98441.35176436327, -187500.02235174447, -187500.02235174447, -44800.45077806125, -43592.62956292982, -76971.04835165123, -46603.27543059295, -85210.95188986682, -29646.48212748553, 0.0, 0.0, 0.0, 193.0, 0.0, 1.0, 1.0, 0.0, 0.0, 1.0, 1.0, 256.0, 1.0, 1.750526388247886E9, 0.0, 2025-06-21 19:19:48.247
4.0, -41956.034833912236, -38067.07716787782, -27927.05183351658, -69162.35466746744, -27400.064754493804, -28416.800906276814, -51276.555809564095, -98436.99317419449, -187500.02235174447, -187500.02235174447, -44807.51392930913, -43604.94537412469, -76973.55174703023, -46618.27345112246, -85189.44951170082, -29658.797938680404, 0.0, 0.0, 0.0, 193.0, 0.0, 1.0, 1.0, 0.0, 0.0, 1.0, 1.0, 256.0, 1.0, 1.750526388253885E9, 0.0, 2025-06-21 19:19:48.253
6.0, -41974.698540532416, -38082.835147718804, -27967.97787761425, -69202.61015923145, -27434.39703397716, -28390.984641430932, -51297.63350458545, -98461.04365122839, -187500.02235174447, -187500.02235174447, -44817.214586402726, -43614.40016202929, -76999.79269502076, -46609.399808573704, -85251.02856767518, -29652.606505466287, 0.0, 0.0, 0.0, 193.0, 0.0, 1.0, 1.0, 0.0, 0.0, 1.0, 1.0, 256.0, 1.0, 1.750526388262922E9, 0.0, 2025-06-21 19:19:48.262
8.0, -41990.32240990668, -38112.31709865536, -27946.162575025868, -69191.9260253818, -27420.583655903778, -28389.062391407777, -51310.68692334735, -98463.1894186961, -187500.02235174447, -187500.02235174447, -44838.09111572398, -43652.666348536775, -77009.31453815872, -46649.387079404245, -85221.25604406072, -29691.58794779634, 0.0, 0.0, 0.0, 193.0, 0.0, 1.0, 1.0, 0.0, 0.0, 1.0, 1.0, 256.0, 1.0, 1.750526388270946E9, 0.0, 2025-06-21 19:19:48.270
10.0, -41945.82008669616, -38074.00620865896, -27925.464859660253, -69161.55000466705, -27400.020051004896, -28445.187621735055, -51287.97755098076, -98446.31385163235, -187500.02235174447, -187500.02235174447, -44812.20779564474, -43609.54983348249, -76993.35539261764, -46604.48242479353, -85222.91007315041, -29651.555973476887, 0.0, 0.0, 0.0, 193.0, 0.0, 1.0, 1.0, 0.0, 0.0, 1.0, 1.0, 256.0, 1.0, 1.750526388279023E9, 0.0, 2025-06-21 19:19:48.279
12.0, -41969.69174977443, -38094.48040658002, -27932.95269405278, -69175.8774728629, -27387.972460743484, -28388.70476349649, -51305.05428374461, -98459.12140120524, -187500.02235174447, -187500.02235174447, -44800.786054228076, -43602.10670257887, -76981.30780235623, -46598.96154391307, -85209.27550903267, -29645.76687166296, 0.0, 0.0, 0.0, 193.0, 0.0, 1.0, 1.0, 0.0, 0.0, 1.0, 1.0, 256.0, 1.0, 1.750526388287012E9, 0.0, 2025-06-21 19:19:48.287
14.0, -41946.49063902982, -38073.559173769856, -27923.319092192545, -69161.7735221116, -27390.252338677925, -28368.61054523117, -51276.46640258627, -98441.55293006336, -187500.02235174447, -187500.02235174447, -44814.17474915681, -43617.81997893095, -76985.2193576359, -46623.99549770302, -85200.71479090629, -29667.53747076243, 0.0, 0.0, 0.0, 193.0, 0.0, 1.0, 1.0, 0.0, 0.0, 1.0, 1.0, 256.0, 1.0, 1.750526388295067E9, 0.0, 2025-06-21 19:19:48.295
16.0, -41945.59656925161, -38076.01786565994, -27905.772972795126, -69151.73758885117, -27410.503019154432, -28381.798074459803, -51279.37212936546, -98445.46448534305, -187500.02235174447, -187500.02235174447, -44775.059196360016, -43585.477004704124, -76964.45458703692, -46582.756529182974, -85220.89841614943, -29630.791202877906, 0.0, 0.0, 0.0, 193.0, 0.0, 1.0, 1.0, 0.0, 0.0, 1.0, 1.0, 256.0, 1.0, 1.750526388303114E9, 0.0, 2025-06-21 19:19:48.303
18.0, -41971.56929630868, -38096.24619439199, -27928.72821435073, -69174.02227807311, -27405.160952229617, -28353.053731090276, -51298.95225750831, -98450.82890401232, -187500.02235174447, -187500.02235174447, -44789.25255408914, -43602.48668223461, -76958.41961603399, -46609.86919520726, -85173.356255693, -29654.037017111426, 0.0, 0.0, 0.0, 193.0, 0.0, 1.0, 1.0, 0.0, 0.0, 1.0, 1.0, 256.0, 1.0, 1.75052638831013E9, 0.0, 2025-06-21 19:19:48.310
20.0, -41958.31471184668, -38085.11502565325, -27940.44052844531, -69171.00479257165, -27423.444679194057, -28435.062281496797, -51272.37603335095, -98444.95039522057, -187500.02235174447, -187500.02235174447, -44822.1319701829, -43625.21840634566, -77000.28443339877, -46619.77101800097, -85233.54950351114, -29664.072950371858, 0.0, 0.0, 0.0, 193.0, 0.0, 1.0, 1.0, 0.0, 0.0, 1.0, 1.0, 256.0, 1.0, 1.750526388319165E9, 0.0, 2025-06-21 19:19:48.319
22.0, -41978.051302200714, -38097.47554033704, -27946.20727851478, -69189.31087128054, -27404.71391734051, -28392.81748447627, -51297.74526330773, -98454.47223835853, -187500.02235174447, -187500.02235174447, -44809.61499328792, -43614.22134807365, -76988.32625011519, -46613.870157464764, -85223.35710803952, -29656.67452295715, 0.0, 0.0, 0.0, 193.0, 0.0, 1.0, 1.0, 0.0, 0.0, 1.0, 1.0, 256.0, 1.0, 1.750526388327244E9, 0.0, 2025-06-21 19:19:48.327
24.0, -41968.194182895924, -38082.61163027425, -27943.52506918014, -69181.15248455435, -27411.79942033284, -28383.34034482722, -51296.739434807234, -98448.83959875579, -187500.02235174447, -187500.02235174447, -44825.50708359564, -43631.02985990404, -76996.3281746302, -46633.15971292969, -85207.39796249843, -29678.042790656425, 0.0, 0.0, 0.0, 193.0, 0.0, 1.0, 1.0, 0.0, 0.0, 1.0, 1.0, 256.0, 1.0, 1.750526388334265E9, 0.0, 2025-06-21 19:19:48.334
26.0, -41971.12226141957, -38093.474578079535, -27946.38609247042, -69189.66849919183, -27430.597237419755, -28401.355850858195, -51299.84632728653, -98458.49555236049, -187500.02235174447, -187500.02235174447, -44810.553766555044, -43619.4963597651, -77001.5808345772, -46606.94111668362, -85248.36871008501, -29657.188613079623, 0.0, 0.0, 0.0, 193.0, 0.0, 1.0, 1.0, 0.0, 0.0, 1.0, 1.0, 256.0, 1.0, 1.750526388342304E9, 0.0, 2025-06-21 19:19:48.342
28.0, -41979.168889423476, -38095.30742112487, -27959.886546121426, -69207.70635696726, -27413.878132567184, -28393.28687110983, -51297.99113249673, -98460.0378227279, -187500.02235174447, -187500.02235174447, -44820.410885859834, -43640.61875827536, -76995.41175310752, -46647.04014623644, -85218.43972425935, -29693.152569908212, 0.0, 0.0, 0.0, 193.0, 0.0, 1.0, 1.0, 0.0, 0.0, 1.0, 1.0, 256.0, 1.0, 1.750526388351293E9, 0.0, 2025-06-21 19:19:48.351
30.0, -41943.67431922845, -38072.776862713916, -27933.86911557545, -69181.71127816573, -27406.122077241194, -28405.8038480048, -51274.946483963315, -98443.92221497562, -187500.02235174447, -187500.02235174447, -44814.44297009027, -43625.44192379021, -76999.21154966492, -46633.20441641861, -85249.95568394133, -29681.753180236006, 0.0, 0.0, 0.0, 193.0, 0.0, 1.0, 1.0, 0.0, 0.0, 1.0, 1.0, 256.0, 1.0, 1.750526388359283E9, 0.0, 2025-06-21 19:19:48.359
32.0, -41972.77629050926, -38102.839959006305, -27944.73206338073, -69199.81619117454, -27403.618681862197, -28368.454083019984, -51295.15246095091, -98457.26620641544, -187500.02235174447, -187500.02235174447, -44799.64611526085, -43622.08916212191, -76985.15230240254, -46623.861387236284, -85225.12289585148, -29670.890232430727, 0.0, 0.0, 0.0, 193.0, 0.0, 1.0, 1.0, 0.0, 0.0, 1.0, 1.0, 256.0, 1.0, 1.750526388366296E9, 0.0, 2025-06-21 19:19:48.366
34.0, -41960.371072336566, -38087.8419384768, -27946.229630259233, -69188.39444975788, -27412.693490111054, -28371.67273422155, -51280.66853054387, -98446.15738942116, -187500.02235174447, -187500.02235174447, -44822.26608064963, -43640.66346176428, -76996.3281746302, -46644.31323341289, -85215.73516318026, -29687.74344775003, 0.0, 0.0, 0.0, 193.0, 0.0, 1.0, 1.0, 0.0, 0.0, 1.0, 1.0, 256.0, 1.0, 1.750526388374421E9, 0.0, 2025-06-21 19:19:48.374
36.0, -41949.93280767594, -38067.92653416712, -27923.073223003536, -69163.8745860904, -27394.409763146614, -28413.403441119608, -51277.874562486955, -98436.52378756092, -187500.02235174447, -187500.02235174447, -44808.92208920981, -43615.20482482968, -76994.2718141403, -46605.08592189383, -85244.41245131641, -29652.15947057718, 0.0, 0.0, 0.0, 193.0, 0.0, 1.0, 1.0, 0.0, 0.0, 1.0, 1.0, 256.0, 1.0, 1.750526388383311E9, 0.0, 2025-06-21 19:19:48.383
38.0, -41991.37294189608, -38099.80012176039, -27950.699979150293, -69191.70250793725, -27416.023900034896, -28377.03715289082, -51316.610135628005, -98465.71516581955, -187500.02235174447, -187500.02235174447, -44808.72092350971, -43617.216481830656, -76978.24561336584, -46618.89929996721, -85185.47090118777, -29664.76585444997, 0.0, 0.0, 0.0, 193.0, 0.0, 1.0, 1.0, 0.0, 0.0, 1.0, 1.0, 256.0, 1.0, 1.750526388390336E9, 0.0, 2025-06-21 19:19:48.390
40.0, -41970.563467808184, -38084.15390064167, -27941.781633112627, -69173.19526352827, -27427.222124007003, -28371.873899921644, -51288.96102773679, -98447.40908711066, -187500.02235174447, -187500.02235174447, -44827.94342374127, -43622.42443828874, -77003.45838111143, -46616.79823598841, -85236.43287854588, -29666.978677151048, 0.0, 0.0, 0.0, 193.0, 0.0, 1.0, 1.0, 0.0, 0.0, 1.0, 1.0, 256.0, 1.0, 1.75052638839837E9, 0.0, 2025-06-21 19:19:48.398
42.0, -41990.076540717666, -38103.08582819532, -27950.67762740584, -69192.1271910819, -27418.884923325175, -28385.016725661368, -51298.14759470792, -98456.50624710397, -187500.02235174447, -187500.02235174447, -44816.365220113425, -43619.33989755391, -76991.29903212775, -46610.383285329735, -85221.45720976082, -29660.295505558912, 0.0, 0.0, 0.0, 193.0, 0.0, 1.0, 1.0, 0.0, 0.0, 1.0, 1.0, 256.0, 1.0, 1.750526388407444E9, 0.0, 2025-06-21 19:19:48.407
44.0, -41953.82201121116, -38076.844880204786, -27926.87301956094, -69168.65785940384, -27407.552588886334, -28409.313071884284, -51276.555809564095, -98434.2886131154, -187500.02235174447, -187500.02235174447, -44821.617880060425, -43627.274766835544, -76988.23684313738, -46626.92357622666, -85202.97231709628, -29672.11957837577, 0.0, 0.0, 0.0, 193.0, 0.0, 1.0, 1.0, 0.0, 0.0, 1.0, 1.0, 256.0, 1.0, 1.750526388415444E9, 0.0, 2025-06-21 19:19:48.415
46.0, -41962.38272933754, -38085.1373773977, -27938.495926677697, -69178.40321998636, -27420.538952414867, -28386.760161728882, -51270.9008182169, -98443.74340101998, -187500.02235174447, -187500.02235174447, -44796.24865010365, -43603.87249039084, -76981.17369188949, -46589.52910775293, -85225.32406155158, -29637.697891914595, 0.0, 0.0, 0.0, 193.0, 0.0, 1.0, 1.0, 0.0, 0.0, 1.0, 1.0, 256.0, 1.0, 1.750526388422509E9, 0.0, 2025-06-21 19:19:48.422
48.0, -41992.22230818538, -38104.91867124065, -27953.62805767394, -69205.31472031055, -27427.222124007003, -28358.798129415292, -51314.44201641584, -98467.70447107607, -187500.02235174447, -187500.02235174447, -44820.835569004485, -43636.01429891757, -76991.25432863884, -46634.567872830376, -85200.02188682818, -29677.64045925623, 0.0, 0.0, 0.0, 193.0, 0.0, 1.0, 1.0, 0.0, 0.0, 1.0, 1.0, 256.0, 1.0, 1.750526388430536E9, 0.0, 2025-06-21 19:19:48.430
50.0, -41958.22530486886, -38082.835147718804, -27931.05279577408, -69173.10585655045, -27411.061812765816, -28412.263502152386, -51283.21662941178, -98447.40908711066, -187500.02235174447, -187500.02235174447, -44828.14458944137, -43636.21546461767, -77009.69451781447, -46623.23553839154, -85235.02471864519, -29671.091398130826, 0.0, 0.0, 0.0, 193.0, 0.0, 1.0, 1.0, 0.0, 0.0, 1.0, 1.0, 256.0, 1.0, 1.750526388439578E9, 0.0, 2025-06-21 19:19:48.439
52.0, -41975.79377601073, -38097.76611301495, -27939.255885989176, -69186.96393811273, -27387.65953632111, -28360.206289315975, -51294.39250163943, -98454.20401742507, -187500.02235174447, -187500.02235174447, -44797.276830348594, -43611.002696872085, -76979.3184970997, -46600.950849169596, -85206.23567178675, -29650.214868809566, 0.0, 0.0, 0.0, 193.0, 0.0, 1.0, 1.0, 0.0, 0.0, 1.0, 1.0, 256.0, 1.0, 1.75052638844659E9, 0.0, 2025-06-21 19:19:48.446
54.0, -41968.21653464038, -38087.21608963205, -27951.81756637306, -69180.9289671098, -27427.19977226255, -28402.80871424779, -51284.356568379, -98447.54319757738, -187500.02235174447, -187500.02235174447, -44821.327307382504, -43629.241720347614, -76990.78494200528, -46631.19275941763, -85209.1637503104, -29676.656982500197, 0.0, 0.0, 0.0, 193.0, 0.0, 1.0, 1.0, 0.0, 0.0, 1.0, 1.0, 256.0, 1.0, 1.75052638845465E9, 0.0, 2025-06-21 19:19:48.454
56.0, -41970.31759861918, -38090.188871644605, -27941.602819156986, -69170.98244082718, -27423.221161749505, -28387.497769295904, -51289.05043471461, -98449.44309585608, -187500.02235174447, -187500.02235174447, -44807.424522331305, -43607.11349333686, -76991.7684187613, -46603.92363118215, -85251.78852698667, -29650.304275787388, 0.0, 0.0, 0.0, 193.0, 0.0, 1.0, 1.0, 0.0, 0.0, 1.0, 1.0, 256.0, 1.0, 1.750526388462657E9, 0.0, 2025-06-21 19:19:48.462
58.0, -41996.20091869842, -38111.15480794368, -27950.2976477501, -69194.92115913882, -27418.594350647254, -28370.80101618779, -51308.25058320172, -98462.31770066234, -187500.02235174447, -187500.02235174447, -44822.467246349726, -43630.694583737204, -76992.70719202844, -46632.93619548514, -85202.03354382915, -29678.042790656425, 0.0, 0.0, 0.0, 193.0, 0.0, 1.0, 1.0, 0.0, 0.0, 1.0, 1.0, 256.0, 1.0, 1.750526388471634E9, 0.0, 2025-06-21 19:19:48.471
60.0, -41950.6033600096, -38079.92942093962, -27923.162629981358, -69161.41589420031, -27399.215388204502, -28388.257728607387, -51275.68409153034, -98435.62971778271, -187500.02235174447, -187500.02235174447, -44822.02021146062, -43627.23006334664, -77001.5808345772, -46613.110198153285, -85229.36972729799, -29659.53554624743, 0.0, 0.0, 0.0, 193.0, 0.0, 1.0, 1.0, 0.0, 0.0, 1.0, 1.0, 256.0, 1.0, 1.750526388478697E9, 0.0, 2025-06-21 19:19:48.478
62.0, -41971.63635154204, -38092.78167400142, -27922.737946836707, -69168.14376928136, -27401.003527760928, -28348.42691998803, -51289.765690537184, -98452.12530519073, -187500.02235174447, -187500.02235174447, -44795.53339428108, -43608.141673581806, -76975.92103194249, -46596.83812818982, -85200.7594943952, -29641.832964638827, 0.0, 0.0, 0.0, 193.0, 0.0, 1.0, 1.0, 0.0, 0.0, 1.0, 1.0, 256.0, 1.0, 1.750526388486708E9, 0.0, 2025-06-21 19:19:48.486
64.0, -41969.244714885324, -38088.19956638808, -27933.757356853173, -69171.4294757163, -27416.448583179546, -28376.76893195736, -51297.25352492971, -98454.24872091398, -187500.02235174447, -187500.02235174447, -44813.01245844513, -43620.63629873232, -76983.7664942463, -46623.727276769554, -85195.88681410394, -29665.995200395013, 0.0, 0.0, 0.0, 193.0, 0.0, 1.0, 1.0, 0.0, 0.0, 1.0, 1.0, 256.0, 1.0, 1.750526388494706E9, 0.0, 2025-06-21 19:19:48.494
66.0, -41974.45267134341, -38096.02267694744, -27942.42983370183, -69175.20692052924, -27418.437888436067, -28398.51717931237, -51282.38961486693, -98452.12530519073, -187500.02235174447, -187500.02235174447, -44800.83075771699, -43601.570260711946, -76985.71109601393, -46588.79150018591, -85228.3638987975, -29634.747461646493, 0.0, 0.0, 0.0, 193.0, 0.0, 1.0, 1.0, 0.0, 0.0, 1.0, 1.0, 256.0, 1.0, 1.750526388502779E9, 0.0, 2025-06-21 19:19:48.502
68.0, -41992.512880863294, -38107.46677010856, -27946.63196165943, -69190.00377535865, -27423.645844894156, -28369.705780709482, -51310.530461136164, -98464.50817161896, -187500.02235174447, -187500.02235174447, -44833.30784241055, -43640.88697920883, -77002.83253226668, -46639.73112579955, -85217.5680062256, -29681.283793602444, 0.0, 0.0, 0.0, 193.0, 0.0, 1.0, 1.0, 0.0, 0.0, 1.0, 1.0, 256.0, 1.0, 1.750526388510819E9, 0.0, 2025-06-21 19:19:48.510
70.0, -41954.716080989376, -38080.041179661894, -27939.9934935562, -69173.46348446172, -27420.829525092784, -28369.43755977602, -51287.86579225848, -98450.94066273459, -187500.02235174447, -187500.02235174447, -44809.950269454755, -43610.2427375606, -76990.36025886063, -46605.488253294025, -85225.92755865188, -29654.886383400728, 0.0, 0.0, 0.0, 193.0, 0.0, 1.0, 1.0, 0.0, 0.0, 1.0, 1.0, 256.0, 1.0, 1.750526388518858E9, 0.0, 2025-06-21 19:19:48.518
72.0, -41979.817090012686, -38103.80108401788, -27925.889542804904, -69170.66951640481, -27396.644937592144, -28384.457932049983, -51300.114548219986, -98458.16027619365, -187500.02235174447, -187500.02235174447, -44811.58194679999, -43616.9929643861, -76990.00263094934, -46618.22874763355, -85230.0179278872, -29666.77751145095, 0.0, 0.0, 0.0, 193.0, 0.0, 1.0, 1.0, 0.0, 0.0, 1.0, 1.0, 256.0, 1.0, 1.750526388527914E9, 0.0, 2025-06-21 19:19:48.527
74.0, -41969.3564736076, -38097.028505447925, -27925.733080593716, -69171.92121409431, -27414.839257578762, -28377.95357441349, -51295.82301328457, -98454.76281103645, -187500.02235174447, -187500.02235174447, -44799.15437688284, -43614.78014168503, -76973.37293307458, -46618.18404414464, -85192.22112801328, -29663.983543394035, 0.0, 0.0, 0.0, 193.0, 0.0, 1.0, 1.0, 0.0, 0.0, 1.0, 1.0, 256.0, 1.0, 1.750526388533868E9, 0.0, 2025-06-21 19:19:48.533
76.0, -41973.20097365391, -38105.7456857855, -27935.90312432088, -69179.11847580892, -27413.676966867086, -28386.33547858423, -51283.52955383415, -98450.78420052341, -187500.02235174447, -187500.02235174447, -44798.86380420492, -43615.67421146324, -76989.91322397151, -46598.04512239041, -85233.3706895555, -29646.72799667454, 0.0, 0.0, 0.0, 193.0, 0.0, 1.0, 1.0, 0.0, 0.0, 1.0, 1.0, 256.0, 1.0, 1.750526388542909E9, 0.0, 2025-06-21 19:19:48.542
78.0, -41989.674209317476, -38116.02748823494, -27948.62126691595, -69195.25643530565, -27409.76541158741, -28336.871068104636, -51297.27587667416, -98459.14375294969, -187500.02235174447, -187500.02235174447, -44823.8307027615, -43643.72565075465, -76996.03760195227, -46635.17136993067, -85203.53111070766, -29677.48399704504, 0.0, 0.0, 0.0, 193.0, 0.0, 1.0, 1.0, 0.0, 0.0, 1.0, 1.0, 256.0, 1.0, 1.750526388550956E9, 0.0, 2025-06-21 19:19:48.550
80.0, -41953.64319725552, -38093.80985424636, -27933.109156263967, -69164.65689714634, -27396.846103292242, -28419.371356889173, -51272.10781241749, -98435.85323522726, -187500.02235174447, -187500.02235174447, -44814.51002532364, -43624.45844703418, -76997.78103801979, -46609.37745682925, -85228.83328543107, -29653.545278733407, 0.0, 0.0, 0.0, 193.0, 0.0, 1.0, 1.0, 0.0, 0.0, 1.0, 1.0, 256.0, 1.0, 1.75052638855896E9, 0.0, 2025-06-21 19:19:48.558
82.0, -41985.472081359876, -38114.999307989994, -27941.06637729006, -69179.54315895357, -27410.52537089889, -28365.056617862778, -51299.08636797505, -98451.56651157934, -187500.02235174447, -187500.02235174447, -44801.546013539555, -43611.695600950196, -76982.11246515662, -46599.87796543574, -85211.84595964504, -29643.464641984065, 0.0, 0.0, 0.0, 193.0, 0.0, 1.0, 1.0, 0.0, 0.0, 1.0, 1.0, 256.0, 1.0, 1.750526388566973E9, 0.0, 2025-06-21 19:19:48.566
84.0, -41979.59357256813, -38107.8467497643, -27941.0440255456, -69171.47417920521, -27402.210521961515, -28356.89823113659, -51289.765690537184, -98440.32358411832, -187500.02235174447, -187500.02235174447, -44822.86957774992, -43630.96280467067, -76997.51281708632, -46625.26954713697, -85206.14626480894, -29667.090435873324, 0.0, 0.0, 0.0, 193.0, 0.0, 1.0, 1.0, 0.0, 0.0, 1.0, 1.0, 256.0, 1.0, 1.750526388575001E9, 0.0, 2025-06-21 19:19:48.575
86.0, -41974.25150564331, -38103.28699389541, -27940.306417978576, -69173.48583620618, -27422.148278015648, -28366.420074274552, -51295.17481269537, -98453.73463079151, -187500.02235174447, -187500.02235174447, -44822.42254286081, -43620.61394698786, -77009.09102071417, -46599.98972415802, -85241.52907628169, -29647.1973833081, 0.0, 0.0, 0.0, 193.0, 0.0, 1.0, 1.0, 0.0, 0.0, 1.0, 1.0, 256.0, 1.0, 1.75052638858303E9, 0.0, 2025-06-21 19:19:48.583
88.0, -41996.75971230981, -38119.603767347784, -27962.077017078045, -69200.57615048601, -27435.469917711012, -28362.508518994873, -51320.655801374414, -98478.03097701442, -187500.02235174447, -187500.02235174447, -44814.30885962354, -43624.23492958963, -76985.57698554719, -46626.878872737754, -85198.72548564977, -29670.30908707489, 0.0, 0.0, 0.0, 193.0, 0.0, 1.0, 1.0, 0.0, 0.0, 1.0, 1.0, 256.0, 1.0, 1.750526388590087E9, 0.0, 2025-06-21 19:19:48.590
90.0, -41963.388557838036, -38097.58729905931, -27950.25294426119, -69181.93479561029, -27396.80139980333, -28401.24409213592, -51313.883222804456, -98473.56062812336, -187500.02235174447, -187500.02235174447, -44838.62755759091, -43637.31070009598, -77017.18235220699, -46637.853579265306, -85256.84002123357, -29682.64725001422, 0.0, 0.0, 0.0, 193.0, 0.0, 1.0, 1.0, 0.0, 0.0, 1.0, 1.0, 256.0, 1.0, 1.750526388599137E9, 0.0, 2025-06-21 19:19:48.599
92.0, -41990.2106511844, -38119.78258130343, -27955.19267978581, -69204.15242959886, -27420.114269270216, -28341.05084431778, -51336.816112615605, -98495.66650338966, -187500.02235174447, -187500.02235174447, -44818.7792085146, -43627.94531916921, -76996.88696824157, -46625.44836109261, -85228.7662301977, -29672.16428186468, 0.0, 0.0, 0.0, 193.0, 0.0, 1.0, 1.0, 0.0, 0.0, 1.0, 1.0, 256.0, 1.0, 1.750526388607175E9, 0.0, 2025-06-21 19:19:48.607
94.0, -41977.04547370022, -38103.622270062246, -27948.53185993813, -69193.69181319379, -27403.976309773483, -28343.66599841905, -51310.9104407919, -98474.9464362796, -187500.02235174447, -187500.02235174447, -44838.82872329101, -43650.721746769166, -77008.15224744705, -46656.09260274084, -85224.18412258437, -29701.154494423212, 0.0, 0.0, 0.0, 193.0, 0.0, 1.0, 1.0, 0.0, 0.0, 1.0, 1.0, 256.0, 1.0, 1.750526388614196E9, 0.0, 2025-06-21 19:19:48.614
96.0, -41976.01729345528, -38106.50564509698, -27949.20241227179, -69190.89784513686, -27408.200789475537, -28382.446275049006, -51294.99599873972, -98464.55287510788, -187500.02235174447, -187500.02235174447, -44816.2758131356, -43624.72666796764, -77002.49725609986, -46608.05870390638, -85243.54073328266, -29657.076854357347, 0.0, 0.0, 0.0, 193.0, 0.0, 1.0, 1.0, 0.0, 0.0, 1.0, 1.0, 256.0, 1.0, 1.750526388622192E9, 0.0, 2025-06-21 19:19:48.622
98.0, -41995.195090197936, -38114.172293445146, -27959.931249610338, -69201.3361097975, -27407.03849876386, -28366.442426019006, -51317.14657749493, -98466.49747687549, -187500.02235174447, -187500.02235174447, -44828.14458944137, -43637.914197196274, -76997.60222406415, -46635.52899784196, -85207.4650177318, -29680.076799401857, 0.0, 0.0, 0.0, 193.0, 0.0, 1.0, 1.0, 0.0, 0.0, 1.0, 1.0, 256.0, 1.0, 1.750526388631209E9, 0.0, 2025-06-21 19:19:48.631
100.0, -41979.861793501594, -38105.90214799668, -27949.828261116538, -69186.3827927569, -27434.911124099628, -28398.494827567916, -51285.04947245711, -98455.03103196992, -187500.02235174447, -187500.02235174447, -44840.8850837809, -43643.21156063218, -77020.87039004212, -46628.9575849721, -85252.41437583142, -29676.031133655448, 0.0, 0.0, 0.0, 193.0, 0.0, 1.0, 1.0, 0.0, 0.0, 1.0, 1.0, 256.0, 1.0, 1.750526388639232E9, 0.0, 2025-06-21 19:19:48.639
102.0, -42002.034724001256, -38128.25389245199, -27949.269467505153, -69197.55866498455, -27404.57980687378, -28351.645571189594, -51301.232135442755, -98458.5849593383, -187500.02235174447, -187500.02235174447, -44823.696592294764, -43634.6508425058, -77003.63719506707, -46613.55723304239, -85225.92755865188, -29660.653133470194, 0.0, 0.0, 0.0, 193.0, 0.0, 1.0, 1.0, 0.0, 0.0, 1.0, 1.0, 256.0, 1.0, 1.750526388646238E9, 0.0, 2025-06-21 19:19:48.646
104.0, -41989.249526172825, -38110.41720037666, -27949.29181924961, -69190.24964454766, -27397.539007370357, -28351.220888044943, -51283.23898115623, -98441.75409576346, -187500.02235174447, -187500.02235174447, -44842.33794717049, -43651.92874096975, -77011.23678818188, -46636.9595094871, -85211.19775905582, -29680.121502890768, 0.0, 0.0, 0.0, 193.0, 0.0, 1.0, 1.0, 0.0, 0.0, 1.0, 1.0, 256.0, 1.0, 1.750526388654205E9, 0.0, 2025-06-21 19:19:48.654
106.0, -41979.54886907922, -38110.12662769874, -27936.260752232167, -69173.46348446172, -27427.6244554072, -28393.398629832107, -51276.689920030825, -98447.16321792165, -187500.02235174447, -187500.02235174447, -44817.88513873639, -43623.74319121161, -77001.15615143254, -46602.8507474483, -85240.23267510327, -29645.409243751677, 0.0, 0.0, 0.0, 193.0, 0.0, 1.0, 1.0, 0.0, 0.0, 1.0, 1.0, 256.0, 1.0, 1.750526388663301E9, 0.0, 2025-06-21 19:19:48.663
108.0, -42011.22129097239, -38133.461848910076, -27956.645543175408, -69201.06788886403, -27427.467993196013, -28316.039242272287, -51303.84728954402, -98462.63062508473, -187500.02235174447, -187500.02235174447, -44823.74129578368, -43630.38165931484, -76989.57794780469, -46629.27050939447, -85197.67495366037, -29666.10695911729, 0.0, 0.0, 0.0, 193.0, 0.0, 1.0, 1.0, 0.0, 0.0, 1.0, 1.0, 256.0, 1.0, 1.750526388670324E9, 0.0, 2025-06-21 19:19:48.670
110.0, -41980.80056676872, -38106.66210730816, -27940.887563334414, -69181.06307757653, -27417.253245979937, -28400.931167713545, -51297.67820807436, -98452.66174705766, -187500.02235174447, -187500.02235174447, -44846.83064780601, -43649.87238047986, -77024.51372438834, -46632.28799489594, -85248.27930310718, -29674.265345843476, 0.0, 0.0, 0.0, 193.0, 0.0, 1.0, 1.0, 0.0, 0.0, 1.0, 1.0, 256.0, 1.0, 1.750526388678317E9, 0.0, 2025-06-21 19:19:48.678
112.0, -42007.332087437164, -38134.713546599574, -27956.69024666432, -69202.54310399808, -27407.932568542074, -28379.47349303645, -51306.44009190084, -98463.27882567393, -187500.02235174447, -187500.02235174447, -44821.21554866023, -43631.968633171164, -77002.36314563312, -46617.96052670009, -85225.68168946287, -29660.653133470194, 0.0, 0.0, 0.0, 193.0, 0.0, 1.0, 1.0, 0.0, 0.0, 1.0, 1.0, 256.0, 1.0, 1.750526388687306E9, 0.0, 2025-06-21 19:19:48.687
114.0, -41989.450691872924, -38111.42302887714, -27957.49490946471, -69193.22242656021, -27410.34655694325, -28330.56787616824, -51291.375016137965, -98446.26914814343, -187500.02235174447, -187500.02235174447, -44832.8831592659, -43641.334014097934, -77005.53709334577, -46632.958547229595, -85210.99659335573, -29673.14775862071, 0.0, 0.0, 0.0, 193.0, 0.0, 1.0, 1.0, 0.0, 0.0, 1.0, 1.0, 256.0, 1.0, 1.750526388694372E9, 0.0, 2025-06-21 19:19:48.694
116.0, -42009.05317176023, -38132.16544773167, -27971.68826719383, -69204.7335749547, -27450.691455685075, -28389.889405952625, -51308.31763843509, -98471.45956414456, -187500.02235174447, -187500.02235174447, -44848.10469723996, -43649.581807801944, -77034.52730590431, -46629.02464020546, -85271.56982082961, -29672.20898535359, 0.0, 0.0, 0.0, 193.0, 0.0, 1.0, 1.0, 0.0, 0.0, 1.0, 1.0, 256.0, 1.0, 1.750526388702423E9, 0.0, 2025-06-21 19:19:48.702
118.0, -42002.50411063482, -38120.9001685262, -27952.35400823999, -69202.16312434235, -27422.28238848238, -28348.158699054566, -51308.78702506865, -98468.12915422073, -187500.02235174447, -187500.02235174447, -44840.66156633635, -43650.96761595817, -77011.72852655989, -46653.52215212848, -85223.17829408387, -29692.660831530196, 0.0, 0.0, 0.0, 193.0, 0.0, 1.0, 1.0, 0.0, 0.0, 1.0, 1.0, 256.0, 1.0, 1.750526388710467E9, 0.0, 2025-06-21 19:19:48.710
120.0, -41966.8530782286, -38098.61547930425, -27934.830240587027, -69174.60342342895, -27398.835408548763, -28389.889405952625, -51274.99118745222, -98444.4363050981, -187500.02235174447, -187500.02235174447, -44825.35062138446, -43638.92002569676, -77009.02396548081, -46627.81764600488, -85241.84200070405, -29671.627839997753, 0.0, 0.0, 0.0, 193.0, 0.0, 1.0, 1.0, 0.0, 0.0, 1.0, 1.0, 256.0, 1.0, 1.750526388719476E9, 0.0, 2025-06-21 19:19:48.719
122.0, -41998.07846523267, -38121.9507005156, -27962.233479289232, -69204.8900371659, -27409.05015576484, -28332.668940147036, -51305.61307735599, -98467.21273269806, -187500.02235174447, -187500.02235174447, -44810.285545621584, -43622.82676968894, -76989.15326466004, -46609.86919520726, -85215.10931433551, -29651.33245603233, 0.0, 0.0, 0.0, 193.0, 0.0, 1.0, 1.0, 0.0, 0.0, 1.0, 1.0, 256.0, 1.0, 1.750526388725542E9, 0.0, 2025-06-21 19:19:48.725
124.0, -42004.58282286916, -38128.700927341095, -27954.18685128532, -69188.05917359104, -27423.154106516136, -28370.555146998784, -51296.135937706946, -98459.47902911653, -187500.02235174447, -187500.02235174447, -44860.17463924583, -43663.775165531064, -77025.49720114436, -46657.25489345252, -85230.88964592095, -29695.231282142555, 0.0, 0.0, 0.0, 193.0, 0.0, 1.0, 1.0, 0.0, 0.0, 1.0, 1.0, 256.0, 1.0, 1.750526388734543E9, 0.0, 2025-06-21 19:19:48.734
126.0, -41967.94831370692, -38102.214110161556, -27923.117926492447, -69165.88624309137, -27409.921873798594, -28383.362696571672, -51280.8026410106, -98439.72008701802, -187500.02235174447, -187500.02235174447, -44809.525586310105, -43613.34963003989, -76996.39522986356, -46591.294895564904, -85228.34154705305, -29636.088566313814, 0.0, 0.0, 0.0, 193.0, 0.0, 1.0, 1.0, 0.0, 0.0, 1.0, 1.0, 256.0, 1.0, 1.750526388742528E9, 0.0, 2025-06-21 19:19:48.742
128.0, -42012.76356133981, -38138.915674557174, -27961.652333933394, -69207.8851709229, -27420.42719369259, -28342.190783284997, -51312.98915302625, -98467.21273269806, -187500.02235174447, -187500.02235174447, -44824.8812347509, -43646.02788043355, -77000.28443339877, -46632.824436762865, -85204.40282874141, -29675.15941562169, 0.0, 0.0, 0.0, 193.0, 0.0, 1.0, 1.0, 0.0, 0.0, 1.0, 1.0, 256.0, 1.0, 1.750526388750575E9, 0.0, 2025-06-21 19:19:48.750
130.0, -41981.42641561347, -38106.907976497176, -27943.52506918014, -69181.35365025444, -27409.161914487115, -28390.55995828628, -51298.214649941285, -98450.85125575677, -187500.02235174447, -187500.02235174447, -44832.43612437679, -43637.69067975172, -77014.99188125037, -46624.80016050341, -85245.59709377255, -29669.415017296677, 0.0, 0.0, 0.0, 193.0, 0.0, 1.0, 1.0, 0.0, 0.0, 1.0, 1.0, 256.0, 1.0, 1.750526388758617E9, 0.0, 2025-06-21 19:19:48.758
132.0, -42000.626564100574, -38124.02941274994, -27949.761205883173, -69198.92212139632, -27410.99475753245, -28345.23062053092, -51309.122301235475, -98464.15054370768, -187500.02235174447, -187500.02235174447, -44814.95706021274, -43622.42443828874, -76995.23293915189, -46613.736046998034, -85222.53009349467, -29658.753235191496, 0.0, 0.0, 0.0, 193.0, 0.0, 1.0, 1.0, 0.0, 0.0, 1.0, 1.0, 256.0, 1.0, 1.750526388766626E9, 0.0, 2025-06-21 19:19:48.766
134.0, -41983.79570052573, -38115.75926730147, -27941.4463569458, -69189.64614744738, -27417.387356446667, -28347.242277531896, -51295.46538537328, -98455.92510174813, -187500.02235174447, -187500.02235174447, -44835.20774068925, -43644.97734844415, -77005.49238985687, -46644.17912294616, -85215.10931433551, -29687.050543671914, 0.0, 0.0, 0.0, 193.0, 0.0, 1.0, 1.0, 0.0, 0.0, 1.0, 1.0, 256.0, 1.0, 1.750526388774652E9, 0.0, 2025-06-21 19:19:48.774
136.0, -41982.879279003064, -38118.88851152522, -27941.088729034513, -69187.4780282352, -27408.446658664547, -28365.794225429803, -51288.29047540313, -98454.74045929199, -187500.02235174447, -187500.02235174447, -44807.223356631206, -43620.703353965684, -76994.74120077386, -46601.53199452544, -85233.0130616442, -29648.359674019775, 0.0, 0.0, 0.0, 193.0, 0.0, 1.0, 1.0, 0.0, 0.0, 1.0, 1.0, 256.0, 1.0, 1.750526388781678E9, 0.0, 2025-06-21 19:19:48.781
138.0, -42004.895747291535, -38130.28790119742, -27952.622229173452, -69204.0853743655, -27417.05208027984, -28325.315216221243, -51306.30598143411, -98466.51982861994, -187500.02235174447, -187500.02235174447, -44824.6800690508, -43644.84323797742, -76994.9200147295, -46640.938120000144, -85203.19583454083, -29682.423732569663, 0.0, 0.0, 0.0, 193.0, 0.0, 1.0, 1.0, 0.0, 0.0, 1.0, 1.0, 256.0, 1.0, 1.750526388790703E9, 0.0, 2025-06-21 19:19:48.790
140.0, -41973.40213935401, -38099.57660431583, -27940.842859845503, -69180.41487698733, -27414.012243033918, -28395.589100788726, -51283.79777476761, -98445.2856713874, -187500.02235174447, -187500.02235174447, -44828.189292930285, -43640.283482108534, -77009.31453815872, -46628.71171578309, -85240.9702826703, -29672.58896500933, 0.0, 0.0, 0.0, 193.0, 0.0, 1.0, 1.0, 0.0, 0.0, 1.0, 1.0, 256.0, 1.0, 1.750526388798727E9, 0.0, 2025-06-21 19:19:48.798
142.0, -42006.16979672549, -38126.08577323983, -27959.595973443505, -69201.55962724205, -27413.60991163372, -28323.840001087192, -51305.50131863372, -98461.98242449551, -187500.02235174447, -187500.02235174447, -44804.45174031875, -43618.6469934758, -76988.32625011519, -46607.723427739555, -85216.7633434252, -29649.857240898284, 0.0, 0.0, 0.0, 193.0, 0.0, 1.0, 1.0, 0.0, 0.0, 1.0, 1.0, 256.0, 1.0, 1.750526388806731E9, 0.0, 2025-06-21 19:19:48.806
144.0, -42011.958898539415, -38129.39383141921, -27974.437531761832, -69207.48283952271, -27430.641940908667, -28369.32580105374, -51316.94541179483, -98474.45469790157, -187500.02235174447, -187500.02235174447, -44863.39329044739, -43673.297008669026, -77036.20368673846, -46662.261684210505, -85239.36095706951, -29702.92028223518, 0.0, 0.0, 0.0, 193.0, 0.0, 1.0, 1.0, 0.0, 0.0, 1.0, 1.0, 256.0, 1.0, 1.750526388814758E9, 0.0, 2025-06-21 19:19:48.814
146.0, -41996.73736056535, -38125.45992439508, -27959.685380421328, -69195.85993240595, -27432.38537697618, -28380.61343200367, -51304.69665583332, -98463.30117741838, -187500.02235174447, -187500.02235174447, -44832.25731042115, -43631.99098491562, -77016.55650336224, -46610.78561672993, -85250.76034674172, -29654.68521770063, 0.0, 0.0, 0.0, 193.0, 0.0, 1.0, 1.0, 0.0, 0.0, 1.0, 1.0, 256.0, 1.0, 1.75052638882279E9, 0.0, 2025-06-21 19:19:48.822
148.0, -42012.517692150795, -38133.5512558879, -27962.099368822503, -69215.55181927107, -27420.293083225857, -28352.584344456714, -51326.84723458854, -98477.0475002584, -187500.02235174447, -187500.02235174447, -44843.991976260186, -43662.948150986216, -77018.8810847856, -46656.18200971866, -85224.25117781773, -29696.2594623875, 0.0, 0.0, 0.0, 193.0, 0.0, 1.0, 1.0, 0.0, 0.0, 1.0, 1.0, 256.0, 1.0, 1.750526388830814E9, 0.0, 2025-06-21 19:19:48.830
150.0, -41954.78313622274, -38089.67478152213, -27921.598007869485, -69165.28274599109, -27394.633280591166, -28371.0468853768, -51276.66756828637, -98439.89890097367, -187500.02235174447, -187500.02235174447, -44816.63344104689, -43629.73345872563, -76999.9268054875, -46618.96635520057, -85231.2696255767, -29662.86595617127, 0.0, 0.0, 0.0, 193.0, 0.0, 1.0, 1.0, 0.0, 0.0, 1.0, 1.0, 256.0, 1.0, 1.750526388837851E9, 0.0, 2025-06-21 19:19:48.837
152.0, -42001.900613534526, -38130.89139829772, -27944.32973198053, -69199.32445279651, -27417.76733610241, -28348.024588587832, -51313.592650126535, -98473.2924071899, -187500.02235174447, -187500.02235174447, -44802.28362110658, -43615.9424323967, -76983.00653493483, -46610.383285329735, -85212.53886372315, -29652.40533976619, 0.0, 0.0, 0.0, 193.0, 0.0, 1.0, 1.0, 0.0, 0.0, 1.0, 1.0, 256.0, 1.0, 1.750526388846865E9, 0.0, 2025-06-21 19:19:48.846
154.0, -41979.12418593457, -38108.91963349815, -27938.406519699874, -69185.15344681185, -27403.797495817842, -28337.832193116214, -51294.81718478408, -98454.69575580308, -187500.02235174447, -187500.02235174447, -44827.54109234108, -43647.279578123045, -77001.15615143254, -46643.68738456815, -85211.42127650039, -29684.949479693114, 0.0, 0.0, 0.0, 193.0, 0.0, 1.0, 1.0, 0.0, 0.0, 1.0, 1.0, 256.0, 1.0, 1.750526388854887E9, 0.0, 2025-06-21 19:19:48.854
156.0, -41995.798587298224, -38127.940968029616, -27955.349141996998, -69195.4799527502, -27422.48355418248, -28376.32189706825, -51307.69178959034, -98469.0455757434, -187500.02235174447, -187500.02235174447, -44809.458531076736, -43620.21161558767, -76996.68580254147, -46599.07330263535, -85234.13064886698, -29642.794089650404, 0.0, 0.0, 0.0, 193.0, 0.0, 1.0, 1.0, 0.0, 0.0, 1.0, 1.0, 256.0, 1.0, 1.750526388861874E9, 0.0, 2025-06-21 19:19:48.861
158.0, -41998.90547977752, -38121.25779643748, -27953.15867104038, -69201.62668247541, -27404.71391734051, -28326.879838333112, -51322.35453395302, -98471.86189554476, -187500.02235174447, -187500.02235174447, -44831.899682509866, -43652.91221772578, -77005.67120381251, -46647.151904958715, -85216.49512249173, -29686.134122149244, 0.0, 0.0, 0.0, 193.0, 0.0, 1.0, 1.0, 0.0, 0.0, 1.0, 1.0, 256.0, 1.0, 1.75052638886996E9, 0.0, 2025-06-21 19:19:48.869
160.0, -41974.45267134341, -38101.230633405525, -27938.831202844525, -69180.41487698733, -27420.60600764823, -28395.365583344174, -51294.32544640607, -98448.52667433342, -187500.02235174447, -187500.02235174447, -44824.32244113951, -43635.254339606094, -77008.80044803626, -46622.14030291323, -85240.83617220356, -29664.92231666116, 0.0, 0.0, 0.0, 193.0, 0.0, 1.0, 1.0, 0.0, 0.0, 1.0, 1.0, 256.0, 1.0, 1.750526388878978E9, 0.0, 2025-06-21 19:19:48.878
162.0, -41996.17856695397, -38120.98957550402, -27941.602819156986, -69187.16510381283, -27412.13469649967, -28335.41820471504, -51308.31763843509, -98459.97076749454, -187500.02235174447, -187500.02235174447, -44803.4235600738, -43617.283537064024, -76987.65569778153, -46605.89058469422, -85215.62340445798, -29647.577362963842, 0.0, 0.0, 0.0, 193.0, 0.0, 1.0, 1.0, 0.0, 0.0, 1.0, 1.0, 256.0, 1.0, 1.750526388887021E9, 0.0, 2025-06-21 19:19:48.887
164.0, -41998.8607762886, -38126.37634591774, -27954.18685128532, -69195.2340835612, -27422.84118209376, -28313.71466084894, -51315.47019666078, -98469.11263097676, -187500.02235174447, -187500.02235174447, -44833.86663602193, -43652.39812760331, -77009.85098002566, -46647.86716078129, -85222.82066617259, -29685.73179074905, 0.0, 0.0, 0.0, 193.0, 0.0, 1.0, 1.0, 0.0, 0.0, 1.0, 1.0, 256.0, 1.0, 1.750526388894046E9, 0.0, 2025-06-21 19:19:48.894
166.0, -41980.7558632798, -38109.746648042994, -27936.35015920999, -69174.06698156202, -27423.109403027225, -28387.788341973825, -51278.09807993151, -98457.9367587491, -187500.02235174447, -187500.02235174447, -44813.660659034336, -43625.44192379021, -76999.81504676522, -46604.594183515816, -85241.86435244851, -29646.325665274344, 0.0, 0.0, 0.0, 193.0, 0.0, 1.0, 1.0, 0.0, 0.0, 1.0, 1.0, 256.0, 1.0, 1.750526388903092E9, 0.0, 2025-06-21 19:19:48.903
168.0, -41998.4137413995, -38126.91278778467, -27941.356949967976, -69191.52369398161, -27391.682850323064, -28335.351149481674, -51306.39538841193, -98467.6374158427, -187500.02235174447, -187500.02235174447, -44812.92305146731, -43629.10760988088, -76984.07941866868, -46633.94202398563, -85198.2560990162, -29671.471377786565, 0.0, 0.0, 0.0, 193.0, 0.0, 1.0, 1.0, 0.0, 0.0, 1.0, 1.0, 256.0, 1.0, 1.750526388911124E9, 0.0, 2025-06-21 19:19:48.911
170.0, -41972.038682942235, -38098.45901709307, -27931.9915690412, -69173.86581586192, -27406.770277830397, -28369.459911520473, -51285.47415560176, -98447.25262489947, -187500.02235174447, -187500.02235174447, -44811.269022377615, -43621.35155455489, -76993.26598563981, -46608.68455275113, -85220.80900917161, -29651.287752543423, 0.0, 0.0, 0.0, 193.0, 0.0, 1.0, 1.0, 0.0, 0.0, 1.0, 1.0, 256.0, 1.0, 1.750526388918124E9, 0.0, 2025-06-21 19:19:48.918
172.0, -42011.62362237259, -38132.74659308751, -27954.67858966334, -69205.87351392192, -27422.930589071584, -28311.099506747665, -51314.4643681603, -98472.55479962287, -187500.02235174447, -187500.02235174447, -44815.85112999095, -43636.61779601786, -77001.87140725511, -46621.08977092383, -85226.50870400772, -29664.743502705518, 0.0, 0.0, 0.0, 193.0, 0.0, 1.0, 1.0, 0.0, 0.0, 1.0, 1.0, 256.0, 1.0, 1.750526388926152E9, 0.0, 2025-06-21 19:19:48.926
174.0, -41992.33406690766, -38115.245177179, -27956.556136197585, -69190.96490037024, -27414.727498856486, -28367.023571374844, -51303.42260639937, -98465.71516581955, -187500.02235174447, -187500.02235174447, -44833.03962147709, -43648.86655197937, -77008.44282012497, -46650.05763173791, -85226.75457319673, -29690.336250106844, 0.0, 0.0, 0.0, 193.0, 0.0, 1.0, 1.0, 0.0, 0.0, 1.0, 1.0, 256.0, 1.0, 1.7505263889342E9, 0.0, 2025-06-21 19:19:48.934
176.0, -41980.577049324165, -38113.25587192248, -27934.22674348673, -69175.60925192943, -27419.15314425864, -28357.725245681435, -51293.744301050225, -98452.99702322448, -187500.02235174447, -187500.02235174447, -44803.937650196276, -43610.60036547189, -76991.67901178349, -46603.7001137376, -85247.98873042926, -29646.23625829652, 0.0, 0.0, 0.0, 193.0, 0.0, 1.0, 1.0, 0.0, 0.0, 1.0, 1.0, 256.0, 1.0, 1.750526388943285E9, 0.0, 2025-06-21 19:19:48.943
178.0, -41990.05418897321, -38114.14994170069, -27933.086804519513, -69179.27493802011, -27394.09683872424, -28331.484297690906, -51297.946429007825, -98455.61217732575, -187500.02235174447, -187500.02235174447, -44812.27485087811, -43629.375830814344, -76981.97835468988, -46630.36574487278, -85198.99370658323, -29669.34796206331, 0.0, 0.0, 0.0, 193.0, 0.0, 1.0, 1.0, 0.0, 0.0, 1.0, 1.0, 256.0, 1.0, 1.750526388950259E9, 0.0, 2025-06-21 19:19:48.950
180.0, -41977.73837777834, -38106.058610207874, -27937.51244992166, -69177.15152229686, -27412.224103477492, -28381.596908759704, -51283.84247825653, -98453.91344474714, -187500.02235174447, -187500.02235174447, -44804.071760663006, -43610.645068960795, -76983.14064540157, -46606.27056434996, -85221.97129988328, -29647.219735052557, 0.0, 0.0, 0.0, 193.0, 0.0, 1.0, 1.0, 0.0, 0.0, 1.0, 1.0, 256.0, 1.0, 1.750526388958279E9, 0.0, 2025-06-21 19:19:48.958
182.0, -42002.727628079374, -38131.18197097564, -27943.234496502224, -69193.24477830468, -27410.368908687702, -28320.017852785335, -51302.550888365615, -98464.39641289669, -187500.02235174447, -187500.02235174447, -44809.88321422139, -43627.67709823574, -76990.78494200528, -46615.43477957664, -85221.25604406072, -29655.713397945572, 0.0, 0.0, 0.0, 193.0, 0.0, 1.0, 1.0, 0.0, 0.0, 1.0, 1.0, 256.0, 1.0, 1.750526388967288E9, 0.0, 2025-06-21 19:19:48.967
184.0, -42007.622660115085, -38130.936101786625, -27955.63971467492, -69201.17964758631, -27421.90240882664, -28350.259763033362, -51313.79381582663, -98470.81136355536, -187500.02235174447, -187500.02235174447, -44831.49735110967, -43654.342729370925, -77007.59345383567, -46650.83994279384, -85220.89841614943, -29689.173959395168, 0.0, 0.0, 0.0, 193.0, 0.0, 1.0, 1.0, 0.0, 0.0, 1.0, 1.0, 256.0, 1.0, 1.750526388975315E9, 0.0, 2025-06-21 19:19:48.975
186.0, -41986.07557846017, -38115.62515683474, -27939.01001680017, -69182.4265339883, -27413.498152911445, -28341.766100140347, -51302.59559185453, -98460.66367157265, -187500.02235174447, -187500.02235174447, -44807.75979849813, -43621.86564467736, -76996.86461649711, -46608.59514577331, -85245.8206112171, -29651.77949092144, 0.0, 0.0, 0.0, 193.0, 0.0, 1.0, 1.0, 0.0, 0.0, 1.0, 1.0, 256.0, 1.0, 1.750526388982358E9, 0.0, 2025-06-21 19:19:48.982
188.0, -42010.03664851626, -38134.04299426592, -27955.036217574623, -69198.89976965186, -27418.035557035873, -28356.697065436492, -51307.71414133479, -98464.70933731906, -187500.02235174447, -187500.02235174447, -44822.62370856091, -43644.77618274405, -77000.19502642096, -46641.005175233506, -85211.48833173375, -29681.328497091356, 0.0, 0.0, 0.0, 193.0, 0.0, 1.0, 1.0, 0.0, 0.0, 1.0, 1.0, 256.0, 1.0, 1.75052638899036E9, 0.0, 2025-06-21 19:19:48.990
190.0, -41987.6625523165, -38115.22282543455, -27947.43662445982, -69183.23119678869, -27421.745946615454, -28368.789359186812, -51304.42843489986, -98458.92023550514, -187500.02235174447, -187500.02235174447, -44819.650926548355, -43629.08525813642, -77005.13476194558, -46614.83128247634, -85240.18797161436, -29657.38977877972, 0.0, 0.0, 0.0, 193.0, 0.0, 1.0, 1.0, 0.0, 0.0, 1.0, 1.0, 256.0, 1.0, 1.750526388999452E9, 0.0, 2025-06-21 19:19:48.999
192.0, -41998.54785186623, -38124.11881972776, -27934.539667909106, -69180.99602234317, -27394.677984080077, -28336.84871636018, -51301.96974300978, -98459.36727039424, -187500.02235174447, -187500.02235174447, -44807.60333628694, -43623.11734236686, -76992.08134318369, -46611.03148591894, -85222.75361093922, -29654.037017111426, 0.0, 0.0, 0.0, 193.0, 0.0, 1.0, 1.0, 0.0, 0.0, 1.0, 1.0, 256.0, 1.0, 1.750526389006491E9, 0.0, 2025-06-21 19:19:49.006
194.0, -41989.227174428364, -38116.65333707969, -27939.52410692264, -69185.53342646759, -27414.66044362312, -28313.379384682106, -51297.92407726337, -98460.35074715028, -187500.02235174447, -187500.02235174447, -44812.4760165782, -43634.4496768057, -76987.47688382589, -46625.78363725945, -85202.2570612737, -29665.3022963169, 0.0, 0.0, 0.0, 193.0, 0.0, 1.0, 1.0, 0.0, 0.0, 1.0, 1.0, 256.0, 1.0, 1.750526389014519E9, 0.0, 2025-06-21 19:19:49.014
196.0, -41975.14557542153, -38104.248118906995, -27930.20342948478, -69172.79293212807, -27402.612853361712, -28378.132388369133, -51287.75403353621, -98449.89013074519, -187500.02235174447, -187500.02235174447, -44795.44398730326, -43614.48956900711, -76985.2193576359, -46598.08982587932, -85235.89643667894, -29639.754252404484, 0.0, 0.0, 0.0, 193.0, 0.0, 1.0, 1.0, 0.0, 0.0, 1.0, 1.0, 256.0, 1.0, 1.750526389022544E9, 0.0, 2025-06-21 19:19:49.022
198.0, -41999.4642733889, -38121.05663073738, -27944.419138958354, -69197.71512719574, -27401.383507416667, -28334.90411459257, -51307.78119656816, -98467.72682282054, -187500.02235174447, -187500.02235174447, -44811.17961539979, -43630.80634245949, -76981.33015410068, -46632.71267804059, -85202.77115139618, -29668.364485307276, 0.0, 0.0, 0.0, 193.0, 0.0, 1.0, 1.0, 0.0, 0.0, 1.0, 1.0, 256.0, 1.0, 1.750526389030537E9, 0.0, 2025-06-21 19:19:49.030
200.0, -41987.6625523165, -38114.14994170069, -27949.940019838814, -69190.8754933924, -27411.57590288829, -28356.47354799194, -51302.64029534344, -98464.55287510788, -187500.02235174447, -187500.02235174447, -44814.35356311245, -43634.02499366105, -76997.75868627534, -46619.614555789776, -85235.78467795666, -29660.697836959105, 0.0, 0.0, 0.0, 193.0, 0.0, 1.0, 1.0, 0.0, 0.0, 1.0, 1.0, 256.0, 1.0, 1.750526389038606E9, 0.0, 2025-06-21 19:19:49.038
202.0, -42005.521596136285, -38130.33260468634, -27943.86034534697, -69195.97169112822, -27415.196885490048, -28347.59990544318, -51306.82007155658, -98466.5421803644, -187500.02235174447, -187500.02235174447, -44812.654830533844, -43632.72859248264, -76994.9200147295, -46624.42018084767, -85233.8177244446, -29665.883441672737, 0.0, 0.0, 0.0, 193.0, 0.0, 1.0, 1.0, 0.0, 0.0, 1.0, 1.0, 256.0, 1.0, 1.750526389046663E9, 0.0, 2025-06-21 19:19:49.046
204.0, -42000.3136396782, -38121.503665626486, -27945.91670583686, -69195.07762135, -27421.589484404267, -28326.253989488363, -51307.7588448237, -98467.27978793142, -187500.02235174447, -187500.02235174447, -44820.0309062041, -43641.11049665338, -76996.93167173049, -46642.2121694341, -85217.5680062256, -29683.317802347876, 0.0, 0.0, 0.0, 193.0, 0.0, 1.0, 1.0, 0.0, 0.0, 1.0, 1.0, 256.0, 1.0, 1.750526389054686E9, 0.0, 2025-06-21 19:19:49.054
206.0, -41990.03183722876, -38118.66499408067, -27935.746662109694, -69184.54994971157, -27418.99668204745, -28361.301524794286, -51289.899801003914, -98453.77933428042, -187500.02235174447, -187500.02235174447, -44804.31762985201, -43619.78693244302, -76994.76355251831, -46606.60584051679, -85247.78756472917, -29651.35480777679, 0.0, 0.0, 0.0, 193.0, 0.0, 1.0, 1.0, 0.0, 0.0, 1.0, 1.0, 256.0, 1.0, 1.75052638906175E9, 0.0, 2025-06-21 19:19:49.061
208.0, -42010.81895957219, -38137.61927337877, -27952.242249517712, -69206.11938311093, -27412.33586219977, -28353.098434579188, -51314.62083037148, -98467.8385815428, -187500.02235174447, -187500.02235174447, -44818.600394558955, -43645.312624610975, -76994.11535192911, -46640.62519557777, -85210.23663404425, -29680.79205522443, 0.0, 0.0, 0.0, 193.0, 0.0, 1.0, 1.0, 0.0, 0.0, 1.0, 1.0, 256.0, 1.0, 1.750526389070731E9, 0.0, 2025-06-21 19:19:49.070
210.0, -41979.07948244566, -38112.36180214427, -27937.75831911067, -69181.93479561029, -27395.214425947004, -28370.890423165612, -51289.94450449282, -98452.79585752438, -187500.02235174447, -187500.02235174447, -44815.8287782465, -43633.82382796095, -77001.08909619917, -46623.03437269144, -85240.03150940318, -29664.92231666116, 0.0, 0.0, 0.0, 193.0, 0.0, 1.0, 1.0, 0.0, 0.0, 1.0, 1.0, 256.0, 1.0, 1.750526389078709E9, 0.0, 2025-06-21 19:19:49.078
212.0, -42006.48272114786, -38138.73686060153, -27945.648484903395, -69196.64224346189, -27416.359176201724, -28314.07228876022, -51304.20491745531, -98466.0951454753, -187500.02235174447, -187500.02235174447, -44802.887118206876, -43629.46523779217, -76986.89573847005, -46617.78171274444, -85224.74291619574, -29655.758101434483, 0.0, 0.0, 0.0, 193.0, 0.0, 1.0, 1.0, 0.0, 0.0, 1.0, 1.0, 256.0, 1.0, 1.750526389085728E9, 0.0, 2025-06-21 19:19:49.085
214.0, -41988.7130843059, -38117.07802022434, -27937.221877243745, -69180.68309792079, -27399.774181815887, -28329.09266103419, -51296.38180689595, -98454.80751452537, -187500.02235174447, -187500.02235174447, -44822.668412049825, -43636.997775673604, -76990.15909316053, -46638.99351823253, -85214.93050037987, -29673.01364815398, 0.0, 0.0, 0.0, 193.0, 0.0, 1.0, 1.0, 0.0, 0.0, 1.0, 1.0, 256.0, 1.0, 1.750526389093743E9, 0.0, 2025-06-21 19:19:49.093
216.0, -41980.7558632798, -38113.680555067134, -27928.370586439443, -69175.83276937398, -27405.093896996248, -28382.066295393266, -51292.17967893835, -98452.46058135756, -187500.02235174447, -187500.02235174447, -44797.43329255978, -43612.50026375059, -76984.66056402453, -46599.14035786872, -85238.4668872913, -29641.385929749722, 0.0, 0.0, 0.0, 193.0, 0.0, 1.0, 1.0, 0.0, 0.0, 1.0, 1.0, 256.0, 1.0, 1.750526389103832E9, 0.0, 2025-06-21 19:19:49.103
218.0, -42018.15033175353, -38141.26260772498, -27961.71938916676, -69209.04746163457, -27415.018071534407, -28329.494992434382, -51317.59361238404, -98470.990177511, -187500.02235174447, -187500.02235174447, -44811.96192645573, -43633.242682605116, -76983.25240412384, -46631.639794306735, -85203.21818628529, -29669.43736904113, 0.0, 0.0, 0.0, 193.0, 0.0, 1.0, 1.0, 0.0, 0.0, 1.0, 1.0, 256.0, 1.0, 1.750526389110871E9, 0.0, 2025-06-21 19:19:49.110
220.0, -41984.421549370476, -38111.713601555064, -27939.166479011357, -69179.63256593139, -27412.08999301076, -28348.739844410404, -51287.99990272521, -98449.62190981173, -187500.02235174447, -187500.02235174447, -44830.64798482037, -43644.21738913267, -77012.62259633811, -46633.76321002999, -85255.63302703298, -29673.17011036517, 0.0, 0.0, 0.0, 193.0, 0.0, 1.0, 1.0, 0.0, 0.0, 1.0, 1.0, 256.0, 1.0, 1.75052638911787E9, 0.0, 2025-06-21 19:19:49.117
222.0, -42025.43700044596, -38149.28688398444, -27959.30540076559, -69208.53337151211, -27439.560286946333, -28331.350187224172, -51326.55666191062, -98482.21075322757, -187500.02235174447, -187500.02235174447, -44809.05619967654, -43630.40401105929, -76991.1202181721, -46619.547500556415, -85233.48244827778, -29656.92039214616, 0.0, 0.0, 0.0, 193.0, 0.0, 1.0, 1.0, 0.0, 0.0, 1.0, 1.0, 256.0, 1.0, 1.750526389126901E9, 0.0, 2025-06-21 19:19:49.126
224.0, -41998.23492744385, -38124.96818601706, -27943.078034291037, -69185.19815030077, -27408.871341809197, -28367.269440563854, -51306.03776050064, -98464.46346813005, -187500.02235174447, -187500.02235174447, -44830.715040053736, -43644.86558972187, -77000.75382003235, -46646.63781483624, -85221.43485801636, -29683.295450603422, 0.0, 0.0, 0.0, 193.0, 0.0, 1.0, 1.0, 0.0, 0.0, 1.0, 1.0, 256.0, 1.0, 1.750526389134888E9, 0.0, 2025-06-21 19:19:49.134
226.0, -41995.396255898035, -38131.11491574227, -27941.91574357936, -69187.76860091313, -27420.60600764823, -28351.176184556032, -51296.337103407044, -98461.40127913968, -187500.02235174447, -187500.02235174447, -44813.25832763414, -43623.2961563225, -76995.5235118298, -46606.404674816695, -85242.60196001554, -29646.63858969672, 0.0, 0.0, 0.0, 193.0, 0.0, 1.0, 1.0, 0.0, 0.0, 1.0, 1.0, 256.0, 1.0, 1.750526389141928E9, 0.0, 2025-06-21 19:19:49.141
228.0, -42010.05900026071, -38133.08186925434, -27948.755377382684, -69199.32445279651, -27407.46318190851, -28321.60482664166, -51301.56741160958, -98463.25647392948, -187500.02235174447, -187500.02235174447, -44813.03481018959, -43637.75773498508, -76985.15230240254, -46630.11987568377, -85196.5573664376, -29665.9504969061, 0.0, 0.0, 0.0, 193.0, 0.0, 1.0, 1.0, 0.0, 0.0, 1.0, 1.0, 256.0, 1.0, 1.750526389149938E9, 0.0, 2025-06-21 19:19:49.149
230.0, -41983.706293547904, -38110.97599398804, -27937.221877243745, -69175.45278971826, -27411.866475566207, -28374.89138542311, -51286.07765270206, -98447.43143885511, -187500.02235174447, -187500.02235174447, -44826.19998767376, -43636.59544427341, -77007.7275643024, -46620.01688718997, -85237.43870704636, -29660.183746836636, 0.0, 0.0, 0.0, 193.0, 0.0, 1.0, 1.0, 0.0, 0.0, 1.0, 1.0, 256.0, 1.0, 1.75052638915897E9, 0.0, 2025-06-21 19:19:49.158
232.0, -42025.34759346814, -38146.13528801624, -27958.321924009553, -69206.72288021122, -27414.392222689658, -28304.975128766913, -51321.28165021916, -98470.31962517735, -187500.02235174447, -187500.02235174447, -44814.08534217899, -43628.66057499177, -76997.53516883077, -46613.35606734229, -85223.73708769526, -29652.293581043912, 0.0, 0.0, 0.0, 193.0, 0.0, 1.0, 1.0, 0.0, 0.0, 1.0, 1.0, 256.0, 1.0, 1.75052638916702E9, 0.0, 2025-06-21 19:19:49.167
234.0, -42015.44577067444, -38135.22763672205, -27961.182947299832, -69203.21365633175, -27433.234743265482, -28356.831175903226, -51314.55377513812, -98467.10097397579, -187500.02235174447, -187500.02235174447, -44850.92101704133, -43665.4068428763, -77025.60895986664, -46653.18687596165, -85232.3201575661, -29692.370258852276, 0.0, 0.0, 0.0, 193.0, 0.0, 1.0, 1.0, 0.0, 0.0, 1.0, 1.0, 256.0, 1.0, 1.750526389174028E9, 0.0, 2025-06-21 19:19:49.174
236.0, -42005.14161648055, -38128.76798257446, -27948.48715644922, -69193.71416493824, -27425.411632706124, -28353.1431380681, -51306.44009190084, -98462.3847558957, -187500.02235174447, -187500.02235174447, -44825.328269640006, -43630.53812152602, -77013.94134926097, -46606.18115737214, -85247.7205094958, -29650.706607187585, 0.0, 0.0, 0.0, 193.0, 0.0, 1.0, 1.0, 0.0, 0.0, 1.0, 1.0, 256.0, 1.0, 1.750526389182061E9, 0.0, 2025-06-21 19:19:49.182
238.0, -42029.10268653664, -38141.59788389181, -27964.53570896813, -69214.81421170404, -27429.703167641543, -28313.669957360027, -51322.555699653116, -98476.51105839146, -187500.02235174447, -187500.02235174447, -44835.76653430063, -43652.59929330341, -77009.44864862546, -46647.04014623644, -85218.43972425935, -29685.150645393212, 0.0, 0.0, 0.0, 193.0, 0.0, 1.0, 1.0, 0.0, 0.0, 1.0, 1.0, 256.0, 1.0, 1.750526389191087E9, 0.0, 2025-06-21 19:19:49.191
240.0, -41983.147499936524, -38103.42110436215, -27937.08776677701, -69178.69379266427, -27404.110420240217, -28341.296713506785, -51289.51982134817, -98447.27497664392, -187500.02235174447, -187500.02235174447, -44832.950214499266, -43639.97055768616, -77014.54484636127, -46629.248157650014, -85245.99942517275, -29668.4538922851, 0.0, 0.0, 0.0, 193.0, 0.0, 1.0, 1.0, 0.0, 0.0, 1.0, 1.0, 256.0, 1.0, 1.750526389198126E9, 0.0, 2025-06-21 19:19:49.198
242.0, -42025.034669045766, -38147.47639268356, -27966.882642135937, -69219.2398571062, -27420.20367624804, -28318.8332103292, -51332.50222593573, -98483.64126487271, -187500.02235174447, -187500.02235174447, -44825.50708359564, -43637.713031496176, -77004.55361658975, -46629.42697160566, -85235.56116051211, -29668.230374840543, 0.0, 0.0, 0.0, 193.0, 0.0, 1.0, 1.0, 0.0, 0.0, 1.0, 1.0, 256.0, 1.0, 1.75052638920614E9, 0.0, 2025-06-21 19:19:49.206
244.0, -42010.37192468309, -38134.221808221555, -27965.54153746862, -69209.42744129032, -27429.41259496362, -28327.572742411226, -51301.90268777641, -98471.03488099991, -187500.02235174447, -187500.02235174447, -44853.80439207607, -43669.69837781172, -77024.04433775478, -46666.39675693474, -85239.38330881397, -29703.59083456884, 0.0, 0.0, 0.0, 193.0, 0.0, 1.0, 1.0, 0.0, 0.0, 1.0, 1.0, 256.0, 1.0, 1.750526389215171E9, 0.0, 2025-06-21 19:19:49.215
246.0, -42001.610040856605, -38126.53280812893, -27948.397749471398, -69194.3847172719, -27419.846048336753, -28366.107149852178, -51302.282667432155, -98465.40224139718, -187500.02235174447, -187500.02235174447, -44820.634403304386, -43626.514807524065, -77008.42046838051, -46615.278317365446, -85254.20251538783, -29657.859165413283, 0.0, 0.0, 0.0, 193.0, 0.0, 1.0, 1.0, 0.0, 0.0, 1.0, 1.0, 256.0, 1.0, 1.750526389223195E9, 0.0, 2025-06-21 19:19:49.223
248.0, -42024.677041134484, -38138.62510187925, -27962.993438600715, -69216.22237160473, -27414.90631281213, -28321.046033030278, -51320.90167056342, -98472.51009613396, -187500.02235174447, -187500.02235174447, -44840.974490758716, -43656.75671777209, -77015.39421265057, -46651.24227419404, -85221.52426499418, -29692.414962341187, 0.0, 0.0, 0.0, 193.0, 0.0, 1.0, 1.0, 0.0, 0.0, 1.0, 1.0, 256.0, 1.0, 1.75052638923026E9, 0.0, 2025-06-21 19:19:49.230
250.0, -42002.370000168085, -38122.93417727163, -27959.10423506549, -69198.67625220731, -27428.04913855185, -28357.926411381533, -51308.29528669063, -98465.5363518639, -187500.02235174447, -187500.02235174447, -44847.79177281759, -43656.93553172774, -77031.2863029583, -46640.62519557777, -85262.98675095878, -29683.474264559063, 0.0, 0.0, 0.0, 193.0, 0.0, 1.0, 1.0, 0.0, 0.0, 1.0, 1.0, 256.0, 1.0, 1.750526389238233E9, 0.0, 2025-06-21 19:19:49.238
252.0, -42028.00745105832, -38149.331587473345, -27962.568755456065, -69216.7364617272, -27418.482591924978, -28323.884704576103, -51326.78017935517, -98479.88617180422, -187500.02235174447, -187500.02235174447, -44825.194159173276, -43636.506037295585, -77006.16294219052, -46626.61065180429, -85239.0703843916, -29668.83387194084, 0.0, 0.0, 0.0, 193.0, 0.0, 1.0, 1.0, 0.0, 0.0, 1.0, 1.0, 256.0, 1.0, 1.750526389246271E9, 0.0, 2025-06-21 19:19:49.246
254.0, -42008.382619426564, -38131.33843318682, -27956.399673986398, -69208.75688895666, -27404.17747547358, -28347.912829865556, -51304.33902792204, -98462.00477623998, -187500.02235174447, -187500.02235174447, -44850.36222342995, -43666.41267137679, -77021.74210807588, -46656.9643207746, -85231.58254999908, -29697.287642632444, 0.0, 0.0, 0.0, 193.0, 0.0, 1.0, 1.0, 0.0, 0.0, 1.0, 1.0, 256.0, 1.0, 1.750526389254313E9, 0.0, 2025-06-21 19:19:49.254
0.0, -42012.02595377278, -38140.27913096895, -27952.890450106916, -69203.01249063165, -27416.76150760192, -28343.733053652413, -51298.77344355267, -98456.57330233733, -187500.02235174447, -187500.02235174447, -44824.99299347318, -43637.33305184043, -77011.43795388198, -46616.03827667693, -85252.28026536468, -29659.669656714163, 0.0, 0.0, 0.0, 193.0, 0.0, 1.0, 1.0, 0.0, 0.0, 1.0, 1.0, 256.0, 1.0, 1.750526389262332E9, 0.0, 2025-06-21 19:19:49.262
2.0, -42029.79559061475, -38151.924389830165, -27959.081883321036, -69213.96484541474, -27425.590446661765, -28330.098489534677, -51323.27095547569, -98477.74040433651, -187500.02235174447, -187500.02235174447, -44844.72958382721, -43660.422403862765, -77013.40490739404, -46658.8642190533, -85226.91103540792, -29696.34886936532, 0.0, 0.0, 0.0, 193.0, 0.0, 1.0, 1.0, 0.0, 0.0, 1.0, 1.0, 256.0, 1.0, 1.750526389270358E9, 0.0, 2025-06-21 19:19:49.270
4.0, -42004.78398856926, -38128.52211338546, -27948.844784360503, -69192.17189457081, -27421.835353593273, -28364.02843761783, -51306.52949887866, -98466.36336640875, -187500.02235174447, -187500.02235174447, -44838.29228142408, -43642.27278736506, -77017.80820105174, -46637.6077100763, -85257.86820147852, -29678.623936012264, 0.0, 0.0, 0.0, 193.0, 0.0, 1.0, 1.0, 0.0, 0.0, 1.0, 1.0, 256.0, 1.0, 1.750526389279346E9, 0.0, 2025-06-21 19:19:49.279
6.0, -42026.2193115019, -38140.43559318013, -27949.448281460798, -69202.7889731871, -27427.780917618387, -28325.628140643614, -51325.81905434359, -98475.81815431335, -187500.02235174447, -187500.02235174447, -44825.194159173276, -43635.58961577292, -77005.2241689234, -46628.80112276091, -85241.55142802614, -29668.92327891866, 0.0, 0.0, 0.0, 193.0, 0.0, 1.0, 1.0, 0.0, 0.0, 1.0, 1.0, 256.0, 1.0, 1.750526389286421E9, 0.0, 2025-06-21 19:19:49.286
8.0, -42013.568224140196, -38125.5493313729, -27954.63388617443, -69197.11163009545, -27421.18715300407, -28336.51344019335, -51318.68884786235, -98470.27492168844, -187500.02235174447, -187500.02235174447, -44843.96962451573, -43653.135735170334, -77014.81306729473, -46652.33750967235, -85232.25310233273, -29691.342078607333, 0.0, 0.0, 0.0, 193.0, 0.0, 1.0, 1.0, 0.0, 0.0, 1.0, 1.0, 256.0, 1.0, 1.750526389294483E9, 0.0, 2025-06-21 19:19:49.294
10.0, -42003.88991879105, -38124.364688916765, -27942.563944168563, -69185.93575786779, -27418.14731575815, -28334.345320981185, -51309.81520531359, -98460.6860233171, -187500.02235174447, -187500.02235174447, -44824.94828998426, -43625.173702856744, -77010.63329108158, -46610.36093358528, -85259.47752707929, -29652.897078144204, 0.0, 0.0, 0.0, 193.0, 0.0, 1.0, 1.0, 0.0, 0.0, 1.0, 1.0, 256.0, 1.0, 1.750526389302454E9, 0.0, 2025-06-21 19:19:49.302
