%OpenBCI Raw EXG Data
%Number of channels = 16
%Sample Rate = 125 Hz
%Board = OpenBCI_GUI$BoardCytonSerialDaisy
Sample Index, EXG Channel 0, EXG Channel 1, EXG Channel 2, EXG Channel 3, EXG Channel 4, EXG Channel 5, EXG Channel 6, EXG Channel 7, EXG Channel 8, EXG Channel 9, EXG Channel 10, EXG Channel 11, EXG Channel 12, EXG Channel 13, EXG Channel 14, EXG Channel 15, Accel Channel 0, Accel Channel 1, Accel Channel 2, Not Used, Digital Channel 0 (D11), Digital Channel 1 (D12), Digital Channel 2 (D13), Digital Channel 3 (D17), Not Used, Digital Channel 4 (D18), Analog Channel 0, Analog Channel 1, Analog Channel 2, Timestamp, Marker Channel, Timestamp (Formatted)
0.0, -45009.886623607475, -38281.76567337104, -30662.25715425696, -74596.9131108419, -27860.66715248432, -28448.16040374761, -53641.14685549103, -102306.3930638305, 0.0, 0.0, 0.0, 0.0, 0.0, 0.0, 0.0, 0.0, 0.0, 0.0, 0.0, 193.0, 0.0, 0.5, 0.5, 0.0, 0.0, 0.5, 0.5, 128.0, 0.5, 1.750529863291778E9, 0.0, 2025-06-21 20:17:43.291
92.0, -45021.73304816879, -38299.80353114647, -30682.39607601119, -74621.88000939846, -27854.498071014652, -28412.15174343011, -53643.3596781921, -102310.08110166564, -187500.02235174447, -187500.02235174447, -49663.58687443577, -47939.842693786944, -78411.35006086231, -50033.75411436011, -89799.02741897434, -32689.89565252014, 0.0, 0.0, 0.0, 193.0, 0.0, 1.0, 1.0, 0.0, 0.0, 1.0, 1.0, 256.0, 1.0, 1.750529863291916E9, 0.0, 2025-06-21 20:17:43.291
0.0, -22360.23811820008, -19001.396775412177, -15099.810373760507, -37088.51779562447, -13719.43369143411, -14304.490602551772, -26547.524517479484, -51053.194827222214, -93750.01117587223, -93750.01117587223, -24844.835680107557, -23983.332393566656, -39215.84507415832, -25032.791499232233, -44897.45734899728, -16359.509987772703, 0.0, 0.0, 0.0, 193.0, 0.0, 1.0, 1.0, 0.0, 0.0, 1.0, 1.0, 256.0, 1.0, 1.750529863410525E9, 0.0, 2025-06-21 20:17:43.410
2.0, -44724.656012613304, -38003.53115839138, -30197.050296908656, -74173.59342260283, -27440.275542768904, -28570.290335451406, -53103.56504959644, -102104.17683174335, -187500.02235174447, -187500.02235174447, -49266.01639580922, -47558.83485780178, -77870.21432759933, -49639.64815612414, -89329.41726796834, -32331.597188901567, 0.0, 0.0, 0.0, 193.0, 0.0, 1.0, 1.0, 0.0, 0.0, 1.0, 1.0, 256.0, 1.0, 1.750529863417425E9, 0.0, 2025-06-21 20:17:43.417
4.0, -44707.64633508281, -37981.09000695825, -30187.148474114954, -74154.84030900482, -27452.25607779695, -28638.48550778455, -53090.489279090085, -102089.31292168057, -187500.02235174447, -187500.02235174447, -49252.85121832505, -47538.60652906973, -77866.10160661956, -49610.903812754616, -89390.86221347598, -32301.8246652871, 0.0, 0.0, 0.0, 193.0, 0.0, 1.0, 1.0, 0.0, 0.0, 1.0, 1.0, 256.0, 1.0, 1.750529863424455E9, 0.0, 2025-06-21 20:17:43.424
6.0, -44729.059306270996, -38005.14048399216, -30215.22226515082, -74189.0608297659, -27471.255060583957, -28585.869501336754, -53096.568953581926, -102106.43435793334, -187500.02235174447, -187500.02235174447, -49260.31670097312, -47550.60941584223, -77867.42035954242, -49629.075780996776, -89357.4910590042, -32319.81781957362, 0.0, 0.0, 0.0, 193.0, 0.0, 1.0, 1.0, 0.0, 0.0, 1.0, 1.0, 256.0, 1.0, 1.75052986343251E9, 0.0, 2025-06-21 20:17:43.432
8.0, -44708.94273626122, -37981.22411742498, -30188.35546831554, -74164.74213179853, -27448.590391706275, -28613.697423183614, -53103.67680831871, -102103.08159626504, -187500.02235174447, -187500.02235174447, -49274.37594823551, -47561.51706713642, -77883.02187717223, -49647.650080639134, -89380.58041102653, -32335.620502903523, 0.0, 0.0, 0.0, 193.0, 0.0, 1.0, 1.0, 0.0, 0.0, 1.0, 1.0, 256.0, 1.0, 1.750529863440539E9, 0.0, 2025-06-21 20:17:43.440
10.0, -44711.98257350714, -37991.617678596696, -30199.665451009925, -74181.88591979575, -27428.80909786333, -28603.393268989716, -53097.39596812677, -102112.06699753607, -187500.02235174447, -187500.02235174447, -49248.64909036745, -47538.96415698101, -77860.91600190592, -49608.60158307572, -89382.32384709404, -32302.24934843175, 0.0, 0.0, 0.0, 193.0, 0.0, 1.0, 1.0, 0.0, 0.0, 1.0, 1.0, 256.0, 1.0, 1.75052986344855E9, 0.0, 2025-06-21 20:17:43.448
12.0, -44716.117646231374, -37990.47773962948, -30209.231997636798, -74192.23477747856, -27453.686589442088, -28587.590585659815, -53099.3852733833, -102112.6481428919, -187500.02235174447, -187500.02235174447, -49268.16216327693, -47568.356700939745, -77876.74103698028, -49657.88717959967, -89350.80788741207, -32348.91979085443, 0.0, 0.0, 0.0, 193.0, 0.0, 1.0, 1.0, 0.0, 0.0, 1.0, 1.0, 256.0, 1.0, 1.750529863456585E9, 0.0, 2025-06-21 20:17:43.456
14.0, -44695.68815179922, -37978.13957669015, -30190.68004973889, -74168.16194870019, -27444.90235387115, -28616.647853451712, -53079.00048244005, -102077.06416571906, -187500.02235174447, -187500.02235174447, -49253.00768053623, -47552.64342458766, -77872.74007472278, -49628.9640222745, -89410.91172825238, -32320.01898527372, 0.0, 0.0, 0.0, 193.0, 0.0, 1.0, 1.0, 0.0, 0.0, 1.0, 1.0, 256.0, 1.0, 1.750529863464602E9, 0.0, 2025-06-21 20:17:43.464
16.0, -44727.00294578111, -38010.348440450245, -30220.07259369762, -74198.87324558178, -27447.405749250145, -28595.436047963627, -53090.757500023545, -102103.05924452058, -187500.02235174447, -187500.02235174447, -49262.70833762984, -47565.227456716, -77872.20363285586, -49641.54805440284, -89369.56100101006, -32330.569008656625, 0.0, 0.0, 0.0, 193.0, 0.0, 1.0, 1.0, 0.0, 0.0, 1.0, 1.0, 256.0, 1.0, 1.750529863471658E9, 0.0, 2025-06-21 20:17:43.471
18.0, -44702.17015769126, -37972.64104755414, -30193.138741628976, -74162.48460560854, -27434.464089210524, -28612.8033534054, -53097.15009893777, -102092.46451764877, -187500.02235174447, -187500.02235174447, -49259.71320387283, -47556.80084905635, -77873.0306474007, -49640.117542757696, -89367.12466086444, -32328.7808691002, 0.0, 0.0, 0.0, 193.0, 0.0, 1.0, 1.0, 0.0, 0.0, 1.0, 1.0, 256.0, 1.0, 1.750529863480643E9, 0.0, 2025-06-21 20:17:43.480
20.0, -44719.44805615521, -37993.18230070857, -30211.73539301579, -74183.18232097416, -27454.424197009113, -28604.220283534563, -53101.97807574011, -102104.53445965463, -187500.02235174447, -187500.02235174447, -49255.75694510424, -47540.48407560398, -77866.14631010847, -49611.64142032164, -89391.26454487618, -32301.265871675718, 0.0, 0.0, 0.0, 193.0, 0.0, 1.0, 1.0, 0.0, 0.0, 1.0, 1.0, 256.0, 1.0, 1.750529863488717E9, 0.0, 2025-06-21 20:17:43.488
22.0, -44737.84354184193, -38012.96359455152, -30235.718814816337, -74209.9150073427, -27487.325964847325, -28611.618710949268, -53134.3434017114, -102135.8045501476, -187500.02235174447, -187500.02235174447, -49297.95703863586, -47586.84159360428, -77900.47858959182, -49671.54409546186, -89367.12466086444, -32359.380407259516, 0.0, 0.0, 0.0, 193.0, 0.0, 1.0, 1.0, 0.0, 0.0, 1.0, 1.0, 256.0, 1.0, 1.750529863496753E9, 0.0, 2025-06-21 20:17:43.496
24.0, -44737.24004474164, -38004.559338636325, -30237.261085183753, -74202.60598690582, -27495.81962774034, -28653.6623422697, -53144.111114038365, -102132.8541198795, -187500.02235174447, -187500.02235174447, -49291.09505308808, -47576.55979115484, -77905.44067686089, -49645.45960968252, -89428.56960637208, -32333.72060462482, 0.0, 0.0, 0.0, 193.0, 0.0, 1.0, 1.0, 0.0, 0.0, 1.0, 1.0, 256.0, 1.0, 1.750529863503825E9, 0.0, 2025-06-21 20:17:43.503
26.0, -44739.34110872044, -38011.91306256212, -30234.154192704464, -74212.57486493289, -27472.350296062268, -28564.27771619293, -53148.26853850705, -102146.3098700416, -187500.02235174447, -187500.02235174447, -49296.81709966864, -47581.25365749045, -77899.89744423598, -49662.78221163538, -89392.98562919923, -32350.104433310564, 0.0, 0.0, 0.0, 193.0, 0.0, 1.0, 1.0, 0.0, 0.0, 1.0, 1.0, 256.0, 1.0, 1.750529863512786E9, 0.0, 2025-06-21 20:17:43.512
28.0, -44702.907765258286, -37971.65757079811, -30197.340869586573, -74163.91511725368, -27460.168595334126, -28620.04531860892, -53101.44163387318, -102100.22057297475, -187500.02235174447, -187500.02235174447, -49283.56251520664, -47567.35087243925, -77889.52623480871, -49649.549978917836, -89382.10032964949, -32335.97813081481, 0.0, 0.0, 0.0, 193.0, 0.0, 1.0, 1.0, 0.0, 0.0, 1.0, 1.0, 256.0, 1.0, 1.750529863520823E9, 0.0, 2025-06-21 20:17:43.520
30.0, -44725.505378902606, -37994.210480953516, -30207.667375524925, -74187.25033846502, -27457.57579297731, -28613.38449876124, -53116.59611661388, -102125.38863723143, -187500.02235174447, -187500.02235174447, -49262.17189576291, -47550.29649141985, -77871.24250784428, -49612.20021393302, -89394.32673386655, -32303.031659487686, 0.0, 0.0, 0.0, 193.0, 0.0, 1.0, 1.0, 0.0, 0.0, 1.0, 1.0, 256.0, 1.0, 1.750529863527812E9, 0.0, 2025-06-21 20:17:43.527
32.0, -44714.016582252574, -37975.65853305561, -30221.92778848741, -74202.00248980553, -27458.33575228879, -28588.66346939367, -53109.018875243535, -102121.99117207422, -187500.02235174447, -187500.02235174447, -49288.94928562037, -47579.107890022744, -77889.61564178654, -49659.004766822436, -89352.8418961575, -32349.433880976903, 0.0, 0.0, 0.0, 193.0, 0.0, 1.0, 1.0, 0.0, 0.0, 1.0, 1.0, 256.0, 1.0, 1.750529863535864E9, 0.0, 2025-06-21 20:17:43.535
34.0, -44703.37715189185, -37980.10653020222, -30184.73448571378, -74163.78100678694, -27443.695359670564, -28639.312522329394, -53097.485375104596, -102097.80658457358, -187500.02235174447, -187500.02235174447, -49265.815230109125, -47556.957311267535, -77880.00439167075, -49623.04080999384, -89403.84857700451, -32315.615691616025, 0.0, 0.0, 0.0, 193.0, 0.0, 1.0, 1.0, 0.0, 0.0, 1.0, 1.0, 256.0, 1.0, 1.750529863544879E9, 0.0, 2025-06-21 20:17:43.544
36.0, -44714.307154930495, -37999.91017578962, -30200.760686488236, -74189.50786465501, -27443.449490481555, -28560.433216146615, -53081.526229563504, -102098.27597120714, -187500.02235174447, -187500.02235174447, -49259.42263119491, -47556.48792463398, -77867.39800779796, -49631.668583353596, -89353.78066942462, -32324.422278931415, 0.0, 0.0, 0.0, 193.0, 0.0, 1.0, 1.0, 0.0, 0.0, 1.0, 1.0, 256.0, 1.0, 1.750529863551868E9, 0.0, 2025-06-21 20:17:43.551
38.0, -44720.096256744415, -38001.89948104614, -30207.086230169087, -74184.45637040811, -27464.10250235826, -28650.063711412397, -53094.959627981145, -102109.63065739044, -187500.02235174447, -187500.02235174447, -49265.4799539423, -47561.718232836516, -77876.85279570255, -49636.92124330059, -89361.87200091744, -32328.087965022085, 0.0, 0.0, 0.0, 193.0, 0.0, 1.0, 1.0, 0.0, 0.0, 1.0, 1.0, 256.0, 1.0, 1.75052986355995E9, 0.0, 2025-06-21 20:17:43.559
40.0, -44721.59382362293, -38013.47768467399, -30203.398192333963, -74187.49620765403, -27442.689531170075, -28607.79656264741, -53090.28811338999, -102107.9542765563, -187500.02235174447, -187500.02235174447, -49264.205904508344, -47557.583160112285, -77877.36688582503, -49628.986374018954, -89413.5045306092, -32317.87321780601, 0.0, 0.0, 0.0, 193.0, 0.0, 1.0, 1.0, 0.0, 0.0, 1.0, 1.0, 256.0, 1.0, 1.750529863568968E9, 0.0, 2025-06-21 20:17:43.568
42.0, -44705.54527110401, -38004.24641421395, -30185.628555491992, -74171.1570824572, -27408.29019645336, -28575.11831225375, -53097.86535476033, -102102.27693346464, -187500.02235174447, -187500.02235174447, -49263.13302077449, -47569.51899165142, -77872.71772297833, -49646.10781027172, -89336.86039887196, -32336.112241281542, 0.0, 0.0, 0.0, 193.0, 0.0, 1.0, 1.0, 0.0, 0.0, 1.0, 1.0, 256.0, 1.0, 1.750529863576004E9, 0.0, 2025-06-21 20:17:43.576
44.0, -44683.528802815534, -37973.06573069879, -30177.49252051026, -74146.48075657854, -27414.28046396738, -28674.315354146405, -53087.829421499904, -102081.33334891002, -187500.02235174447, -187500.02235174447, -49240.31188968562, -47535.723154035, -77855.7751006812, -49597.71628352598, -89382.3461988385, -32286.401961612937, 0.0, 0.0, 0.0, 193.0, 0.0, 1.0, 1.0, 0.0, 0.0, 1.0, 1.0, 256.0, 1.0, 1.750529863584037E9, 0.0, 2025-06-21 20:17:43.584
46.0, -44715.53650087553, -38005.65457411463, -30205.78982899068, -74191.43011467817, -27451.898449885663, -28599.16878928766, -53103.43093912971, -102116.6044016605, -187500.02235174447, -187500.02235174447, -49242.681174597885, -47547.234302429475, -77852.8246704131, -49616.067065723786, -89348.39389901089, -32304.9762612553, 0.0, 0.0, 0.0, 193.0, 0.0, 1.0, 1.0, 0.0, 0.0, 1.0, 1.0, 256.0, 1.0, 1.750529863592062E9, 0.0, 2025-06-21 20:17:43.592
48.0, -44684.82520399395, -37971.29994288683, -30183.326325813097, -74162.12697769726, -27445.28233352689, -28649.19199337864, -53086.93535172169, -102092.66568334887, -187500.02235174447, -187500.02235174447, -49261.344881218065, -47568.490811406475, -77876.47281604682, -49638.06118226781, -89370.90210567738, -32325.696328365368, 0.0, 0.0, 0.0, 193.0, 0.0, 1.0, 1.0, 0.0, 0.0, 1.0, 1.0, 256.0, 1.0, 1.750529863601109E9, 0.0, 2025-06-21 20:17:43.601
50.0, -44682.7464917596, -37976.6643615561, -30187.21552934832, -74173.48166388055, -27402.746963828442, -28598.654699165192, -53095.8313460149, -102098.47713690724, -187500.02235174447, -187500.02235174447, -49232.28761342617, -47538.360659880724, -77850.4777372453, -49607.126367941666, -89391.04102743162, -32295.834397773076, 0.0, 0.0, 0.0, 193.0, 0.0, 1.0, 1.0, 0.0, 0.0, 1.0, 1.0, 256.0, 1.0, 1.750529863608111E9, 0.0, 2025-06-21 20:17:43.608
52.0, -44689.27320114055, -37982.20759418102, -30194.815122463126, -74179.8072075614, -27439.806156135342, -28603.90735911219, -53064.06951714391, -102077.37709014144, -187500.02235174447, -187500.02235174447, -49249.4761049123, -47564.646311360164, -77862.50297576225, -49645.3702027047, -89339.5873116955, -32333.810011602643, 0.0, 0.0, 0.0, 193.0, 0.0, 1.0, 1.0, 0.0, 0.0, 1.0, 1.0, 256.0, 1.0, 1.75052986361712E9, 0.0, 2025-06-21 20:17:43.617
54.0, -44683.30528537098, -37973.82569001027, -30184.130988613488, -74165.21151843209, -27438.599161934755, -28659.965534206098, -53090.556334323446, -102093.80562231608, -187500.02235174447, -187500.02235174447, -49241.65299435294, -47549.894160019656, -77864.60403974105, -49619.62099309218, -89401.7028095368, -32311.77119156971, 0.0, 0.0, 0.0, 193.0, 0.0, 1.0, 1.0, 0.0, 0.0, 1.0, 1.0, 256.0, 1.0, 1.750529863624142E9, 0.0, 2025-06-21 20:17:43.624
56.0, -44689.966105218664, -37984.95685874902, -30188.534282271183, -74182.80234131841, -27418.7731646029, -28571.564384885358, -53104.74969205257, -102109.72006436826, -187500.02235174447, -187500.02235174447, -49231.39354364795, -47538.427715114085, -77844.86744938702, -49623.51019662741, -89342.9400733638, -32316.755630583244, 0.0, 0.0, 0.0, 193.0, 0.0, 1.0, 1.0, 0.0, 0.0, 1.0, 1.0, 256.0, 1.0, 1.750529863632161E9, 0.0, 2025-06-21 20:17:43.632
58.0, -44691.575430819445, -37978.18428017906, -30191.484712539284, -74171.6041173463, -27434.911124099628, -28610.7022894266, -53112.19282295619, -102108.75893935669, -187500.02235174447, -187500.02235174447, -49257.83565733858, -47562.52289563691, -77873.6788479899, -49651.18165626308, -89372.51143127817, -32343.913000096443, 0.0, 0.0, 0.0, 193.0, 0.0, 1.0, 1.0, 0.0, 0.0, 1.0, 1.0, 256.0, 1.0, 1.750529863640169E9, 0.0, 2025-06-21 20:17:43.640
60.0, -44693.92236398725, -37980.88884125815, -30194.278680596195, -74175.02393424796, -27437.638036923177, -28620.33589128684, -53100.10052920587, -102105.98732304423, -187500.02235174447, -187500.02235174447, -49236.6238518505, -47540.01468897041, -77852.69055994636, -49620.02332449238, -89398.48415833524, -32311.9276537809, 0.0, 0.0, 0.0, 193.0, 0.0, 1.0, 1.0, 0.0, 0.0, 1.0, 1.0, 256.0, 1.0, 1.750529863648177E9, 0.0, 2025-06-21 20:17:43.648
62.0, -44698.996209978606, -37990.075408229284, -30198.25729110924, -74183.89757679672, -27446.66814168312, -28607.885969625233, -53108.57184035443, -102113.16223301439, -187500.02235174447, -187500.02235174447, -49258.349747461056, -47558.72309907951, -77863.17352809591, -49654.89204584266, -89349.19856181128, -32343.287151251694, 0.0, 0.0, 0.0, 193.0, 0.0, 1.0, 1.0, 0.0, 0.0, 1.0, 1.0, 256.0, 1.0, 1.750529863656226E9, 0.0, 2025-06-21 20:17:43.656
64.0, -44654.91856991274, -37943.94140767353, -30157.68887492286, -74144.91613446666, -27426.395109462155, -28605.583739946338, -53080.98978769658, -102083.68028207782, -187500.02235174447, -187500.02235174447, -49237.60732860653, -47545.133238450675, -77856.66917045941, -49621.945574515536, -89402.86510024847, -32312.307633436638, 0.0, 0.0, 0.0, 193.0, 0.0, 1.0, 1.0, 0.0, 0.0, 1.0, 1.0, 256.0, 1.0, 1.750529863664242E9, 0.0, 2025-06-21 20:17:43.664
66.0, -44691.91070698627, -37988.17550995058, -30194.122218385008, -74186.82565532037, -27423.28821698287, -28608.578873703347, -53091.964494224136, -102106.81433758908, -187500.02235174447, -187500.02235174447, -49210.807587004616, -47524.50257831843, -77824.01327181021, -49610.92616449907, -89336.5921779385, -32300.86354027552, 0.0, 0.0, 0.0, 193.0, 0.0, 1.0, 1.0, 0.0, 0.0, 1.0, 1.0, 256.0, 1.0, 1.750529863673299E9, 0.0, 2025-06-21 20:17:43.673
68.0, -44687.64152379531, -37979.458329613015, -30202.325308600106, -74183.24937620752, -27462.11319710174, -28640.67597874117, -53100.771081539526, -102113.78808185912, -187500.02235174447, -187500.02235174447, -49262.61893065202, -47574.145802753665, -77877.6798102474, -49660.7705546344, -89394.50554782219, -32348.53981119869, 0.0, 0.0, 0.0, 193.0, 0.0, 1.0, 1.0, 0.0, 0.0, 1.0, 1.0, 256.0, 1.0, 1.750529863681263E9, 0.0, 2025-06-21 20:17:43.681
70.0, -44688.66970404026, -37983.168719192596, -30188.31076482663, -74188.92671929917, -27439.71674915752, -28611.618710949268, -53111.90225027827, -102113.29634348111, -187500.02235174447, -187500.02235174447, -49239.21665420731, -47552.755183309935, -77858.65847571594, -49618.995144247434, -89398.43945484632, -32310.385383413482, 0.0, 0.0, 0.0, 193.0, 0.0, 1.0, 1.0, 0.0, 0.0, 1.0, 1.0, 256.0, 1.0, 1.750529863688256E9, 0.0, 2025-06-21 20:17:43.688
72.0, -44701.67841931325, -37994.32223967579, -30206.639195279982, -74197.21921649209, -27440.76728114692, -28626.23675182304, -53119.70300909317, -102124.06988430857, -187500.02235174447, -187500.02235174447, -49258.08152652759, -47575.978645799005, -77873.29886833417, -49652.54511267485, -89341.08487857401, -32343.957703585354, 0.0, 0.0, 0.0, 193.0, 0.0, 1.0, 1.0, 0.0, 0.0, 1.0, 1.0, 256.0, 1.0, 1.750529863696318E9, 0.0, 2025-06-21 20:17:43.696
74.0, -44672.844668965896, -37964.840288739244, -30185.53914851417, -74166.46321612158, -27424.808135605832, -28640.877144441267, -53099.67584606122, -102102.25458172019, -187500.02235174447, -187500.02235174447, -49249.4761049123, -47556.77849731189, -77872.8294817006, -49626.03594375085, -89408.58714682903, -32315.526284638203, 0.0, 0.0, 0.0, 193.0, 0.0, 1.0, 1.0, 0.0, 0.0, 1.0, 1.0, 256.0, 1.0, 1.750529863704338E9, 0.0, 2025-06-21 20:17:43.704
76.0, -44718.37517242136, -38010.5719578948, -30233.46128862635, -74218.60983593581, -27463.38724653569, -28574.648925620193, -53123.25693646156, -102135.33516351404, -187500.02235174447, -187500.02235174447, -49262.93185507439, -47570.01073002943, -77874.90819393494, -49645.34785096024, -89368.91280042086, -32334.838191847586, 0.0, 0.0, 0.0, 193.0, 0.0, 1.0, 1.0, 0.0, 0.0, 1.0, 1.0, 256.0, 1.0, 1.750529863712356E9, 0.0, 2025-06-21 20:17:43.712
78.0, -44683.23823013762, -37971.679922542564, -30208.27087262522, -74182.42236166267, -27456.32409528781, -28608.735335914535, -53096.85952625985, -102107.46253817828, -187500.02235174447, -187500.02235174447, -49281.86378262804, -47580.94073306808, -77895.44944708937, -49659.0718220558, -89386.5483267961, -32346.97518908682, 0.0, 0.0, 0.0, 193.0, 0.0, 1.0, 1.0, 0.0, 0.0, 1.0, 1.0, 256.0, 1.0, 1.750529863720373E9, 0.0, 2025-06-21 20:17:43.720
80.0, -44696.15753843279, -37985.47094887149, -30211.668337782427, -74195.78870484694, -27443.024807336904, -28621.162905831687, -53109.75648281056, -102114.0563027926, -187500.02235174447, -187500.02235174447, -49255.08639277058, -47554.431564144084, -77873.23181310079, -49623.48784488295, -89402.73098978175, -32313.179351470397, 0.0, 0.0, 0.0, 193.0, 0.0, 1.0, 1.0, 0.0, 0.0, 1.0, 1.0, 256.0, 1.0, 1.750529863729466E9, 0.0, 2025-06-21 20:17:43.729
82.0, -44712.8542915409, -37995.77510306539, -30233.26012292625, -74214.67592891169, -27445.841127138276, -28609.741164415023, -53120.66413410475, -102123.28757325263, -187500.02235174447, -187500.02235174447, -49292.70437868886, -47591.02136981743, -77900.94797622538, -49672.21464779552, -89359.97210263874, -32360.475642737823, 0.0, 0.0, 0.0, 193.0, 0.0, 1.0, 1.0, 0.0, 0.0, 1.0, 1.0, 256.0, 1.0, 1.750529863735378E9, 0.0, 2025-06-21 20:17:43.735
84.0, -44690.547250574506, -37972.97632372097, -30210.21547439283, -74191.25130072252, -27461.688513957088, -28651.226002124073, -53103.31918040743, -102098.81241307408, -187500.02235174447, -187500.02235174447, -49271.02318656721, -47568.04377651737, -77889.2356621308, -49633.121446743186, -89412.87868176446, -32324.265816720228, 0.0, 0.0, 0.0, 193.0, 0.0, 1.0, 1.0, 0.0, 0.0, 1.0, 1.0, 256.0, 1.0, 1.750529863744454E9, 0.0, 2025-06-21 20:17:43.744
86.0, -44736.547140663526, -38023.558321423334, -30259.434015683415, -74250.1257956178, -27477.424142053624, -28597.51476019797, -53129.76129409806, -102148.05330610911, -187500.02235174447, -187500.02235174447, -49300.929820648416, -47605.8852798802, -77911.54270309719, -49678.227267054, -89399.31117288009, -32370.243355064795, 0.0, 0.0, 0.0, 193.0, 0.0, 1.0, 1.0, 0.0, 0.0, 1.0, 1.0, 256.0, 1.0, 1.750529863752523E9, 0.0, 2025-06-21 20:17:43.752
88.0, -44694.32469538745, -37978.22898366797, -30214.641119794982, -74195.40872519121, -27449.126833573206, -28643.82757470937, -53122.20640447216, -102117.72198888326, -187500.02235174447, -187500.02235174447, -49297.44294851339, -47602.91249786765, -77914.91781650994, -49678.31667403182, -89403.02156245966, -32367.87407015253, 0.0, 0.0, 0.0, 193.0, 0.0, 1.0, 1.0, 0.0, 0.0, 1.0, 1.0, 256.0, 1.0, 1.750529863760505E9, 0.0, 2025-06-21 20:17:43.760
90.0, -44707.51222461608, -37992.84702454174, -30226.621654823026, -74213.6701004112, -27449.484461484488, -28651.270705612984, -53117.333724180906, -102123.48873895273, -187500.02235174447, -187500.02235174447, -49262.21659925182, -47562.187619470074, -77880.2279091153, -49631.73563858696, -89406.46373110577, -32323.86348532003, 0.0, 0.0, 0.0, 193.0, 0.0, 1.0, 1.0, 0.0, 0.0, 1.0, 1.0, 256.0, 1.0, 1.750529863767561E9, 0.0, 2025-06-21 20:17:43.767
92.0, -44720.43153291125, -38007.30860320433, -30234.847096782578, -74224.80126914993, -27463.76722619143, -28603.683841667636, -53124.821558573436, -102130.32837275606, -187500.02235174447, -187500.02235174447, -49298.15820433595, -47604.96885835753, -77907.63114781752, -49690.27485731541, -89375.97595166873, -32382.045076137198, 0.0, 0.0, 0.0, 193.0, 0.0, 1.0, 1.0, 0.0, 0.0, 1.0, 1.0, 256.0, 1.0, 1.750529863776505E9, 0.0, 2025-06-21 20:17:43.776
94.0, -44691.106044185886, -37975.6138295667, -30203.01821267822, -74186.1103994978, -27447.38339750569, -28646.085100899352, -53109.35415141036, -102110.48002367975, -187500.02235174447, -187500.02235174447, -49270.5314481892, -47572.469421919515, -77887.62633653001, -49640.966909047, -89414.75622829869, -32335.665206392434, 0.0, 0.0, 0.0, 193.0, 0.0, 1.0, 1.0, 0.0, 0.0, 1.0, 1.0, 256.0, 1.0, 1.750529863784633E9, 0.0, 2025-06-21 20:17:43.784
96.0, -44721.81734106748, -38010.75077185044, -30229.952064746867, -74221.29204527046, -27457.687551699586, -28594.832550863335, -53123.16752948374, -102138.9114426269, -187500.02235174447, -187500.02235174447, -49275.98527383629, -47580.739567367986, -77885.56997604013, -49658.80360112234, -89374.59014351251, -32352.40666298946, 0.0, 0.0, 0.0, 193.0, 0.0, 1.0, 1.0, 0.0, 0.0, 1.0, 1.0, 256.0, 1.0, 1.750529863791675E9, 0.0, 2025-06-21 20:17:43.791
98.0, -44699.08561695643, -37975.122091188685, -30208.98612844779, -74185.6633646087, -27444.63413293769, -28602.18627478913, -53091.91979073522, -102103.01454103168, -187500.02235174447, -187500.02235174447, -49287.71993967533, -47588.74149188298, -77897.66226979045, -49663.58687443577, -89388.22470763024, -32353.45719497886, 0.0, 0.0, 0.0, 193.0, 0.0, 1.0, 1.0, 0.0, 0.0, 1.0, 1.0, 256.0, 1.0, 1.750529863800589E9, 0.0, 2025-06-21 20:17:43.800
100.0, -44730.78039059405, -38011.57778639529, -30231.539038603194, -74217.38048999077, -27483.369706078734, -28633.813993193387, -53124.97802078462, -102143.53825372914, -187500.02235174447, -187500.02235174447, -49264.71999463082, -47558.901913035144, -77872.56126076714, -49627.35469667372, -89407.24604216171, -32318.744935839768, 0.0, 0.0, 0.0, 193.0, 0.0, 1.0, 1.0, 0.0, 0.0, 1.0, 1.0, 256.0, 1.0, 1.750529863808678E9, 0.0, 2025-06-21 20:17:43.808
102.0, -44724.94658529122, -38005.02872526988, -30225.816992022636, -74213.69245215565, -27444.25415328195, -28620.13472558674, -53136.913852323756, -102148.88032065396, -187500.02235174447, -187500.02235174447, -49298.00174212477, -47596.85517512026, -77900.56799656963, -49684.373996779206, -89371.5503062666, -32377.105340612572, 0.0, 0.0, 0.0, 193.0, 0.0, 1.0, 1.0, 0.0, 0.0, 1.0, 1.0, 256.0, 1.0, 1.750529863815697E9, 0.0, 2025-06-21 20:17:43.815
104.0, -44696.693980299715, -37980.03947496885, -30201.855921966544, -74187.47385590957, -27465.264793069935, -28636.719719972578, -53103.31918040743, -102104.847384077, -187500.02235174447, -187500.02235174447, -49269.34680573307, -47566.054471260846, -77882.79835972768, -49635.11075199971, -89411.00113523021, -32329.943159811875, 0.0, 0.0, 0.0, 193.0, 0.0, 1.0, 1.0, 0.0, 0.0, 1.0, 1.0, 256.0, 1.0, 1.750529863823794E9, 0.0, 2025-06-21 20:17:43.823
106.0, -44729.79691383802, -38021.881940589185, -30235.65175958297, -74232.17734482019, -27457.419330766123, -28600.107562554786, -53121.111168993855, -102143.24768105122, -187500.02235174447, -187500.02235174447, -49277.57224769262, -47582.59476215777, -77884.36298183954, -49661.6199209237, -89380.17807962633, -32355.9382386134, 0.0, 0.0, 0.0, 193.0, 0.0, 1.0, 1.0, 0.0, 0.0, 1.0, 1.0, 256.0, 1.0, 1.750529863832734E9, 0.0, 2025-06-21 20:17:43.832
108.0, -44710.21678569517, -37990.90242277413, -30215.73635527329, -74198.06858278139, -27470.226880339014, -28627.220228579074, -53106.56018335345, -102115.06213129307, -187500.02235174447, -187500.02235174447, -49292.34675077758, -47593.83768961879, -77900.23272040281, -49668.52660996039, -89390.45988207578, -32361.45911949386, 0.0, 0.0, 0.0, 193.0, 0.0, 1.0, 1.0, 0.0, 0.0, 1.0, 1.0, 256.0, 1.0, 1.750529863840797E9, 0.0, 2025-06-21 20:17:43.840
110.0, -44722.689059101234, -38003.12882699118, -30233.483640370807, -74223.01312959351, -27465.890641914684, -28647.7614817335, -53122.69814285018, -102130.06015182259, -187500.02235174447, -187500.02235174447, -49271.00083482276, -47566.4791544055, -77879.40089457046, -49637.70355435653, -89414.75622829869, -32330.881933079, 0.0, 0.0, 0.0, 193.0, 0.0, 1.0, 1.0, 0.0, 0.0, 1.0, 1.0, 256.0, 1.0, 1.750529863847804E9, 0.0, 2025-06-21 20:17:43.847
112.0, -44730.445114427224, -38014.34940270775, -30226.12991644501, -74218.9227603582, -27447.29399052787, -28626.08028961185, -53129.82834933142, -102133.61407919099, -187500.02235174447, -187500.02235174447, -49301.689779959896, -47603.9853816015, -77905.10540069407, -49692.331217805295, -89378.32288483654, -32383.475587782337, 0.0, 0.0, 0.0, 193.0, 0.0, 1.0, 1.0, 0.0, 0.0, 1.0, 1.0, 256.0, 1.0, 1.750529863855941E9, 0.0, 2025-06-21 20:17:43.855
114.0, -44695.66580005477, -37986.38737039416, -30203.822875478614, -74191.3630594448, -27451.362008018736, -28664.927621475177, -53108.661247332246, -102109.2506777347, -187500.02235174447, -187500.02235174447, -49261.903674829446, -47566.65796836114, -77878.1268451365, -49629.96985077499, -89402.86510024847, -32325.182238242895, 0.0, 0.0, 0.0, 193.0, 0.0, 1.0, 1.0, 0.0, 0.0, 1.0, 1.0, 256.0, 1.0, 1.750529863864882E9, 0.0, 2025-06-21 20:17:43.864
116.0, -44727.8076085815, -38022.10545803374, -30233.50599211526, -74230.88094364178, -27455.16180457614, -28586.67416413715, -53139.68546863621, -102154.60236723452, -187500.02235174447, -187500.02235174447, -49277.68400641489, -47583.444128447074, -77883.91594695044, -49659.78707787837, -89378.79227147011, -32353.70306416787, 0.0, 0.0, 0.0, 193.0, 0.0, 1.0, 1.0, 0.0, 0.0, 1.0, 1.0, 256.0, 1.0, 1.750529863871948E9, 0.0, 2025-06-21 20:17:43.871
118.0, -44699.46559661217, -37985.13567270466, -30213.277663383207, -74203.5671119174, -27481.112179888747, -28614.256216794995, -53125.17918648472, -102131.06598032308, -187500.02235174447, -187500.02235174447, -49283.67427392892, -47590.10494829476, -77895.27063313372, -49670.046528583356, -89389.92344020885, -32366.60002071858, 0.0, 0.0, 0.0, 193.0, 0.0, 1.0, 1.0, 0.0, 0.0, 1.0, 1.0, 256.0, 1.0, 1.750529863879931E9, 0.0, 2025-06-21 20:17:43.879
120.0, -44724.05251551301, -38008.58265263828, -30236.657588083457, -74231.61855120881, -27476.35125831977, -28628.248408824016, -53133.762256355556, -102148.90267239841, -187500.02235174447, -187500.02235174447, -49271.5819801786, -47569.809564329335, -77880.78670272669, -49640.56457764681, -89420.09829522352, -32335.553447670158, 0.0, 0.0, 0.0, 193.0, 0.0, 1.0, 1.0, 0.0, 0.0, 1.0, 1.0, 256.0, 1.0, 1.750529863887976E9, 0.0, 2025-06-21 20:17:43.887
122.0, -44724.83482656894, -38011.33191720628, -30238.713948573346, -74229.09280408536, -27474.49606352998, -28621.14055408723, -53138.76904711355, -102148.1650648314, -187500.02235174447, -187500.02235174447, -49315.12317837754, -47618.67047770864, -77917.62237758904, -49698.45559578605, -89384.33550409503, -32393.98090767633, 0.0, 0.0, 0.0, 193.0, 0.0, 1.0, 1.0, 0.0, 0.0, 1.0, 1.0, 256.0, 1.0, 1.75052986389697E9, 0.0, 2025-06-21 20:17:43.896
124.0, -44700.91846000176, -37983.4145883816, -30223.22418966582, -74203.76827761749, -27469.444569283078, -28659.786720250457, -53104.70498856366, -102118.75016912821, -187500.02235174447, -187500.02235174447, -49286.24472454128, -47580.739567367986, -77895.82942674511, -49644.54318815985, -89425.9097487819, -32336.40281395946, 0.0, 0.0, 0.0, 193.0, 0.0, 1.0, 1.0, 0.0, 0.0, 1.0, 1.0, 256.0, 1.0, 1.750529863904014E9, 0.0, 2025-06-21 20:17:43.904
126.0, -44728.96989929317, -38013.835312585274, -30241.798489308178, -74233.94313263215, -27444.500022470955, -28598.542940442916, -53134.41045694476, -102150.60140497702, -187500.02235174447, -187500.02235174447, -49291.1844600659, -47588.92030583863, -77892.1860923989, -49665.10679305873, -89385.58720178452, -32357.279343280716, 0.0, 0.0, 0.0, 193.0, 0.0, 1.0, 1.0, 0.0, 0.0, 1.0, 1.0, 256.0, 1.0, 1.750529863912012E9, 0.0, 2025-06-21 20:17:43.912
128.0, -44714.12834097485, -37997.339725177255, -30237.79752705068, -74217.55930394641, -27488.600014281277, -28664.94997321963, -53117.4901863921, -102128.83080587754, -187500.02235174447, -187500.02235174447, -49309.40113179698, -47605.28178277991, -77914.26961592074, -49680.39538626616, -89403.62505955996, -32373.372599288537, 0.0, 0.0, 0.0, 193.0, 0.0, 1.0, 1.0, 0.0, 0.0, 1.0, 1.0, 256.0, 1.0, 1.750529863920969E9, 0.0, 2025-06-21 20:17:43.920
130.0, -44727.82996032595, -38012.78478059587, -30248.12403298903, -74237.87703965629, -27488.86823521474, -28646.688597999648, -53127.8390440749, -102144.09704734052, -187500.02235174447, -187500.02235174447, -49289.32926527611, -47583.600590658265, -77897.79638025718, -49649.08059228428, -89428.14492322743, -32342.706005895856, 0.0, 0.0, 0.0, 193.0, 0.0, 1.0, 1.0, 0.0, 0.0, 1.0, 1.0, 256.0, 1.0, 1.750529863928078E9, 0.0, 2025-06-21 20:17:43.928
132.0, -44733.68611737325, -38016.13754226417, -30254.494280158793, -74240.268676313, -27474.607822252256, -28606.276644024452, -53129.60483188687, -102146.86866365299, -187500.02235174447, -187500.02235174447, -49323.61684127055, -47626.22536733453, -77926.80894456017, -49706.34576157877, -89395.04198968911, -32399.50178855679, 0.0, 0.0, 0.0, 193.0, 0.0, 1.0, 1.0, 0.0, 0.0, 1.0, 1.0, 256.0, 1.0, 1.750529863936089E9, 0.0, 2025-06-21 20:17:43.936
134.0, -44722.28672770104, -38002.167701979604, -30241.619675352536, -74224.71186217212, -27478.832301954306, -28666.33578137586, -53134.16458775575, -102137.23506179274, -187500.02235174447, -187500.02235174447, -49297.53235549121, -47587.86977384923, -77908.68167980692, -49660.72585114549, -89439.611368133, -32354.887706624, 0.0, 0.0, 0.0, 193.0, 0.0, 1.0, 1.0, 0.0, 0.0, 1.0, 1.0, 256.0, 1.0, 1.750529863944091E9, 0.0, 2025-06-21 20:17:43.944
136.0, -44737.77648660856, -38024.63120515719, -30261.825652340136, -74255.73608347608, -27480.709848488554, -28578.51577741096, -53134.65632613377, -102161.21848359329, -187500.02235174447, -187500.02235174447, -49315.301992333174, -47613.64133520619, -77918.04706073369, -49698.83557544179, -89414.10802770949, -32394.02561116524, 0.0, 0.0, 0.0, 193.0, 0.0, 1.0, 1.0, 0.0, 0.0, 1.0, 1.0, 256.0, 1.0, 1.750529863953094E9, 0.0, 2025-06-21 20:17:43.953
138.0, -44715.87177704237, -37994.29988793134, -30246.738224832803, -74225.67298718369, -27457.598144721767, -28638.396100806727, -53129.0907417644, -102139.00084960471, -187500.02235174447, -187500.02235174447, -49305.71309396185, -47604.5888787018, -77915.70012756588, -49700.46725278703, -89423.67457433637, -32392.12571288654, 0.0, 0.0, 0.0, 193.0, 0.0, 1.0, 1.0, 0.0, 0.0, 1.0, 1.0, 256.0, 1.0, 1.75052986396009E9, 0.0, 2025-06-21 20:17:43.960
140.0, -44720.27507070006, -38002.458274657525, -30245.08419574311, -74236.37947277779, -27472.551461762367, -28624.71683320008, -53137.80792210197, -102147.27099505317, -187500.02235174447, -187500.02235174447, -49289.53043097621, -47585.14286102568, -77897.95284246837, -49665.1738482921, -89438.7620018437, -32359.849793893078, 0.0, 0.0, 0.0, 193.0, 0.0, 1.0, 1.0, 0.0, 0.0, 1.0, 1.0, 256.0, 1.0, 1.750529863968121E9, 0.0, 2025-06-21 20:17:43.968
142.0, -44744.6608239008, -38025.301757490844, -30269.157024521475, -74252.11510087432, -27499.932348720118, -28615.61967320677, -53134.29869822248, -102150.109666599, -187500.02235174447, -187500.02235174447, -49321.672239502936, -47615.742399184994, -77917.10828746656, -49709.47500580252, -89399.13235892444, -32402.943957202908, 0.0, 0.0, 0.0, 193.0, 0.0, 1.0, 1.0, 0.0, 0.0, 1.0, 1.0, 256.0, 1.0, 1.750529863976165E9, 0.0, 2025-06-21 20:17:43.976
144.0, -44730.46746617168, -38011.73424860647, -30238.46807938434, -74222.74490866005, -27485.314307846347, -28665.307601130917, -53137.383238957314, -102140.58782346104, -187500.02235174447, -187500.02235174447, -49305.15430035047, -47599.64914317717, -77915.7895345437, -49668.88423787168, -89450.58607466056, -32364.856584651065, 0.0, 0.0, 0.0, 193.0, 0.0, 1.0, 1.0, 0.0, 0.0, 1.0, 1.0, 256.0, 1.0, 1.750529863984185E9, 0.0, 2025-06-21 20:17:43.984
146.0, -44747.54419893554, -38030.554417437845, -30260.8421755841, -74249.36583630632, -27496.981918452017, -28608.869446381268, -53119.635953859804, -102145.08052409656, -187500.02235174447, -187500.02235174447, -49309.24466958579, -47599.62679143272, -77907.05000246168, -49677.31084553133, -89397.99241995721, -32374.356076044573, 0.0, 0.0, 0.0, 193.0, 0.0, 1.0, 1.0, 0.0, 0.0, 1.0, 1.0, 256.0, 1.0, 1.750529863992209E9, 0.0, 2025-06-21 20:17:43.992
148.0, -44750.449925714725, -38032.18609478308, -30264.999600052786, -74248.33765606137, -27500.669956287144, -28674.762389035513, -53147.732096640124, -102151.45077126632, -187500.02235174447, -187500.02235174447, -49328.51187330626, -47623.20788183306, -77930.96636902886, -49701.294267331876, -89431.92236804037, -32396.03726816622, 0.0, 0.0, 0.0, 193.0, 0.0, 1.0, 1.0, 0.0, 0.0, 1.0, 1.0, 256.0, 1.0, 1.750529864000189E9, 0.0, 2025-06-21 20:17:44.000
150.0, -44768.420728256795, -38051.29683629237, -30269.22407975484, -74260.29583934497, -27456.301743543358, -28638.105528128806, -53157.20923628918, -102161.84433243804, -187500.02235174447, -187500.02235174447, -49315.97254466684, -47613.90955613966, -77922.38329915801, -49675.99209260847, -89447.59094090354, -32375.160738844963, 0.0, 0.0, 0.0, 193.0, 0.0, 1.0, 1.0, 0.0, 0.0, 1.0, 1.0, 256.0, 1.0, 1.750529864009289E9, 0.0, 2025-06-21 20:17:44.009
152.0, -44767.77252766759, -38055.74483343898, -30270.587536166615, -74262.28514460148, -27481.67097350013, -28610.14349581522, -53148.648518162794, -102159.16212310341, -187500.02235174447, -187500.02235174447, -49338.97248971135, -47641.84923670879, -77939.39297668851, -49719.42153208513, -89404.2509084047, -32417.092611443117, 0.0, 0.0, 0.0, 193.0, 0.0, 1.0, 1.0, 0.0, 0.0, 1.0, 1.0, 256.0, 1.0, 1.750529864015279E9, 0.0, 2025-06-21 20:17:44.015
154.0, -44763.90567587682, -38047.58644671279, -30253.577858636127, -74241.56507749141, -27494.25500562847, -28679.94799374914, -53132.912890066254, -102143.27003279568, -187500.02235174447, -187500.02235174447, -49314.16205336596, -47610.288573537895, -77924.7972875592, -49678.629598454194, -89453.44709795083, -32376.211270834363, 0.0, 0.0, 0.0, 193.0, 0.0, 1.0, 1.0, 0.0, 0.0, 1.0, 1.0, 256.0, 1.0, 1.750529864024282E9, 0.0, 2025-06-21 20:17:44.024
156.0, -44850.51868564114, -38124.163523216674, -30317.7050134784, -74307.48037189012, -27517.00908148397, -28662.9159644742, -53174.82241091996, -102186.25243738323, -187500.02235174447, -187500.02235174447, -49346.214454914865, -47641.22338786404, -77946.36672095857, -49723.98128795401, -89443.27705422367, -32419.372489377558, 0.0, 0.0, 0.0, 193.0, 0.0, 1.0, 1.0, 0.0, 0.0, 1.0, 1.0, 256.0, 1.0, 1.750529864032473E9, 0.0, 2025-06-21 20:17:44.032
158.0, -44853.44676416478, -38117.033316735426, -30296.359097523582, -74271.85169122835, -27527.179125211136, -28662.49128132955, -53160.673756679746, -102170.09212614204, -187500.02235174447, -187500.02235174447, -49364.9005132795, -47651.10285891329, -77966.05860782368, -49730.46329384605, -89454.22940900677, -32424.55809409119, 0.0, 0.0, 0.0, 193.0, 0.0, 1.0, 1.0, 0.0, 0.0, 1.0, 1.0, 256.0, 1.0, 1.750529864041336E9, 0.0, 2025-06-21 20:17:44.041
160.0, -44878.994808077194, -38142.760174603485, -30300.47181850336, -74286.20151116866, -27516.76321229496, -28633.05403388191, -53168.228646305644, -102184.66546352691, -187500.02235174447, -187500.02235174447, -49368.163867969975, -47650.72287925755, -77970.32779101466, -49716.35934309475, -89496.94359266086, -32409.35890786158, 0.0, 0.0, 0.0, 193.0, 0.0, 1.0, 1.0, 0.0, 0.0, 1.0, 1.0, 256.0, 1.0, 1.750529864048345E9, 0.0, 2025-06-21 20:17:44.048
162.0, -44912.433017782336, -38167.34709350432, -30314.262844832283, -74292.6388135718, -27542.93710505213, -28634.819821693876, -53165.926416626746, -102188.57701880658, -187500.02235174447, -187500.02235174447, -49375.96462678488, -47664.17862941964, -77973.38998000503, -49738.01818347194, -89426.78146681565, -32432.202390694907, 0.0, 0.0, 0.0, 193.0, 0.0, 1.0, 1.0, 0.0, 0.0, 1.0, 1.0, 256.0, 1.0, 1.750529864056381E9, 0.0, 2025-06-21 20:17:44.056
164.0, -44889.81305239356, -38143.07309902586, -30267.860623343066, -74247.84591768336, -27486.990688680493, -28677.131673947773, -53152.82829437593, -102135.02223909168, -187500.02235174447, -187500.02235174447, -49371.36016742708, -47644.10676289878, -77968.74081715832, -49701.495433031974, -89481.38677851997, -32397.914814700463, 0.0, 0.0, 0.0, 193.0, 0.0, 1.0, 1.0, 0.0, 0.0, 1.0, 1.0, 256.0, 1.0, 1.750529864064433E9, 0.0, 2025-06-21 20:17:44.064
166.0, -44940.79738149612, -38186.14491059124, -30298.43780975793, -74286.91676699124, -27525.703910077085, -28607.528341713947, -53152.493018209105, -102158.3127568141, -187500.02235174447, -187500.02235174447, -49365.57106561316, -47639.994041919, -77951.70878788338, -49700.89193593168, -89419.87477777897, -32395.59023327711, 0.0, 0.0, 0.0, 193.0, 0.0, 1.0, 1.0, 0.0, 0.0, 1.0, 1.0, 256.0, 1.0, 1.7505298640714E9, 0.0, 2025-06-21 20:17:44.071
168.0, -44910.44371252581, -38153.824288108866, -30273.336800734618, -74251.19867935166, -27531.671825846654, -28694.20840671163, -53149.766105385555, -102148.43328576486, -187500.02235174447, -187500.02235174447, -49371.29311219372, -47646.230178622034, -77965.74568340131, -49713.34185759328, -89437.57735938756, -32404.910910714974, 0.0, 0.0, 0.0, 193.0, 0.0, 1.0, 1.0, 0.0, 0.0, 1.0, 1.0, 256.0, 1.0, 1.75052986408049E9, 0.0, 2025-06-21 20:17:44.080
170.0, -44907.42622702435, -38153.62312240877, -30280.08702756012, -74263.44743531317, -27527.626160100244, -28668.68271454367, -53168.47451549465, -102175.27773085568, -187500.02235174447, -187500.02235174447, -49343.979280469335, -47616.41295151865, -77939.95177029989, -49685.73745319098, -89458.54329568664, -32378.55820400217, 0.0, 0.0, 0.0, 193.0, 0.0, 1.0, 1.0, 0.0, 0.0, 1.0, 1.0, 256.0, 1.0, 1.750529864088516E9, 0.0, 2025-06-21 20:17:44.088
172.0, -44902.911174644374, -38139.69798561311, -30309.52427500776, -74277.46197908664, -27563.03132331745, -28642.441766553136, -53152.31420425346, -102177.69171925685, -187500.02235174447, -187500.02235174447, -49397.19878401742, -47656.780202004935, -77968.91963111397, -49741.23683467351, -89432.0564785071, -32432.627073839558, 0.0, 0.0, 0.0, 193.0, 0.0, 1.0, 1.0, 0.0, 0.0, 1.0, 1.0, 256.0, 1.0, 1.750529864095478E9, 0.0, 2025-06-21 20:17:44.095
174.0, -44846.13774372789, -38078.364798827744, -30264.820786097145, -74234.92660938819, -27536.36569218227, -28668.6156593103, -53144.178169271734, -102135.64808793642, -187500.02235174447, -187500.02235174447, -49354.30578640768, -47613.70839043956, -77941.71755811186, -49689.805470681844, -89473.16133656041, -32381.285116825715, 0.0, 0.0, 0.0, 193.0, 0.0, 1.0, 1.0, 0.0, 0.0, 1.0, 1.0, 256.0, 1.0, 1.750529864104564E9, 0.0, 2025-06-21 20:17:44.104
176.0, -44851.70332809727, -38082.7904442299, -30307.982004640344, -74283.89928148976, -27550.760215611484, -28623.24161806603, -53215.94962071772, -102191.21452465231, -187500.02235174447, -187500.02235174447, -49344.94040548091, -47619.51984399794, -77933.55917138567, -49710.12320639172, -89435.67746110886, -32402.586329291622, 0.0, 0.0, 0.0, 193.0, 0.0, 1.0, 1.0, 0.0, 0.0, 1.0, 1.0, 256.0, 1.0, 1.750529864112578E9, 0.0, 2025-06-21 20:17:44.112
178.0, -44794.01347565812, -38020.138504521674, -30278.23183277033, -74249.43289153969, -27545.664017875675, -28667.587479065358, -53155.26463452156, -102197.83064101108, -187500.02235174447, -187500.02235174447, -49359.513742865776, -47633.82496044934, -77953.13929952853, -49732.184378169106, -89466.43346147936, -32421.250035911806, 0.0, 0.0, 0.0, 193.0, 0.0, 1.0, 1.0, 0.0, 0.0, 1.0, 1.0, 256.0, 1.0, 1.750529864120623E9, 0.0, 2025-06-21 20:17:44.120
180.0, -44778.88134466187, -38009.38731543867, -30295.777952167748, -74268.99066793808, -27541.573648640355, -28645.41454856569, -53235.283879671566, -102205.16201319243, -187500.02235174447, -187500.02235174447, -49344.33690838062, -47620.10098935378, -77942.27635172324, -49696.041607384876, -89470.27796152567, -32391.768084975254, 0.0, 0.0, 0.0, 193.0, 0.0, 1.0, 1.0, 0.0, 0.0, 1.0, 1.0, 256.0, 1.0, 1.750529864127635E9, 0.0, 2025-06-21 20:17:44.127
182.0, -44743.07385004447, -37973.42335861008, -30292.71576317737, -74265.61555452533, -27559.96913432707, -28605.114353312776, -53150.43665771922, -102174.7189372443, -187500.02235174447, -187500.02235174447, -49353.836399774125, -47627.29825106839, -77941.73990985632, -49730.776218268424, -89421.93113826885, -32419.7524690333, 0.0, 0.0, 0.0, 193.0, 0.0, 1.0, 1.0, 0.0, 0.0, 1.0, 1.0, 256.0, 1.0, 1.750529864135655E9, 0.0, 2025-06-21 20:17:44.135
184.0, -44698.169195433766, -37938.331119815244, -30270.207556510875, -74241.90035365825, -27551.140195267224, -28660.30081037293, -53174.95652138669, -102170.78503022016, -187500.02235174447, -187500.02235174447, -49337.92195772195, -47606.51112872495, -77928.26180794976, -49681.35651127774, -89465.5617434456, -32373.819634177642, 0.0, 0.0, 0.0, 193.0, 0.0, 1.0, 1.0, 0.0, 0.0, 1.0, 1.0, 256.0, 1.0, 1.750529864144684E9, 0.0, 2025-06-21 20:17:44.144
186.0, -44705.45586412619, -37951.02691066586, -30307.33380405114, -74287.22969141361, -27583.37141077178, -28648.85671721181, -53221.33639113145, -102207.44189112686, -187500.02235174447, -187500.02235174447, -49338.36899261105, -47616.05532360737, -77923.07620323614, -49709.20678486905, -89427.8096470606, -32402.60868103608, 0.0, 0.0, 0.0, 193.0, 0.0, 1.0, 1.0, 0.0, 0.0, 1.0, 1.0, 256.0, 1.0, 1.750529864151737E9, 0.0, 2025-06-21 20:17:44.151
188.0, -44641.28400579501, -37885.625706389634, -30275.549623435694, -74243.10734785884, -27560.17030002717, -28678.271612914996, -53210.62990553736, -102194.23201015378, -187500.02235174447, -187500.02235174447, -49354.171675940954, -47631.43332379262, -77941.82931683413, -49741.616814329245, -89465.58409519006, -32433.69995757341, 0.0, 0.0, 0.0, 193.0, 0.0, 1.0, 1.0, 0.0, 0.0, 1.0, 1.0, 256.0, 1.0, 1.750529864159743E9, 0.0, 2025-06-21 20:17:44.159
190.0, -44620.36277298484, -37873.42165391704, -30260.41749243945, -74231.50679248653, -27535.4492706596, -28636.965589161588, -53168.4521637502, -102173.2660738547, -187500.02235174447, -187500.02235174447, -49300.773358437225, -47572.98351204199, -77887.44752257437, -49677.35554902024, -89456.2634177522, -32369.50574749777, 0.0, 0.0, 0.0, 193.0, 0.0, 1.0, 1.0, 0.0, 0.0, 1.0, 1.0, 256.0, 1.0, 1.750529864168737E9, 0.0, 2025-06-21 20:17:44.168
192.0, -44616.89825259426, -37870.42652016002, -30278.14242579251, -74249.63405723979, -27549.329703966345, -28631.310597814394, -53183.405480790796, -102177.0211669232, -187500.02235174447, -187500.02235174447, -49317.38070456752, -47595.08938730829, -77896.34351686758, -49710.436130814094, -89402.39571361491, -32403.346288603105, 0.0, 0.0, 0.0, 193.0, 0.0, 1.0, 1.0, 0.0, 0.0, 1.0, 1.0, 256.0, 1.0, 1.750529864176822E9, 0.0, 2025-06-21 20:17:44.176
194.0, -44583.59415335586, -37835.31192962074, -30250.26980045674, -74222.83431563787, -27542.043035273917, -28662.08894992935, -53153.63295717633, -102150.62375672147, -187500.02235174447, -187500.02235174447, -49313.71501847685, -47591.423701217616, -77902.44554310388, -49689.49254625947, -89474.99417960575, -32385.75546571678, 0.0, 0.0, 0.0, 193.0, 0.0, 1.0, 1.0, 0.0, 0.0, 1.0, 1.0, 256.0, 1.0, 1.750529864183827E9, 0.0, 2025-06-21 20:17:44.183
196.0, -44603.33074370989, -37856.21081068645, -30279.28236475973, -74262.91099344623, -27540.63487537323, -28620.76057443149, -53189.48515528264, -102195.97544622129, -187500.02235174447, -187500.02235174447, -49290.67036994343, -47575.755128354445, -77874.14823462347, -49685.35747353524, -89412.29753640862, -32379.31816331365, 0.0, 0.0, 0.0, 193.0, 0.0, 1.0, 1.0, 0.0, 0.0, 1.0, 1.0, 256.0, 1.0, 1.750529864191873E9, 0.0, 2025-06-21 20:17:44.191
198.0, -44585.22583070109, -37837.97178721092, -30274.00735306828, -74250.25990608454, -27557.711608137088, -28692.35321192184, -53191.89914368381, -102180.03865242466, -187500.02235174447, -187500.02235174447, -49324.2426901153, -47611.070884593835, -77914.04609847619, -49722.953107709065, -89449.58024616007, -32418.85839925509, 0.0, 0.0, 0.0, 193.0, 0.0, 1.0, 1.0, 0.0, 0.0, 1.0, 1.0, 256.0, 1.0, 1.750529864200885E9, 0.0, 2025-06-21 20:17:44.200
200.0, -44596.513461651026, -37852.58982808469, -30289.13948406452, -74261.65929575673, -27561.712570394586, -28623.889818655232, -53180.99149238962, -102190.70043452983, -187500.02235174447, -187500.02235174447, -49305.57898349512, -47586.81924185983, -77892.387258099, -49688.419662525615, -89465.58409519006, -32383.07325638214, 0.0, 0.0, 0.0, 193.0, 0.0, 1.0, 1.0, 0.0, 0.0, 1.0, 1.0, 256.0, 1.0, 1.750529864207903E9, 0.0, 2025-06-21 20:17:44.207
202.0, -44589.29384819196, -37850.01937747233, -30269.26878324375, -74252.07039738541, -27536.835078815828, -28629.500106513515, -53203.29853335602, -102188.48761182876, -187500.02235174447, -187500.02235174447, -49333.831588486624, -47617.41878001914, -77912.14620019749, -49734.352497381275, -89424.7027545813, -32425.22864642485, 0.0, 0.0, 0.0, 193.0, 0.0, 1.0, 1.0, 0.0, 0.0, 1.0, 1.0, 256.0, 1.0, 1.750529864215951E9, 0.0, 2025-06-21 20:17:44.215
204.0, -44583.52709812249, -37848.87943850511, -30265.156062263974, -74237.89939140074, -27555.722302880564, -28687.301717674938, -53175.850591164904, -102176.4176698229, -187500.02235174447, -187500.02235174447, -49306.87538467353, -47584.852288347756, -77893.92952846641, -49680.88712464418, -89457.17983927488, -32378.98288714682, 0.0, 0.0, 0.0, 193.0, 0.0, 1.0, 1.0, 0.0, 0.0, 1.0, 1.0, 256.0, 1.0, 1.750529864223999E9, 0.0, 2025-06-21 20:17:44.223
206.0, -44611.80205485845, -37875.05333126227, -30286.14435030751, -74266.68843825918, -27561.958439583595, -28609.42823999265, -53183.271370324066, -102177.57996053458, -187500.02235174447, -187500.02235174447, -49321.06874240265, -47605.92998336911, -77907.11705769504, -49703.48473828849, -89424.68040283685, -32396.104323399584, 0.0, 0.0, 0.0, 193.0, 0.0, 1.0, 1.0, 0.0, 0.0, 1.0, 1.0, 256.0, 1.0, 1.750529864233027E9, 0.0, 2025-06-21 20:17:44.233
208.0, -44607.44346468967, -37863.72099682343, -30284.535024706725, -74251.93628691867, -27600.22462609108, -28683.05488622843, -53174.75535568659, -102166.09116388454, -187500.02235174447, -187500.02235174447, -49338.83837924461, -47618.2904980529, -77925.8478195486, -49719.19801464058, -89449.78141186017, -32410.632957295533, 0.0, 0.0, 0.0, 193.0, 0.0, 1.0, 1.0, 0.0, 0.0, 1.0, 1.0, 256.0, 1.0, 1.750529864240132E9, 0.0, 2025-06-21 20:17:44.240
210.0, -44629.75050565607, -37892.68885763751, -30305.724478450356, -74283.49695008957, -27575.97298335707, -28659.652609783723, -53211.38986484884, -102200.53520209018, -187500.02235174447, -187500.02235174447, -49335.70913502087, -47611.9873061165, -77920.86338053505, -49702.25539234345, -89482.12438608699, -32393.846797209597, 0.0, 0.0, 0.0, 193.0, 0.0, 1.0, 1.0, 0.0, 0.0, 1.0, 1.0, 256.0, 1.0, 1.750529864248088E9, 0.0, 2025-06-21 20:17:44.248
212.0, -44624.900177109266, -37886.92210756804, -30302.103495848598, -74275.40561859675, -27561.39964597221, -28657.216269638095, -53213.15565266081, -102200.49049860127, -187500.02235174447, -187500.02235174447, -49357.9491207539, -47648.30889085637, -77946.2996657252, -49754.0443842464, -89440.84071407805, -32444.69701584542, 0.0, 0.0, 0.0, 193.0, 0.0, 1.0, 1.0, 0.0, 0.0, 1.0, 1.0, 256.0, 1.0, 1.750529864256123E9, 0.0, 2025-06-21 20:17:44.256
214.0, -44614.193691515175, -37873.64517136159, -30292.067562588163, -74259.55823177793, -27567.725189653065, -28692.129694477284, -53199.8563647099, -102177.28938785665, -187500.02235174447, -187500.02235174447, -49324.08622790411, -47610.82501540483, -77919.9916625013, -49701.45072954306, -89485.76772043321, -32391.008125663775, 0.0, 0.0, 0.0, 193.0, 0.0, 1.0, 1.0, 0.0, 0.0, 1.0, 1.0, 256.0, 1.0, 1.750529864264121E9, 0.0, 2025-06-21 20:17:44.264
216.0, -44640.03230810551, -37908.06685782276, -30319.85078094611, -74289.84484551488, -27581.627974704264, -28668.146272676742, -53199.38697807634, -102188.37585310648, -187500.02235174447, -187500.02235174447, -49348.874312505046, -47633.26616683795, -77932.10630799607, -49736.54296833789, -89466.7687376462, -32422.412326623482, 0.0, 0.0, 0.0, 193.0, 0.0, 1.0, 1.0, 0.0, 0.0, 1.0, 1.0, 256.0, 1.0, 1.750529864272134E9, 0.0, 2025-06-21 20:17:44.272
218.0, -44617.8817293503, -37879.65779062007, -30287.28428927473, -74261.83810971238, -27563.59011692883, -28675.410589624717, -53200.21399262119, -102178.58578903506, -187500.02235174447, -187500.02235174447, -49353.702289307395, -47640.93281518613, -77940.30939821117, -49729.50216883447, -89460.80082187663, -32420.400669622504, 0.0, 0.0, 0.0, 193.0, 0.0, 1.0, 1.0, 0.0, 0.0, 1.0, 1.0, 256.0, 1.0, 1.750529864280146E9, 0.0, 2025-06-21 20:17:44.280
220.0, -44618.9322613397, -37887.43619769051, -30282.143388050008, -74265.34733359187, -27566.607602430297, -28661.06076968441, -53204.55023104551, -102190.54397231866, -187500.02235174447, -187500.02235174447, -49326.991954683304, -47611.204995060565, -77915.74483105479, -49696.108662618244, -89474.23422029427, -32386.962459917366, 0.0, 0.0, 0.0, 193.0, 0.0, 1.0, 1.0, 0.0, 0.0, 1.0, 1.0, 256.0, 1.0, 1.750529864289187E9, 0.0, 2025-06-21 20:17:44.289
222.0, -44637.86418889334, -37903.462398464966, -30309.926606407957, -74286.04504895747, -27576.59883220182, -28646.576839277368, -53194.24607685162, -102198.79176602267, -187500.02235174447, -187500.02235174447, -49344.269853147256, -47639.70346924108, -77933.38035743003, -49730.150369423674, -89419.2042254453, -32423.216989423872, 0.0, 0.0, 0.0, 193.0, 0.0, 1.0, 1.0, 0.0, 0.0, 1.0, 1.0, 256.0, 1.0, 1.750529864296185E9, 0.0, 2025-06-21 20:17:44.296
224.0, -44612.74082812558, -37879.81425283125, -30291.352306765595, -74254.90906893123, -27571.368523999277, -28708.91585456322, -53171.42494576275, -102176.84235296755, -187500.02235174447, -187500.02235174447, -49348.47198110485, -47621.73266669901, -77931.5475143847, -49701.60719175425, -89490.23806932427, -32394.02561116524, 0.0, 0.0, 0.0, 193.0, 0.0, 1.0, 1.0, 0.0, 0.0, 1.0, 1.0, 256.0, 1.0, 1.750529864304267E9, 0.0, 2025-06-21 20:17:44.304
226.0, -44651.83402917791, -37927.848151665705, -30305.0539261167, -74296.88564501831, -27571.83791063284, -28663.47475808558, -53205.39959733482, -102204.0220742252, -187500.02235174447, -187500.02235174447, -49355.356318397084, -47632.305041826374, -77929.33469168362, -49723.243680386986, -89444.17112400188, -32418.03138471024, 0.0, 0.0, 0.0, 193.0, 0.0, 1.0, 1.0, 0.0, 0.0, 1.0, 1.0, 256.0, 1.0, 1.750529864312215E9, 0.0, 2025-06-21 20:17:44.312
228.0, -44640.88167439481, -37910.25732877938, -30297.409629512982, -74277.81960699793, -27591.820370175883, -28676.081141958373, -53203.611457778396, -102183.05613792612, -187500.02235174447, -187500.02235174447, -49338.950137966895, -47650.9463967021, -77948.02075004825, -49739.78397128391, -89467.2157725353, -32435.219876196374, 0.0, 0.0, 0.0, 193.0, 0.0, 1.0, 1.0, 0.0, 0.0, 1.0, 1.0, 256.0, 1.0, 1.750529864320277E9, 0.0, 2025-06-21 20:17:44.320
230.0, -44637.35009877087, -37909.050334578795, -30288.80420789769, -74268.45422607115, -27575.101265323316, -28667.989810465555, -53183.6513499798, -102184.08431817107, -187500.02235174447, -187500.02235174447, -49311.56925100914, -47613.75309392847, -77917.6447293335, -49696.533345762895, -89466.94755160184, -32391.27634659724, 0.0, 0.0, 0.0, 193.0, 0.0, 1.0, 1.0, 0.0, 0.0, 1.0, 1.0, 256.0, 1.0, 1.750529864328268E9, 0.0, 2025-06-21 20:17:44.328
232.0, -44662.0934798829, -37931.200913334, -30318.844952445623, -74289.77779028151, -27581.94089912664, -28678.9198135042, -53198.67172225377, -102182.40793733692, -187500.02235174447, -187500.02235174447, -49366.24161794682, -47656.73549851603, -77953.9439623289, -49752.63622434571, -89441.39950768942, -32445.18875422344, 0.0, 0.0, 0.0, 193.0, 0.0, 1.0, 1.0, 0.0, 0.0, 1.0, 1.0, 256.0, 1.0, 1.750529864336305E9, 0.0, 2025-06-21 20:17:44.336
234.0, -44638.82531390492, -37903.35063974269, -30293.94510912241, -74262.66512425723, -27586.008916617506, -28730.462936218137, -53193.91080068479, -102180.97742569179, -187500.02235174447, -187500.02235174447, -49341.36412636806, -47623.85608242227, -77935.36966268656, -49702.56831676583, -89489.61222047952, -32396.21608212186, 0.0, 0.0, 0.0, 193.0, 0.0, 1.0, 1.0, 0.0, 0.0, 1.0, 1.0, 256.0, 1.0, 1.750529864344282E9, 0.0, 2025-06-21 20:17:44.344
236.0, -44649.26357856555, -37912.09017182472, -30293.878053889046, -74275.36091510784, -27564.88651810724, -28637.502031028514, -53198.26939085357, -102182.9667309483, -187500.02235174447, -187500.02235174447, -49346.19210317041, -47628.95228015808, -77933.58152313012, -49717.52163380643, -89438.40437393241, -32410.40943985098, 0.0, 0.0, 0.0, 193.0, 0.0, 1.0, 1.0, 0.0, 0.0, 1.0, 1.0, 256.0, 1.0, 1.750529864351351E9, 0.0, 2025-06-21 20:17:44.351
238.0, -44637.84183714889, -37900.6460786636, -30303.981042382842, -74272.85751972884, -27594.547282999432, -28669.91206048871, -53201.644504266325, -102186.49830657225, -187500.02235174447, -187500.02235174447, -49351.176542183945, -47630.87453018124, -77938.90123831049, -49720.11443616324, -89443.52292341267, -32413.56103581918, 0.0, 0.0, 0.0, 193.0, 0.0, 1.0, 1.0, 0.0, 0.0, 1.0, 1.0, 256.0, 1.0, 1.750529864360387E9, 0.0, 2025-06-21 20:17:44.360
240.0, -44661.19941010469, -37919.64506145061, -30312.76527795378, -74297.55619735197, -27594.212006832604, -28673.108359945818, -53223.25864115461, -102201.7198445463, -187500.02235174447, -187500.02235174447, -49348.20376017139, -47635.03195464992, -77944.10919476858, -49724.80830249886, -89503.09032238607, -32417.070259698663, 0.0, 0.0, 0.0, 193.0, 0.0, 1.0, 1.0, 0.0, 0.0, 1.0, 1.0, 256.0, 1.0, 1.750529864368432E9, 0.0, 2025-06-21 20:17:44.368
242.0, -44662.853439194376, -37926.3505847872, -30318.554379767702, -74302.74180206559, -27578.856358391808, -28666.402836609228, -53227.55017609003, -102213.7227313188, -187500.02235174447, -187500.02235174447, -49351.444763117404, -47655.3496903598, -77949.54066867122, -49754.13379122422, -89435.6104058755, -32448.67562635847, 0.0, 0.0, 0.0, 193.0, 0.0, 1.0, 1.0, 0.0, 0.0, 1.0, 1.0, 256.0, 1.0, 1.750529864376461E9, 0.0, 2025-06-21 20:17:44.376
244.0, -44649.50944775456, -37912.67131718055, -30307.66908021797, -74284.79335126797, -27604.94084417115, -28696.890616046265, -53201.66685601078, -102192.622684553, -187500.02235174447, -187500.02235174447, -49352.092963706615, -47644.75496348798, -77950.9488285719, -49728.29517463389, -89507.76183697722, -32422.434678367936, 0.0, 0.0, 0.0, 193.0, 0.0, 1.0, 1.0, 0.0, 0.0, 1.0, 1.0, 256.0, 1.0, 1.750529864383472E9, 0.0, 2025-06-21 20:17:44.383
246.0, -44674.543401544506, -37945.59543676322, -30318.19675185642, -74310.60961611386, -27585.919509639683, -28637.81495545089, -53237.89903377283, -102217.2766586872, -187500.02235174447, -187500.02235174447, -49361.12306846656, -47652.68983276962, -77950.05475879369, -49745.86364577575, -89460.10791779851, -32439.958446020897, 0.0, 0.0, 0.0, 193.0, 0.0, 1.0, 1.0, 0.0, 0.0, 1.0, 1.0, 256.0, 1.0, 1.75052986439252E9, 0.0, 2025-06-21 20:17:44.392
248.0, -44657.91370366976, -37919.533302728334, -30307.154990095496, -74281.57470006641, -27594.88255916626, -28703.64084287177, -53225.80674002251, -102207.19602193785, -187500.02235174447, -187500.02235174447, -49362.88885627852, -47656.1990566491, -77956.4473577079, -49752.256244689976, -89474.18951680536, -32446.462803657392, 0.0, 0.0, 0.0, 193.0, 0.0, 1.0, 1.0, 0.0, 0.0, 1.0, 1.0, 256.0, 1.0, 1.750529864400569E9, 0.0, 2025-06-21 20:17:44.400
250.0, -44673.492869555106, -37943.13674487314, -30313.882865176543, -74295.45513337317, -27582.589099715842, -28700.265729459017, -53246.50445538813, -102224.80919656863, -187500.02235174447, -187500.02235174447, -49353.38936488502, -47634.070829638345, -77942.79044184572, -49723.06486643134, -89496.11657811601, -32416.75733527629, 0.0, 0.0, 0.0, 193.0, 0.0, 1.0, 1.0, 0.0, 0.0, 1.0, 1.0, 256.0, 1.0, 1.750529864407579E9, 0.0, 2025-06-21 20:17:44.407
252.0, -44684.534631316026, -37949.28347459835, -30318.66613848998, -74298.51732236354, -27601.297509824934, -28681.423208883192, -53230.56766159149, -102215.30970517514, -187500.02235174447, -187500.02235174447, -49373.23771396133, -47662.301082885395, -77959.21897402036, -49759.63232036022, -89444.72991761327, -32453.302437460716, 0.0, 0.0, 0.0, 193.0, 0.0, 1.0, 1.0, 0.0, 0.0, 1.0, 1.0, 256.0, 1.0, 1.750529864415597E9, 0.0, 2025-06-21 20:17:44.415
254.0, -44665.26742759555, -37922.26021555188, -30297.074353346154, -74271.80698773944, -27597.274195822978, -28676.975211736586, -53212.84272823844, -102196.86951599951, -187500.02235174447, -187500.02235174447, -49359.223170187855, -47636.14954187269, -77946.50083142529, -49720.293250118884, -89504.31966833111, -32412.734021274333, 0.0, 0.0, 0.0, 193.0, 0.0, 1.0, 1.0, 0.0, 0.0, 1.0, 1.0, 256.0, 1.0, 1.750529864424618E9, 0.0, 2025-06-21 20:17:44.424
0.0, -44690.27902964104, -37950.3563583322, -30317.861475689588, -74302.29476717649, -27608.02538490598, -28638.9101909292, -53234.14394070434, -102225.97148728032, -187500.02235174447, -187500.02235174447, -49357.613844587075, -47636.306004083875, -77940.21999123336, -49729.36805836774, -89443.38881294595, -32421.965291734374, 0.0, 0.0, 0.0, 193.0, 0.0, 1.0, 1.0, 0.0, 0.0, 1.0, 1.0, 256.0, 1.0, 1.750529864431673E9, 0.0, 2025-06-21 20:17:44.431
2.0, -44654.180962345716, -37914.83943639272, -30289.117132320065, -74262.26279285703, -27579.50455898101, -28711.106325519842, -53195.363664074386, -102190.27575138518, -187500.02235174447, -187500.02235174447, -49364.96756851287, -47645.29140535491, -77954.43570070693, -49747.51767486545, -89476.06706333961, -32439.5561146207, 0.0, 0.0, 0.0, 193.0, 0.0, 1.0, 1.0, 0.0, 0.0, 1.0, 1.0, 256.0, 1.0, 1.750529864439614E9, 0.0, 2025-06-21 20:17:44.439
4.0, -44686.546288317004, -37954.24556186743, -30321.86243794709, -74308.91088353525, -27592.46857076509, -28681.53496760547, -53250.90774904582, -102230.01715302673, -187500.02235174447, -187500.02235174447, -49337.899605977495, -47622.872605666234, -77928.01593876076, -49712.29132560389, -89485.03011286618, -32408.688355527924, 0.0, 0.0, 0.0, 193.0, 0.0, 1.0, 1.0, 0.0, 0.0, 1.0, 1.0, 256.0, 1.0, 1.750529864447691E9, 0.0, 2025-06-21 20:17:44.447
6.0, -44686.88156448383, -37946.48950654143, -30323.829391459156, -74304.39583115529, -27598.861169679305, -28662.424226096184, -53239.82128379599, -102229.86069081553, -187500.02235174447, -187500.02235174447, -49383.25129547731, -47670.68298705614, -77964.2034130339, -49782.296989237904, -89463.19245853335, -32476.79412088324, 0.0, 0.0, 0.0, 193.0, 0.0, 1.0, 1.0, 0.0, 0.0, 1.0, 1.0, 256.0, 1.0, 1.7505298644567E9, 0.0, 2025-06-21 20:17:44.456
8.0, -44663.74750897259, -37923.35545103019, -30294.77212366726, -74280.41240935474, -27604.203236604124, -28705.339575450373, -53215.68139978426, -102210.14645220595, -187500.02235174447, -187500.02235174447, -49351.26594916177, -47632.8414836933, -77942.81279359017, -49733.41372411415, -89514.55676729164, -32427.64263482602, 0.0, 0.0, 0.0, 193.0, 0.0, 1.0, 1.0, 0.0, 0.0, 1.0, 1.0, 256.0, 1.0, 1.750529864463683E9, 0.0, 2025-06-21 20:17:44.463
10.0, -44702.147805946806, -37977.73724528995, -30334.848801475622, -74323.73009010912, -27581.27034679298, -28674.538871590958, -53231.95346974772, -102231.91705130543, -187500.02235174447, -187500.02235174447, -49355.49042886382, -47653.62860603674, -77948.22191574835, -49744.72370680854, -89455.63756890745, -32442.573600122167, 0.0, 0.0, 0.0, 193.0, 0.0, 1.0, 1.0, 0.0, 0.0, 1.0, 1.0, 256.0, 1.0, 1.750529864473753E9, 0.0, 2025-06-21 20:17:44.473
12.0, -44667.45789855217, -37937.995843648416, -30313.167609353975, -74292.32588914942, -27602.057469136416, -28695.258938701027, -53230.21003368021, -102206.369007393, -187500.02235174447, -187500.02235174447, -49374.82468781766, -47661.51877182946, -77962.34821824411, -49750.33399466682, -89475.1729935614, -32445.054643756706, 0.0, 0.0, 0.0, 193.0, 0.0, 1.0, 1.0, 0.0, 0.0, 1.0, 1.0, 256.0, 1.0, 1.750529864480811E9, 0.0, 2025-06-21 20:17:44.480
14.0, -44678.05262542399, -37955.13963164564, -30317.257978589296, -74308.84382830189, -27592.26740506499, -28683.211348439618, -53213.08859742744, -102206.10078645954, -187500.02235174447, -187500.02235174447, -49357.56914109816, -47655.327338615345, -77954.03336930674, -49731.84910200228, -89504.20790960884, -32428.290835415228, 0.0, 0.0, 0.0, 193.0, 0.0, 1.0, 1.0, 0.0, 0.0, 1.0, 1.0, 256.0, 1.0, 1.750529864487858E9, 0.0, 2025-06-21 20:17:44.487
16.0, -44699.26443091207, -37970.83055625326, -30344.884734736057, -74332.73784312462, -27624.90095196974, -28692.86730204431, -53243.509321631114, -102238.55551940865, -187500.02235174447, -187500.02235174447, -49380.97141754287, -47684.2057924516, -77972.11593057108, -49777.11138452427, -89460.28673175415, -32472.167309780994, 0.0, 0.0, 0.0, 193.0, 0.0, 1.0, 1.0, 0.0, 0.0, 1.0, 1.0, 256.0, 1.0, 1.750529864495837E9, 0.0, 2025-06-21 20:17:44.495
18.0, -44678.65612252428, -37959.744091003435, -30317.77206871177, -74299.43374388621, -27589.585195730353, -28737.660197932746, -53217.9612777187, -102218.5283563767, -187500.02235174447, -187500.02235174447, -49366.711004580386, -47661.94345497411, -77962.86230836657, -49743.56141609686, -89518.46832257132, -32440.18196346545, 0.0, 0.0, 0.0, 193.0, 0.0, 1.0, 1.0, 0.0, 0.0, 1.0, 1.0, 256.0, 1.0, 1.750529864503938E9, 0.0, 2025-06-21 20:17:44.503
20.0, -44694.458805854185, -37977.200803423024, -30334.602932286612, -74324.55710465397, -27597.385954545254, -28675.63410706927, -53228.57835633497, -102225.01036226873, -187500.02235174447, -187500.02235174447, -49380.85965882059, -47677.92495225966, -77970.28308752574, -49768.7965355869, -89480.60446746403, -32464.299495732725, 0.0, 0.0, 0.0, 193.0, 0.0, 1.0, 1.0, 0.0, 0.0, 1.0, 1.0, 256.0, 1.0, 1.750529864513001E9, 0.0, 2025-06-21 20:17:44.513
22.0, -44688.89322148481, -37963.722701516475, -30324.544647281728, -74305.35695616687, -27620.676472267685, -28698.946976536154, -53230.031219724566, -102218.9306877769, -187500.02235174447, -187500.02235174447, -49360.07253647716, -47657.6519200387, -77954.39099721801, -49749.77520105543, -89471.86493538201, -32444.38409142305, 0.0, 0.0, 0.0, 193.0, 0.0, 1.0, 1.0, 0.0, 0.0, 1.0, 1.0, 256.0, 1.0, 1.750529864519939E9, 0.0, 2025-06-21 20:17:44.519
24.0, -44687.529765073035, -37965.35437886172, -30329.909065951, -74315.16937198275, -27603.51033252601, -28714.392031954772, -53215.59199280644, -102221.0764552446, -187500.02235174447, -187500.02235174447, -49375.092908751125, -47668.8501440108, -77970.19368054792, -49752.77033481245, -89527.05139244215, -32447.60274262461, 0.0, 0.0, 0.0, 193.0, 0.0, 1.0, 1.0, 0.0, 0.0, 1.0, 1.0, 256.0, 1.0, 1.750529864528E9, 0.0, 2025-06-21 20:17:44.528
26.0, -44707.02048623806, -37979.167756935094, -30340.637903289546, -74326.61346514386, -27605.276120337978, -28692.263804944017, -53254.88635955887, -102244.0316968002, -187500.02235174447, -187500.02235174447, -49384.99473154482, -47673.6557690687, -77969.67959042545, -49775.27854147894, -89459.30325499813, -32470.066245802194, 0.0, 0.0, 0.0, 193.0, 0.0, 1.0, 1.0, 0.0, 0.0, 1.0, 1.0, 256.0, 1.0, 1.750529864536991E9, 0.0, 2025-06-21 20:17:44.536
28.0, -44680.42191033625, -37955.474907812466, -30318.040289645232, -74294.56106359496, -27610.685242496165, -28719.01884305702, -53221.7610742761, -102211.35344640655, -187500.02235174447, -187500.02235174447, -49378.1550977415, -47664.15627767519, -77972.94294511592, -49746.713012065054, -89526.22437789732, -32442.998283266817, 0.0, 0.0, 0.0, 193.0, 0.0, 1.0, 1.0, 0.0, 0.0, 1.0, 1.0, 256.0, 1.0, 1.750529864544048E9, 0.0, 2025-06-21 20:17:44.544
30.0, -44704.315925158975, -37982.386408136656, -30341.19669690093, -74327.30636922197, -27622.352853101835, -28661.753673762523, -53223.39275162134, -102232.16292049443, -187500.02235174447, -187500.02235174447, -49371.33781568263, -47665.184457920135, -77958.32490424215, -49755.63135810273, -89477.29640928465, -32447.267466457783, 0.0, 0.0, 0.0, 193.0, 0.0, 1.0, 1.0, 0.0, 0.0, 1.0, 1.0, 256.0, 1.0, 1.750529864551981E9, 0.0, 2025-06-21 20:17:44.551
32.0, -44678.83493647992, -37955.832535723755, -30321.258940846797, -74302.36182240985, -27603.532684270467, -28723.466840203626, -53215.23436489515, -102209.43119638339, -187500.02235174447, -187500.02235174447, -49386.91698156798, -47678.1037662153, -77977.63681145154, -49773.73627111153, -89499.11171187303, -32466.7134841339, 0.0, 0.0, 0.0, 193.0, 0.0, 1.0, 1.0, 0.0, 0.0, 1.0, 1.0, 256.0, 1.0, 1.75052986456007E9, 0.0, 2025-06-21 20:17:44.560
34.0, -44700.27025941256, -37977.67019005659, -30342.090766679143, -74330.77088961254, -27621.123507156793, -28703.21615972712, -53226.47729235617, -102237.50498741925, -187500.02235174447, -187500.02235174447, -49367.42626040295, -47659.797687506405, -77960.35891298759, -49739.26988116144, -89506.91247068792, -32436.158649463494, 0.0, 0.0, 0.0, 193.0, 0.0, 1.0, 1.0, 0.0, 0.0, 1.0, 1.0, 256.0, 1.0, 1.750529864569149E9, 0.0, 2025-06-21 20:17:44.569
36.0, -44692.69301804221, -37973.46806209899, -30343.968313213387, -74328.73688086712, -27606.013727905003, -28708.29000571847, -53232.400504636826, -102239.11431302004, -187500.02235174447, -187500.02235174447, -49388.9062868245, -47686.32920817485, -77978.06149459619, -49786.87909685125, -89472.13315631547, -32480.124530807083, 0.0, 0.0, 0.0, 193.0, 0.0, 1.0, 1.0, 0.0, 0.0, 1.0, 1.0, 256.0, 1.0, 1.750529864575184E9, 0.0, 2025-06-21 20:17:44.575
38.0, -44675.23630562262, -37949.3058263428, -30328.143278139032, -74304.46288638865, -27608.762992473006, -28724.40561347075, -53215.77080676208, -102214.48269063029, -187500.02235174447, -187500.02235174447, -49379.04916751971, -47666.19028642062, -77975.22282305037, -49751.22806444503, -89526.91728197543, -32446.99924552432, 0.0, 0.0, 0.0, 193.0, 0.0, 1.0, 1.0, 0.0, 0.0, 1.0, 1.0, 256.0, 1.0, 1.750529864584147E9, 0.0, 2025-06-21 20:17:44.584
40.0, -44715.96118402018, -37994.1657774646, -30359.882755265568, -74353.68142767924, -27638.66962655421, -28704.601967883347, -53247.89026354436, -102247.1385892795, -187500.02235174447, -187500.02235174447, -49391.25321999231, -47682.61881859527, -77979.17908181895, -49776.88786707972, -89491.75798794723, -32473.37430398158, 0.0, 0.0, 0.0, 193.0, 0.0, 1.0, 1.0, 0.0, 0.0, 1.0, 1.0, 256.0, 1.0, 1.750529864592338E9, 0.0, 2025-06-21 20:17:44.592
42.0, -44688.714407529165, -37960.772271248374, -30333.977083441867, -74306.11691547834, -27630.958274717126, -28720.181133768696, -53235.17212094929, -102226.70909484733, -187500.02235174447, -187500.02235174447, -49383.31835071067, -47678.28258017094, -77980.14020683053, -49768.19303848661, -89490.1710140909, -32463.159556765506, 0.0, 0.0, 0.0, 193.0, 0.0, 1.0, 1.0, 0.0, 0.0, 1.0, 1.0, 256.0, 1.0, 1.750529864600243E9, 0.0, 2025-06-21 20:17:44.600
44.0, -44696.78338727753, -37988.80135879533, -30364.77778730128, -74339.6445321613, -27639.161364932224, -28718.21418025663, -53237.7649233061, -102240.20954849834, -187500.02235174447, -187500.02235174447, -49398.80810961821, -47672.33701614583, -77980.98957311983, -49756.9948145145, -89535.880331502, -32448.630922869557, 0.0, 0.0, 0.0, 193.0, 0.0, 1.0, 1.0, 0.0, 0.0, 1.0, 1.0, 256.0, 1.0, 1.750529864608292E9, 0.0, 2025-06-21 20:17:44.608
46.0, -44693.98941922062, -37972.953971976516, -30330.57961828466, -74317.62806387282, -27611.713422741108, -28671.7672552785, -53243.73283907567, -102243.2270339998, -187500.02235174447, -187500.02235174447, -49420.39989476203, -47701.28252521545, -77992.94775640342, -49786.47676545105, -89469.36154000301, -32481.51033896331, 0.0, 0.0, 0.0, 193.0, 0.0, 1.0, 1.0, 0.0, 0.0, 1.0, 1.0, 256.0, 1.0, 1.75052986461629E9, 0.0, 2025-06-21 20:17:44.616
48.0, -44689.54142207401, -37958.73826250294, -30323.47176354787, -74300.23840668659, -27636.81443176442, -28740.297703778473, -53226.1643679338, -102221.38937966697, -187500.02235174447, -187500.02235174447, -49357.52443760925, -47663.26220789697, -77971.06539858168, -49741.28153816242, -89517.03781092618, -32437.18682970844, 0.0, 0.0, 0.0, 193.0, 0.0, 1.0, 1.0, 0.0, 0.0, 1.0, 1.0, 256.0, 1.0, 1.750529864624389E9, 0.0, 2025-06-21 20:17:44.624
50.0, -44705.32175365946, -37982.85579477022, -30348.684531293457, -74328.8933430783, -27635.048643952447, -28689.939223520665, -53230.34414414694, -102236.11917926303, -187500.02235174447, -187500.02235174447, -49369.05793774819, -47668.82779226635, -77966.32682875716, -49758.335919181816, -89479.59863896354, -32449.301475203214, 0.0, 0.0, 0.0, 193.0, 0.0, 1.0, 1.0, 0.0, 0.0, 1.0, 1.0, 256.0, 1.0, 1.750529864631306E9, 0.0, 2025-06-21 20:17:44.631
52.0, -44706.17111994876, -37981.04530346934, -30343.05189169072, -74321.7407848526, -27641.217725422113, -28748.65725620476, -53263.55883640752, -102252.50300794876, -187500.02235174447, -187500.02235174447, -49384.77121410027, -47683.75875756249, -77984.76701793278, -49771.23287573253, -89493.14379610345, -32465.841766100144, 0.0, 0.0, 0.0, 193.0, 0.0, 1.0, 1.0, 0.0, 0.0, 1.0, 1.0, 256.0, 1.0, 1.750529864640399E9, 0.0, 2025-06-21 20:17:44.640
54.0, -44708.71921881667, -37987.43790238356, -30352.081996450663, -74334.68244489223, -27628.052547937936, -28732.675758919213, -53246.50445538813, -102249.95490908086, -187500.02235174447, -187500.02235174447, -49386.22407748987, -47684.02697849595, -77988.11977960108, -49763.67798610664, -89532.95225297836, -32457.95160030742, 0.0, 0.0, 0.0, 193.0, 0.0, 1.0, 1.0, 0.0, 0.0, 1.0, 1.0, 256.0, 1.0, 1.750529864648414E9, 0.0, 2025-06-21 20:17:44.648
56.0, -44697.945677989206, -37977.7148935455, -30351.210278416907, -74336.31412223747, -27639.876620754796, -28711.106325519842, -53241.832940796965, -102239.74016186479, -187500.02235174447, -187500.02235174447, -49387.8557548351, -47694.48759490104, -77986.44339876693, -49789.56130618588, -89475.97765636178, -32482.829091886175, 0.0, 0.0, 0.0, 193.0, 0.0, 1.0, 1.0, 0.0, 0.0, 1.0, 1.0, 256.0, 1.0, 1.750529864655434E9, 0.0, 2025-06-21 20:17:44.655
58.0, -44672.97877943263, -37946.7577274749, -30336.212257887397, -74305.17814221123, -27633.059338695926, -28728.6300931728, -53209.333504358954, -102220.16003372193, -187500.02235174447, -187500.02235174447, -49392.974304315365, -47681.50123137251, -77985.48227375535, -49762.96273028407, -89541.66943331592, -32456.699902617922, 0.0, 0.0, 0.0, 193.0, 0.0, 1.0, 1.0, 0.0, 0.0, 1.0, 1.0, 256.0, 1.0, 1.750529864663494E9, 0.0, 2025-06-21 20:17:44.663
60.0, -44691.106044185886, -37981.04530346934, -30360.508604110317, -74339.53277343903, -27623.17986764668, -28676.952859992132, -53249.030202511574, -102241.95298456585, -187500.02235174447, -187500.02235174447, -49408.79933938973, -47671.465298112074, -77966.01390433477, -49763.72268959555, -89484.56072623262, -32455.291742717236, 0.0, 0.0, 0.0, 193.0, 0.0, 1.0, 1.0, 0.0, 0.0, 1.0, 1.0, 256.0, 1.0, 1.750529864672478E9, 0.0, 2025-06-21 20:17:44.672
62.0, -44675.638637022814, -37954.37967233416, -30321.95184492491, -74302.74180206559, -27620.274140867492, -28733.502773464057, -53253.61231012492, -102242.44472294388, -187500.02235174447, -187500.02235174447, -49401.7585398863, -47686.17274596367, -77983.157692332, -49776.12790776824, -89496.9212409164, -32470.37917022457, 0.0, 0.0, 0.0, 193.0, 0.0, 1.0, 1.0, 0.0, 0.0, 1.0, 1.0, 256.0, 1.0, 1.75052986468048E9, 0.0, 2025-06-21 20:17:44.680
64.0, -44687.038026695016, -37960.2581811259, -30324.52229553727, -74310.43080215821, -27615.490867554054, -28706.814790584423, -53256.49568515965, -102256.57102543963, -187500.02235174447, -187500.02235174447, -49341.96762346836, -47645.76079198847, -77949.63007564904, -49736.65472706017, -89504.74435147576, -32431.5541901057, 0.0, 0.0, 0.0, 193.0, 0.0, 1.0, 1.0, 0.0, 0.0, 1.0, 1.0, 256.0, 1.0, 1.750529864687426E9, 0.0, 2025-06-21 20:17:44.687
66.0, -44684.48992782711, -37968.617733552186, -30347.835165004155, -74329.72035762315, -27633.014635207015, -28698.25407245804, -53232.601670336924, -102232.20762398334, -187500.02235174447, -187500.02235174447, -49392.2590484928, -47677.72378655956, -77969.50077646981, -49783.3028177384, -89470.09914757004, -32475.363609238102, 0.0, 0.0, 0.0, 193.0, 0.0, 1.0, 1.0, 0.0, 0.0, 1.0, 1.0, 256.0, 1.0, 1.750529864695512E9, 0.0, 2025-06-21 20:17:44.695
68.0, -44681.83007023693, -37953.932637445054, -30330.33374909565, -74312.30834869246, -27638.33435038738, -28743.672817191222, -53228.66776331279, -102223.93747853488, -187500.02235174447, -187500.02235174447, -49380.43497567594, -47679.42251913816, -77978.01679110728, -49757.620663359245, -89531.58879656659, -32451.983684537852, 0.0, 0.0, 0.0, 193.0, 0.0, 1.0, 1.0, 0.0, 0.0, 1.0, 1.0, 256.0, 1.0, 1.750529864704526E9, 0.0, 2025-06-21 20:17:44.704
70.0, -44689.58612556293, -37974.764463277395, -30364.666028579002, -74344.58426768593, -27635.22745790809, -28686.564110107913, -53254.774600836594, -102257.4874469623, -187500.02235174447, -187500.02235174447, -49375.29407445122, -47675.08628071383, -77968.47259622486, -49777.91604732467, -89495.60248799354, -32469.350989979626, 0.0, 0.0, 0.0, 193.0, 0.0, 1.0, 1.0, 0.0, 0.0, 1.0, 1.0, 256.0, 1.0, 1.750529864711555E9, 0.0, 2025-06-21 20:17:44.711
72.0, -44642.446296506685, -37938.71109947099, -30339.94499921143, -74310.05082250248, -27621.771707745997, -28708.334709207382, -53211.65808578231, -102227.71492334783, -187500.02235174447, -187500.02235174447, -49446.23851135236, -47691.51481288848, -77986.66691621148, -49783.86161134978, -89507.3818573215, -32478.269336017293, 0.0, 0.0, 0.0, 193.0, 0.0, 1.0, 1.0, 0.0, 0.0, 1.0, 1.0, 256.0, 1.0, 1.750529864719576E9, 0.0, 2025-06-21 20:17:44.719
74.0, -44682.72414001515, -37947.584742019746, -30331.205467129406, -74315.21407547165, -27624.61037929182, -28686.474703130094, -53230.74647554714, -102252.3912492265, -187500.02235174447, -187500.02235174447, -49369.974359270855, -47655.28263512643, -77954.43570070693, -49736.297099148884, -89508.14181663297, -32430.727175560856, 0.0, 0.0, 0.0, 193.0, 0.0, 1.0, 1.0, 0.0, 0.0, 1.0, 1.0, 256.0, 1.0, 1.750529864727596E9, 0.0, 2025-06-21 20:17:44.727
76.0, -44684.71344527167, -37977.73724528995, -30352.819604017688, -74336.51528793757, -27614.999129176038, -28699.416363169716, -53240.31302217401, -102263.09773482058, -187500.02235174447, -187500.02235174447, -49375.6069988736, -47691.604219866305, -77980.87781439755, -49794.9033731107, -89484.33720878807, -32489.981650111873, 0.0, 0.0, 0.0, 193.0, 0.0, 1.0, 1.0, 0.0, 0.0, 1.0, 1.0, 256.0, 1.0, 1.750529864736635E9, 0.0, 2025-06-21 20:17:44.736
78.0, -44648.97300588763, -37948.99290192043, -30346.471708592384, -74319.81853482945, -27635.42862360819, -28737.8837153773, -53222.78925452105, -102223.5798506236, -187500.02235174447, -187500.02235174447, -49424.78083667527, -47673.76752779097, -77976.8545003956, -49754.200846457585, -89524.65975578544, -32451.26842871528, 0.0, 0.0, 0.0, 193.0, 0.0, 1.0, 1.0, 0.0, 0.0, 1.0, 1.0, 256.0, 1.0, 1.750529864743594E9, 0.0, 2025-06-21 20:17:44.743
80.0, -44708.920384516765, -37960.61580903719, -30343.09659517963, -74333.58720941392, -27629.99714970555, -28677.310487903418, -53224.28682139955, -102249.82079861412, -187500.02235174447, -187500.02235174447, -49386.827574590156, -47688.76554832048, -77978.79910216322, -49777.73723336902, -89494.28373507068, -32470.893260347042, 0.0, 0.0, 0.0, 193.0, 0.0, 1.0, 1.0, 0.0, 0.0, 1.0, 1.0, 256.0, 1.0, 1.750529864751683E9, 0.0, 2025-06-21 20:17:44.751
82.0, -44708.09336997192, -37975.055035955316, -30351.90318249502, -74332.51432568007, -27638.66962655421, -28722.7292326366, -53233.518091859594, -102246.80331311266, -187500.02235174447, -187500.02235174447, -49371.76249882728, -47686.46331864158, -77983.157692332, -49779.65948339218, -89499.89402292896, -32474.93892609345, 0.0, 0.0, 0.0, 193.0, 0.0, 1.0, 1.0, 0.0, 0.0, 1.0, 1.0, 256.0, 1.0, 1.750529864760702E9, 0.0, 2025-06-21 20:17:44.760
84.0, -44682.634733037325, -37958.067710169285, -30346.181135914463, -74328.80393610048, -27611.55696052992, -28682.786665294967, -53229.91946100229, -102233.63813562848, -187500.02235174447, -187500.02235174447, -49372.96949302787, -47670.25830391149, -77969.81370089218, -49755.36313716926, -89524.6821075299, -32449.61439962559, 0.0, 0.0, 0.0, 193.0, 0.0, 1.0, 1.0, 0.0, 0.0, 1.0, 1.0, 256.0, 1.0, 1.750529864767724E9, 0.0, 2025-06-21 20:17:44.767
86.0, -44724.96893703567, -37998.122036233195, -30376.177176973484, -74359.82815740445, -27652.326542416402, -28694.946014278656, -53258.86497007191, -102264.08121157662, -187500.02235174447, -187500.02235174447, -49420.377543017574, -47719.45449345762, -78008.41516356649, -49820.98785889005, -89509.05823815565, -32513.96507191242, 0.0, 0.0, 0.0, 193.0, 0.0, 1.0, 1.0, 0.0, 0.0, 1.0, 1.0, 256.0, 1.0, 1.750529864775739E9, 0.0, 2025-06-21 20:17:44.775
88.0, -44736.43538194125, -38010.99664103945, -30347.58929581515, -74320.37732844082, -27635.13805093027, -28741.549401467968, -53234.45686512672, -102237.97437405282, -187500.02235174447, -187500.02235174447, -49396.86350785059, -47681.03184473894, -77987.58333773415, -49768.17068674215, -89537.35554663606, -32463.137205021052, 0.0, 0.0, 0.0, 193.0, 0.0, 1.0, 1.0, 0.0, 0.0, 1.0, 1.0, 256.0, 1.0, 1.750529864783764E9, 0.0, 2025-06-21 20:17:44.783
90.0, -44821.260252149135, -38097.58729905931, -30389.588223646668, -74370.95932614319, -27648.77261504801, -28668.05686569892, -53272.85716210093, -102274.87710414853, -187500.02235174447, -187500.02235174447, -49422.63506920756, -47706.19990899562, -78002.24608209683, -49800.17838480215, -89520.05529642764, -32491.300403034737, 0.0, 0.0, 0.0, 193.0, 0.0, 1.0, 1.0, 0.0, 0.0, 1.0, 1.0, 256.0, 1.0, 1.750529864792804E9, 0.0, 2025-06-21 20:17:44.792
92.0, -44866.96956956024, -38141.68729086963, -30385.83313057818, -74359.73875042662, -27644.03404522348, -28770.114930881853, -53288.99512159767, -102280.93442689591, -187500.02235174447, -187500.02235174447, -49447.49020904186, -47727.76934239499, -78027.74942252034, -49815.936364643145, -89542.49644786077, -32506.67840321999, 0.0, 0.0, 0.0, 193.0, 0.0, 1.0, 1.0, 0.0, 0.0, 1.0, 1.0, 256.0, 1.0, 1.750529864799772E9, 0.0, 2025-06-21 20:17:44.799
94.0, -44951.168590923386, -38225.55103606595, -30389.588223646668, -74362.42095976126, -27658.249754697055, -28715.44256394417, -53281.10495580494, -102276.12880183803, -187500.02235174447, -187500.02235174447, -49460.70009001495, -47728.35048775083, -78041.11576570461, -49801.58654470283, -89576.58285815512, -32491.099237334638, 0.0, 0.0, 0.0, 193.0, 0.0, 1.0, 1.0, 0.0, 0.0, 1.0, 1.0, 256.0, 1.0, 1.750529864807855E9, 0.0, 2025-06-21 20:17:44.807
96.0, -45044.88945542448, -38314.62273772034, -30422.691157184978, -74392.4617043092, -27649.71138831513, -28722.05868030294, -53277.841601114465, -102291.5962090011, -187500.02235174447, -187500.02235174447, -49482.828317025705, -47749.78581068347, -78056.6725798455, -49825.301745569916, -89516.07668591461, -32511.7746009558, 0.0, 0.0, 0.0, 193.0, 0.0, 1.0, 1.0, 0.0, 0.0, 1.0, 1.0, 256.0, 1.0, 1.750529864815906E9, 0.0, 2025-06-21 20:17:44.815
98.0, -45093.03511298122, -38353.22420039466, -30399.422991207004, -74370.78051218754, -27650.024312737503, -28764.526994768024, -53272.43247895628, -102276.19585707139, -187500.02235174447, -187500.02235174447, -49503.95071553597, -47763.532133523484, -78083.1817487695, -49816.919841399176, -89593.32431475214, -32504.420877030003, 0.0, 0.0, 0.0, 193.0, 0.0, 1.0, 1.0, 0.0, 0.0, 1.0, 1.0, 256.0, 1.0, 1.750529864823938E9, 0.0, 2025-06-21 20:17:44.823
100.0, -45149.54032296423, -38416.63609941436, -30426.35684327565, -74407.23620739415, -27648.437338881176, -28696.957671279633, -53268.610330654425, -102285.62829323152, -187500.02235174447, -187500.02235174447, -49505.962372536946, -47772.137555138775, -78083.4276179585, -49822.86540542429, -89537.35554663606, -32512.646318989555, 0.0, 0.0, 0.0, 193.0, 0.0, 1.0, 1.0, 0.0, 0.0, 1.0, 1.0, 256.0, 1.0, 1.750529864831944E9, 0.0, 2025-06-21 20:17:44.831
102.0, -45165.54417199423, -38416.1667127808, -30425.552180475257, -74397.89317821183, -27660.507280887043, -28736.989645599086, -53256.87566481539, -102254.15703703846, -187500.02235174447, -187500.02235174447, -49525.69896289098, -47797.39502637328, -78107.32163278123, -49834.734181730055, -89556.15336372297, -32523.263397605828, 0.0, 0.0, 0.0, 193.0, 0.0, 1.0, 1.0, 0.0, 0.0, 1.0, 1.0, 256.0, 1.0, 1.750529864839919E9, 0.0, 2025-06-21 20:17:44.839
104.0, -45170.05922437421, -38431.94704436625, -30425.239256052886, -74402.29647186953, -27633.3722631183, -28757.419140031237, -53268.140944020866, -102261.01902258623, -187500.02235174447, -187500.02235174447, -49517.764093609345, -47781.32412210991, -78100.95138561146, -49817.14335884373, -89586.48468094882, -32507.304252064736, 0.0, 0.0, 0.0, 193.0, 0.0, 1.0, 1.0, 0.0, 0.0, 1.0, 1.0, 256.0, 1.0, 1.750529864849013E9, 0.0, 2025-06-21 20:17:44.849
106.0, -45190.600477528635, -38458.99265515717, -30445.042901640285, -74420.84841976744, -27656.551022118452, -28720.8293343579, -53242.07880998598, -102263.83534238761, -187500.02235174447, -187500.02235174447, -49538.41710548605, -47807.095683466876, -78117.9387113975, -49864.12672568879, -89560.31078819165, -32549.414938618535, 0.0, 0.0, 0.0, 193.0, 0.0, 1.0, 1.0, 0.0, 0.0, 1.0, 1.0, 256.0, 1.0, 1.750529864855128E9, 0.0, 2025-06-21 20:17:44.855
108.0, -45176.89885817753, -38446.9227131513, -30418.846657138667, -74398.34021310094, -27662.76480707703, -28755.474538263625, -53249.320775189495, -102263.16479005394, -187500.02235174447, -187500.02235174447, -49525.02841055732, -47788.923715224715, -78113.40130727307, -49828.162768860195, -89590.66445716197, -32521.58701677168, 0.0, 0.0, 0.0, 193.0, 0.0, 1.0, 1.0, 0.0, 0.0, 1.0, 1.0, 256.0, 1.0, 1.750529864864078E9, 0.0, 2025-06-21 20:17:44.864
110.0, -45184.789023970254, -38455.50578302214, -30432.45886951195, -74413.33823363045, -27640.90480099974, -28720.561113424435, -53250.97480427919, -102279.05688036166, -187500.02235174447, -187500.02235174447, -49513.49491041838, -47782.911095966236, -78096.6822024205, -49836.544673030934, -89546.139782207, -32529.074851164205, 0.0, 0.0, 0.0, 193.0, 0.0, 1.0, 1.0, 0.0, 0.0, 1.0, 1.0, 256.0, 1.0, 1.750529864872079E9, 0.0, 2025-06-21 20:17:44.872
112.0, -45158.861000402096, -38425.08505881847, -30415.091564070175, -74390.65121300831, -27649.107891214837, -28738.867192133333, -53258.08265901598, -102269.89266513499, -187500.02235174447, -187500.02235174447, -49520.51335817735, -47790.28717163648, -78106.96400486995, -49845.15009464623, -89560.8919335475, -32537.032072190297, 0.0, 0.0, 0.0, 193.0, 0.0, 1.0, 1.0, 0.0, 0.0, 1.0, 1.0, 256.0, 1.0, 1.750529864880129E9, 0.0, 2025-06-21 20:17:44.880
114.0, -45146.209913040395, -38413.305689490524, -30418.48902922738, -74396.08268691096, -27631.204143906136, -28694.76720032301, -53244.26928094259, -102256.70513590636, -187500.02235174447, -187500.02235174447, -49495.50175613186, -47774.88681970678, -78090.04373431728, -49807.71092268359, -89570.72670110784, -32499.347031038647, 0.0, 0.0, 0.0, 193.0, 0.0, 1.0, 1.0, 0.0, 0.0, 1.0, 1.0, 256.0, 1.0, 1.750529864888152E9, 0.0, 2025-06-21 20:17:44.888
116.0, -45129.17788376545, -38398.08415151646, -30419.003119349854, -74402.87761722537, -27638.84844050985, -28756.949753397676, -53251.82417056849, -102262.47188597583, -187500.02235174447, -187500.02235174447, -49515.394808697085, -47800.05488396346, -78105.17586531352, -49834.734181730055, -89524.70445927435, -32524.090412150672, 0.0, 0.0, 0.0, 193.0, 0.0, 1.0, 1.0, 0.0, 0.0, 1.0, 1.0, 256.0, 1.0, 1.750529864896181E9, 0.0, 2025-06-21 20:17:44.896
118.0, -45117.01853478176, -38382.84026179794, -30419.383099005594, -74397.02146017808, -27651.834804038383, -28772.394808816294, -53259.602577638936, -102269.98207211282, -187500.02235174447, -187500.02235174447, -49511.70677086196, -47787.716721024124, -78108.59568221518, -49815.310515798395, -89578.21453550036, -32506.723106708898, 0.0, 0.0, 0.0, 193.0, 0.0, 1.0, 1.0, 0.0, 0.0, 1.0, 1.0, 256.0, 1.0, 1.750529864904167E9, 0.0, 2025-06-21 20:17:44.904
120.0, -45104.72507533134, -38380.73919781914, -30438.560895748247, -74425.13995470286, -27638.401405620745, -28729.25594201755, -53271.73957487817, -102282.70021470789, -187500.02235174447, -187500.02235174447, -49506.40940742605, -47787.49320357957, -78096.90571986506, -49833.57189101838, -89545.0892502176, -32523.576322028202, 0.0, 0.0, 0.0, 193.0, 0.0, 1.0, 1.0, 0.0, 0.0, 1.0, 1.0, 256.0, 1.0, 1.750529864911255E9, 0.0, 2025-06-21 20:17:44.911
122.0, -45058.85929570905, -38324.97159540315, -30412.655223924547, -74394.71923049918, -27651.544231360465, -28757.173270842228, -53240.31302217401, -102251.20660677036, -187500.02235174447, -187500.02235174447, -49514.16546275204, -47798.06557870693, -78106.09228683618, -49853.71081277261, -89567.55275339518, -32546.196287416973, 0.0, 0.0, 0.0, 193.0, 0.0, 1.0, 1.0, 0.0, 0.0, 1.0, 1.0, 256.0, 1.0, 1.750529864920306E9, 0.0, 2025-06-21 20:17:44.920
124.0, -45061.00506317676, -38335.52161878606, -30438.73970970389, -74422.30128315702, -27645.48690861308, -28737.369625254825, -53260.295481717054, -102285.56123799816, -187500.02235174447, -187500.02235174447, -49490.51731711833, -47776.07146216291, -78086.28864124879, -49827.894547926735, -89579.37682621203, -32521.81053421623, 0.0, 0.0, 0.0, 193.0, 0.0, 1.0, 1.0, 0.0, 0.0, 1.0, 1.0, 256.0, 1.0, 1.75052986492829E9, 0.0, 2025-06-21 20:17:44.928
126.0, -45042.36370830103, -38308.00662136157, -30427.78735492079, -74411.10305918493, -27633.059338695926, -28706.993604540065, -53271.605464411434, -102280.75561294027, -187500.02235174447, -187500.02235174447, -49510.74564585038, -47798.31144789594, -78101.33136526721, -49874.9226182607, -89554.63344510001, -32565.083511481706, 0.0, 0.0, 0.0, 193.0, 0.0, 1.0, 1.0, 0.0, 0.0, 1.0, 1.0, 256.0, 1.0, 1.750529864936279E9, 0.0, 2025-06-21 20:17:44.936
128.0, -45044.35301355756, -38313.57220573094, -30442.91948591703, -74427.15161170383, -27654.33819941738, -28773.713561739158, -53295.946514123265, -102286.81293568766, -187500.02235174447, -187500.02235174447, -49504.643619614086, -47789.86248849183, -78103.23126354591, -49849.39692609274, -89600.56627995566, -32544.29638913827, 0.0, 0.0, 0.0, 193.0, 0.0, 1.0, 1.0, 0.0, 0.0, 1.0, 1.0, 256.0, 1.0, 1.750529864943356E9, 0.0, 2025-06-21 20:17:44.943
130.0, -45032.461885507335, -38309.86181615136, -30438.382081792606, -74432.71719607321, -27650.85132728235, -28733.21220078614, -53261.16719975081, -102290.81389794516, -187500.02235174447, -187500.02235174447, -49513.852538329666, -47808.95087825667, -78110.71909793843, -49869.71466180261, -89577.07459653314, -32561.618991091134, 0.0, 0.0, 0.0, 193.0, 0.0, 1.0, 1.0, 0.0, 0.0, 1.0, 1.0, 256.0, 1.0, 1.750529864953359E9, 0.0, 2025-06-21 20:17:44.953
132.0, -45003.874004348996, -38272.60145814437, -30423.182895562997, -74407.39266960534, -27650.6278098378, -28737.414328743736, -53257.5238654046, -102272.95485412538, -187500.02235174447, -187500.02235174447, -49495.85938404315, -47793.97520947161, -78097.39745824307, -49843.49606555654, -89554.61109335556, -32535.355691356148, 0.0, 0.0, 0.0, 193.0, 0.0, 1.0, 1.0, 0.0, 0.0, 1.0, 1.0, 256.0, 1.0, 1.750529864959407E9, 0.0, 2025-06-21 20:17:44.959
134.0, -45001.95175432584, -38276.20008900167, -30423.339357774184, -74419.64142556685, -27635.115699185815, -28729.993549584575, -53263.89411257436, -102272.2843017917, -187500.02235174447, -187500.02235174447, -49492.01488399683, -47787.113223923836, -78095.8328361312, -49826.26287058149, -89579.66739888996, -32518.278958592295, 0.0, 0.0, 0.0, 193.0, 0.0, 1.0, 1.0, 0.0, 0.0, 1.0, 1.0, 256.0, 1.0, 1.750529864968429E9, 0.0, 2025-06-21 20:17:44.968
136.0, -45008.903146851444, -38279.776368114515, -30448.97680866442, -74438.12631823139, -27647.118585958313, -28718.59415991237, -53293.51017397764, -102296.98297941482, -187500.02235174447, -187500.02235174447, -49500.32973293421, -47796.813881017435, -78095.67637392001, -49865.93721698967, -89546.385651396, -32555.15933694355, 0.0, 0.0, 0.0, 193.0, 0.0, 1.0, 1.0, 0.0, 0.0, 1.0, 1.0, 256.0, 1.0, 1.750529864975466E9, 0.0, 2025-06-21 20:17:44.975
138.0, -44983.48921340576, -38254.80946955794, -30429.17316307702, -74418.50148659963, -27652.885336027783, -28773.8923756948, -53262.329490462485, -102289.98688340031, -187500.02235174447, -187500.02235174447, -49502.743721335384, -47792.477642593105, -78101.0407925893, -49859.79048726446, -89610.06577134917, -32552.722996797922, 0.0, 0.0, 0.0, 193.0, 0.0, 1.0, 1.0, 0.0, 0.0, 1.0, 1.0, 256.0, 1.0, 1.750529864983489E9, 0.0, 2025-06-21 20:17:44.983
140.0, -44970.726367321775, -38249.06507123292, -30424.144020574575, -74419.57437033349, -27613.680376253174, -28711.486305175582, -53268.49857193215, -102287.28232232122, -187500.02235174447, -187500.02235174447, -49486.49400311637, -47780.63121803179, -78081.03598130179, -49861.98095822107, -89561.9424655369, -32556.500441610868, 0.0, 0.0, 0.0, 193.0, 0.0, 1.0, 1.0, 0.0, 0.0, 1.0, 1.0, 256.0, 1.0, 1.750529864992553E9, 0.0, 2025-06-21 20:17:44.992
142.0, -44976.403710413426, -38249.445050888666, -30429.374328777118, -74412.9135504858, -27651.521879616008, -28760.12370111033, -53284.43536572879, -102287.55054325469, -187500.02235174447, -187500.02235174447, -49489.35502640665, -47778.68661626418, -78081.03598130179, -49855.72246977359, -89560.51195389175, -32552.25361016436, 0.0, 0.0, 0.0, 193.0, 0.0, 1.0, 1.0, 0.0, 0.0, 1.0, 1.0, 256.0, 1.0, 1.750529865000576E9, 0.0, 2025-06-21 20:17:45.000
144.0, -44980.11409999301, -38254.76476606903, -30434.35876779065, -74421.83189652346, -27657.065112240925, -28709.16172375223, -53291.342054765475, -102293.89843867999, -187500.02235174447, -187500.02235174447, -49493.9818375089, -47784.20749714464, -78093.6870686635, -49848.56991154789, -89600.87920437804, -32542.307083881748, 0.0, 0.0, 0.0, 193.0, 0.0, 1.0, 1.0, 0.0, 0.0, 1.0, 1.0, 256.0, 1.0, 1.750529865007768E9, 0.0, 2025-06-21 20:17:45.007
146.0, -44978.772995325686, -38243.8794665193, -30437.867991670133, -74420.37903313387, -27654.226440695104, -28745.55036372547, -53289.39745299786, -102306.95185744189, -187500.02235174447, -187500.02235174447, -49493.288933430784, -47787.29203787947, -78088.2779465053, -49866.98774897907, -89551.75007006527, -32556.54514509978, 0.0, 0.0, 0.0, 193.0, 0.0, 1.0, 1.0, 0.0, 0.0, 1.0, 1.0, 256.0, 1.0, 1.750529865015623E9, 0.0, 2025-06-21 20:17:45.015
148.0, -44963.55145735163, -38232.524780335996, -30420.74655541737, -74397.98258518966, -27645.41985337971, -28764.392884301295, -53306.094206105976, -102296.49124103681, -187500.02235174447, -187500.02235174447, -49488.63977058408, -47774.39508132876, -78089.0826093057, -49843.98780393456, -89608.9034806375, -32532.829944232697, 0.0, 0.0, 0.0, 193.0, 0.0, 1.0, 1.0, 0.0, 0.0, 1.0, 1.0, 256.0, 1.0, 1.750529865024661E9, 0.0, 2025-06-21 20:17:45.024
150.0, -44951.61562581249, -38231.98833846907, -30420.701851928457, -74412.08653594095, -27631.807641006428, -28697.49411314656, -53294.65011294486, -102300.60396201658, -187500.02235174447, -187500.02235174447, -49479.319093146216, -47773.12103189481, -78078.80080685626, -49846.982937691566, -89559.79669806919, -32533.58990354418, 0.0, 0.0, 0.0, 193.0, 0.0, 1.0, 1.0, 0.0, 0.0, 1.0, 1.0, 256.0, 1.0, 1.750529865031684E9, 0.0, 2025-06-21 20:17:45.031
152.0, -44954.163724680395, -38224.43344884318, -30437.55506724776, -74423.4635738687, -27641.75416728904, -28753.77580568502, -53294.78422341159, -102343.47460788186, -187500.02235174447, -187500.02235174447, -49496.865212543635, -47777.658436019236, -78082.04180980228, -49850.42510633768, -89560.78017482522, -32542.508249581846, 0.0, 0.0, 0.0, 193.0, 0.0, 1.0, 1.0, 0.0, 0.0, 1.0, 1.0, 256.0, 1.0, 1.750529865039841E9, 0.0, 2025-06-21 20:17:45.039
154.0, -44970.70401557732, -38231.407193113235, -30436.72805270291, -74422.63655932386, -27654.002923250548, -28721.54459018047, -53278.98154008169, -102261.01902258623, -187500.02235174447, -187500.02235174447, -49488.550363606264, -47779.40187208675, -78088.65792616105, -49844.70305975712, -89598.95695435489, -32535.310987867237, 0.0, 0.0, 0.0, 193.0, 0.0, 1.0, 1.0, 0.0, 0.0, 1.0, 1.0, 256.0, 1.0, 1.750529865047773E9, 0.0, 2025-06-21 20:17:45.047
156.0, -44977.38718716946, -38241.66664381822, -30452.016645910342, -74438.08161474248, -27654.025274995005, -28714.10145927685, -53311.41392128634, -102305.0966626521, -187500.02235174447, -187500.02235174447, -49491.72431131892, -47795.98686647259, -78092.72594365191, -49879.66118808522, -89565.89872430549, -32563.854165536664, 0.0, 0.0, 0.0, 193.0, 0.0, 1.0, 1.0, 0.0, 0.0, 1.0, 1.0, 256.0, 1.0, 1.750529865056827E9, 0.0, 2025-06-21 20:17:45.056
158.0, -44959.72930904976, -38218.64434702925, -30433.665863712537, -74413.27117839709, -27650.828975537894, -28764.01290464555, -53257.859141571425, -102282.65551121897, -187500.02235174447, -187500.02235174447, -49493.087767730685, -47788.4766803356, -78097.39745824307, -49848.74872550354, -89607.76354167027, -32539.20019140246, 0.0, 0.0, 0.0, 193.0, 0.0, 1.0, 1.0, 0.0, 0.0, 1.0, 1.0, 256.0, 1.0, 1.750529865063801E9, 0.0, 2025-06-21 20:17:45.063
160.0, -44961.13746895045, -38236.25752166004, -30442.40539579456, -74435.28764668557, -27637.395577120256, -28704.736078350077, -53296.080624589995, -102301.47568005034, -187500.02235174447, -187500.02235174447, -49504.7330265919, -47791.49416583707, -78093.75412389686, -49863.16560067721, -89571.35254995259, -32552.790052031287, 0.0, 0.0, 0.0, 193.0, 0.0, 1.0, 1.0, 0.0, 0.0, 1.0, 1.0, 256.0, 1.0, 1.750529865071837E9, 0.0, 2025-06-21 20:17:45.071
162.0, -44947.61466355499, -38217.59381503985, -30429.77666017731, -74410.92424522928, -27634.288684640967, -28755.519241752536, -53285.26238027363, -102294.41252880247, -187500.02235174447, -187500.02235174447, -49495.255886942854, -47789.59426755837, -78091.11661805114, -49859.835190753365, -89569.02796852923, -32550.756043285855, 0.0, 0.0, 0.0, 193.0, 0.0, 1.0, 1.0, 0.0, 0.0, 1.0, 1.0, 256.0, 1.0, 1.750529865079848E9, 0.0, 2025-06-21 20:17:45.079
164.0, -44949.15693392241, -38232.390669869266, -30432.749442189866, -74416.60158832093, -27652.013617994027, -28737.861363632845, -53280.94849359376, -102286.38825254301, -187500.02235174447, -187500.02235174447, -49484.66116007104, -47769.99178767107, -78081.39360921308, -49841.05972541091, -89597.90642236549, -32529.700700008954, 0.0, 0.0, 0.0, 193.0, 0.0, 1.0, 1.0, 0.0, 0.0, 1.0, 1.0, 256.0, 1.0, 1.750529865087889E9, 0.0, 2025-06-21 20:17:45.087
166.0, -44947.92758797736, -38229.21672215661, -30441.176049849517, -74430.70553907222, -27645.129280701793, -28714.615549399325, -53293.80074665556, -102315.35611335709, -187500.02235174447, -187500.02235174447, -49501.000285267866, -47791.44946234816, -78089.7755133838, -49873.469754871105, -89553.35939566606, -32561.954267257963, 0.0, 0.0, 0.0, 193.0, 0.0, 1.0, 1.0, 0.0, 0.0, 1.0, 1.0, 256.0, 1.0, 1.750529865095905E9, 0.0, 2025-06-21 20:17:45.095
168.0, -44965.09372771904, -38218.59964354034, -30439.07498587072, -74430.90670477232, -27655.075806984405, -28749.059587604952, -53305.28954330558, -102296.84886894809, -187500.02235174447, -187500.02235174447, -49480.32492164671, -47780.54181105397, -78089.99903082836, -49844.36778359029, -89592.98903858532, -32537.099127423662, 0.0, 0.0, 0.0, 193.0, 0.0, 1.0, 1.0, 0.0, 0.0, 1.0, 1.0, 256.0, 1.0, 1.750529865103946E9, 0.0, 2025-06-21 20:17:45.103
170.0, -44979.06356800361, -38248.55098111046, -30448.015683652844, -74442.50726014463, -27653.265315683522, -28709.005261541042, -53288.056348330545, -102306.10249115259, -187500.02235174447, -187500.02235174447, -49510.432721428006, -47804.97226774362, -78107.92512988152, -49880.24233344106, -89583.93658208092, -32567.475148138423, 0.0, 0.0, 0.0, 193.0, 0.0, 1.0, 1.0, 0.0, 0.0, 1.0, 1.0, 256.0, 1.0, 1.750529865112914E9, 0.0, 2025-06-21 20:17:45.112
172.0, -44970.726367321775, -38233.508257092035, -30444.79703245128, -74429.90087627183, -27649.42081563721, -28754.267544063037, -53294.73951992268, -102301.45332830588, -187500.02235174447, -187500.02235174447, -49497.3345991772, -47796.70212229516, -78101.2866617783, -49875.72728106109, -89584.56243092567, -32565.26232543735, 0.0, 0.0, 0.0, 193.0, 0.0, 1.0, 1.0, 0.0, 0.0, 1.0, 1.0, 256.0, 1.0, 1.750529865118969E9, 0.0, 2025-06-21 20:17:45.118
174.0, -44962.70209106232, -38229.3731843678, -30429.77666017731, -74424.60351283592, -27652.304190671945, -28732.45224147466, -53275.56172318003, -102286.41060428746, -187500.02235174447, -187500.02235174447, -49490.60672409615, -47785.23567738959, -78090.64723141756, -49855.38719360676, -89603.0026201013, -32547.7832612733, 0.0, 0.0, 0.0, 193.0, 0.0, 1.0, 1.0, 0.0, 0.0, 1.0, 1.0, 256.0, 1.0, 1.750529865127955E9, 0.0, 2025-06-21 20:17:45.127
176.0, -44986.50669890722, -38252.68605383469, -30460.957343692466, -74451.31384746001, -27658.18269946369, -28741.527049723514, -53291.74438616567, -102328.38718037453, -187500.02235174447, -187500.02235174447, -49496.105253232156, -47796.74682578407, -78093.6870686635, -49886.9255050332, -89566.54692489469, -32574.381837175115, 0.0, 0.0, 0.0, 193.0, 0.0, 1.0, 1.0, 0.0, 0.0, 1.0, 1.0, 256.0, 1.0, 1.750529865136073E9, 0.0, 2025-06-21 20:17:45.136
178.0, -44957.04709971513, -38228.14383842276, -30430.469564255425, -74420.24492266715, -27637.172059675704, -28751.562982983945, -53291.0291303431, -102296.22302010334, -187500.02235174447, -187500.02235174447, -49491.52314561882, -47794.04226470498, -78098.62680418811, -49863.23265591057, -89609.39521901551, -32560.099072468172, 0.0, 0.0, 0.0, 193.0, 0.0, 1.0, 1.0, 0.0, 0.0, 1.0, 1.0, 256.0, 1.0, 1.750529865144094E9, 0.0, 2025-06-21 20:17:45.144
180.0, -44959.50579160521, -38233.083573947384, -30444.17118360653, -74440.29443744355, -27637.753205031542, -28705.473685917103, -53287.40814774134, -102304.13553764053, -187500.02235174447, -187500.02235174447, -49484.10236645966, -47786.330912867896, -78084.36639122563, -49863.03149021047, -89561.89776204799, -32555.628723577112, 0.0, 0.0, 0.0, 193.0, 0.0, 1.0, 1.0, 0.0, 0.0, 1.0, 1.0, 256.0, 1.0, 1.750529865151135E9, 0.0, 2025-06-21 20:17:45.151
182.0, -44950.095707189525, -38215.13512314977, -30440.6843114715, -74429.40913789382, -27641.50829810003, -28739.515392722536, -53291.29735127656, -102297.2959038372, -187500.02235174447, -187500.02235174447, -49497.9827997664, -47798.71377929614, -78100.8396268892, -49873.71562406011, -89578.92979132292, -32567.87747953862, 0.0, 0.0, 0.0, 193.0, 0.0, 1.0, 1.0, 0.0, 0.0, 1.0, 1.0, 256.0, 1.0, 1.750529865160115E9, 0.0, 2025-06-21 20:17:45.160
184.0, -44948.32991937756, -38224.276986631994, -30441.824250438724, -74439.24390545415, -27643.38584463428, -28726.529029194004, -53281.328473249494, -102298.21232535987, -187500.02235174447, -187500.02235174447, -49482.13541294759, -47782.39700584376, -78087.51798719383, -49850.98389994907, -89593.68194266343, -32546.419804861525, 0.0, 0.0, 0.0, 193.0, 0.0, 1.0, 1.0, 0.0, 0.0, 1.0, 1.0, 256.0, 1.0, 1.750529865168141E9, 0.0, 2025-06-21 20:17:45.168
186.0, -44960.95865499481, -38233.66471930322, -30458.856279713666, -74451.09033001546, -27645.21868767961, -28711.910988320233, -53283.585999439485, -102319.8041105037, -187500.02235174447, -187500.02235174447, -49510.3880179391, -47811.78954980249, -78106.51696998083, -49899.84481332837, -89573.58772439811, -32591.88325308362, 0.0, 0.0, 0.0, 193.0, 0.0, 1.0, 1.0, 0.0, 0.0, 1.0, 1.0, 256.0, 1.0, 1.750529865175109E9, 0.0, 2025-06-21 20:17:45.175
188.0, -44929.15212263491, -38203.55691952192, -30421.372404262118, -74413.5170475861, -27631.450013095146, -28723.466840203626, -53278.15452553684, -102269.60209245708, -187500.02235174447, -187500.02235174447, -49493.17717470851, -47791.31535188143, -78096.97277509842, -49863.36676637731, -89610.91513763847, -32558.735616056398, 0.0, 0.0, 0.0, 193.0, 0.0, 1.0, 1.0, 0.0, 0.0, 1.0, 1.0, 256.0, 1.0, 1.750529865184205E9, 0.0, 2025-06-21 20:17:45.184
190.0, -44974.503812134724, -38249.08742297738, -30477.40822761157, -74469.10583604644, -27664.19531872217, -28720.583465168893, -53304.686046205294, -102317.41247384697, -187500.02235174447, -187500.02235174447, -49491.32197991872, -47781.88291572129, -78082.15356852455, -49866.5183623455, -89568.33506445111, -32557.707435811455, 0.0, 0.0, 0.0, 193.0, 0.0, 1.0, 1.0, 0.0, 0.0, 1.0, 1.0, 256.0, 1.0, 1.750529865192178E9, 0.0, 2025-06-21 20:17:45.192
192.0, -44950.43098335636, -38219.20314064064, -30445.02054989583, -74432.09134722846, -27642.04473996696, -28747.494965493082, -53286.55878145204, -102289.33868281111, -187500.02235174447, -187500.02235174447, -49514.344276707685, -47815.92462252672, -78117.31286255275, -49900.13538600629, -89612.36800102807, -32589.44691293799, 0.0, 0.0, 0.0, 193.0, 0.0, 1.0, 1.0, 0.0, 0.0, 1.0, 1.0, 256.0, 1.0, 1.750529865200276E9, 0.0, 2025-06-21 20:17:45.200
194.0, -44983.48921340576, -38257.93871378168, -30466.142948406097, -74464.81430111102, -27663.547118132963, -28731.468764718626, -53321.382799313404, -102330.28707865323, -187500.02235174447, -187500.02235174447, -49502.16257597954, -47802.53592759799, -78107.03106010331, -49874.788507793965, -89619.54291099822, -32566.558726615756, 0.0, 0.0, 0.0, 193.0, 0.0, 1.0, 1.0, 0.0, 0.0, 1.0, 1.0, 256.0, 1.0, 1.750529865207295E9, 0.0, 2025-06-21 20:17:45.207
196.0, -44974.23559120126, -38247.545152609964, -30464.64538152759, -74457.23705974067, -27655.34402791787, -28728.138354794784, -53313.06795037603, -102322.32985762715, -187500.02235174447, -187500.02235174447, -49510.11979700563, -47819.679715595215, -78112.68605145051, -49903.801072096954, -89576.85107908858, -32594.856035096174, 0.0, 0.0, 0.0, 193.0, 0.0, 1.0, 1.0, 0.0, 0.0, 1.0, 1.0, 256.0, 1.0, 1.75052986521632E9, 0.0, 2025-06-21 20:17:45.216
198.0, -44943.79251525313, -38217.39264933976, -30440.349035304673, -74423.0165389796, -27630.578295061387, -28730.954674596152, -53277.19340052526, -102291.9985404013, -187500.02235174447, -187500.02235174447, -49494.764148564835, -47793.103491437854, -78098.85032163266, -49866.3171966454, -89618.82765517566, -32557.081586966706, 0.0, 0.0, 0.0, 193.0, 0.0, 1.0, 1.0, 0.0, 0.0, 1.0, 1.0, 256.0, 1.0, 1.750529865224395E9, 0.0, 2025-06-21 20:17:45.224
200.0, -44975.57669586858, -38252.037853245485, -30477.162358422564, -74468.47998720169, -27667.52572864601, -28717.744793623067, -53307.56942124003, -102322.64278204952, -187500.02235174447, -187500.02235174447, -49509.89627956108, -47810.91783176873, -78106.96400486995, -49889.2277347121, -89598.35345725459, -32577.06404650975, 0.0, 0.0, 0.0, 193.0, 0.0, 1.0, 1.0, 0.0, 0.0, 1.0, 1.0, 256.0, 1.0, 1.750529865231367E9, 0.0, 2025-06-21 20:17:45.231
202.0, -44941.780858252154, -38216.36446909481, -30439.16439284854, -74424.13412620236, -27646.33627490238, -28743.27048579103, -53297.488784490684, -102304.94020044092, -187500.02235174447, -187500.02235174447, -49494.54063112028, -47797.305619395454, -78095.27404251981, -49873.62621708229, -89586.57408792664, -32563.36242715865, 0.0, 0.0, 0.0, 193.0, 0.0, 1.0, 1.0, 0.0, 0.0, 1.0, 1.0, 256.0, 1.0, 1.750529865239401E9, 0.0, 2025-06-21 20:17:45.239
204.0, -44972.60391385602, -38248.81920204392, -30458.11867214664, -74448.00578928064, -27668.173929235214, -28735.64854093177, -53299.522793236116, -102316.29488662421, -187500.02235174447, -187500.02235174447, -49500.910878290044, -47797.19386067318, -78102.3371937677, -49860.84101925386, -89610.49045449382, -32553.572363087223, 0.0, 0.0, 0.0, 193.0, 0.0, 1.0, 1.0, 0.0, 0.0, 1.0, 1.0, 256.0, 1.0, 1.750529865248408E9, 0.0, 2025-06-21 20:17:45.248
206.0, -44954.67781480287, -38233.642367558765, -30440.147869604574, -74433.05247224003, -27637.70850154263, -28731.222895529616, -53286.60348494095, -102303.88966845152, -187500.02235174447, -187500.02235174447, -49511.25973597285, -47812.30363992496, -78107.81337115925, -49881.717548575114, -89569.9890935408, -32570.425578406524, 0.0, 0.0, 0.0, 193.0, 0.0, 1.0, 1.0, 0.0, 0.0, 1.0, 1.0, 256.0, 1.0, 1.7505298652555E9, 0.0, 2025-06-21 20:17:45.255
208.0, -44953.06848920209, -38224.36639360981, -30431.40833752255, -74422.10011745694, -27635.85330675284, -28748.21022131565, -53283.0272058281, -102288.73518571082, -187500.02235174447, -187500.02235174447, -49495.70292183196, -47790.01895070302, -78095.184635542, -49843.85369346782, -89596.9452973539, -32538.86491523563, 0.0, 0.0, 0.0, 193.0, 0.0, 1.0, 1.0, 0.0, 0.0, 1.0, 1.0, 256.0, 1.0, 1.750529865263465E9, 0.0, 2025-06-21 20:17:45.263
210.0, -44963.03736722915, -38240.23613217308, -30454.65415175607, -74449.81628058151, -27656.059283740437, -28692.06263924392, -53303.38964502688, -102316.8983837245, -187500.02235174447, -187500.02235174447, -49497.53576487729, -47799.74195954108, -78092.77064714083, -49863.903208244235, -89569.83263132961, -32556.72395905542, 0.0, 0.0, 0.0, 193.0, 0.0, 1.0, 1.0, 0.0, 0.0, 1.0, 1.0, 256.0, 1.0, 1.750529865272486E9, 0.0, 2025-06-21 20:17:45.272
212.0, -44964.75845155221, -38240.705518806644, -30452.26251509935, -74432.62778909538, -27664.061208255436, -28745.148032325273, -53302.13794733739, -102313.61267728958, -187500.02235174447, -187500.02235174447, -49512.33261970671, -47809.196747445676, -78109.78032467132, -49876.330778161384, -89591.647933918, -32566.64813359358, 0.0, 0.0, 0.0, 193.0, 0.0, 1.0, 1.0, 0.0, 0.0, 1.0, 1.0, 256.0, 1.0, 1.750529865280496E9, 0.0, 2025-06-21 20:17:45.280
214.0, -44952.353233379516, -38233.03887045847, -30441.712491716447, -74428.80564079352, -27651.074844726903, -28730.17236354022, -53290.89501987637, -102309.9469911989, -187500.02235174447, -187500.02235174447, -49499.815642811736, -47788.45432859115, -78096.79396114279, -49850.20158889313, -89602.1979573009, -32542.307083881748, 0.0, 0.0, 0.0, 193.0, 0.0, 1.0, 1.0, 0.0, 0.0, 1.0, 1.0, 256.0, 1.0, 1.750529865287536E9, 0.0, 2025-06-21 20:17:45.287
216.0, -44961.83037302856, -38245.98053049809, -30447.903924930564, -74436.42758565278, -27641.55300158894, -28721.388127969283, -53320.51108127965, -102313.88089822304, -187500.02235174447, -187500.02235174447, -49495.01001775385, -47791.918848981724, -78090.87074886213, -49867.747708290546, -89551.14657296498, -32559.383816645604, 0.0, 0.0, 0.0, 193.0, 0.0, 1.0, 1.0, 0.0, 0.0, 1.0, 1.0, 256.0, 1.0, 1.750529865295533E9, 0.0, 2025-06-21 20:17:45.295
218.0, -44961.226875928274, -38244.90764676424, -30461.806709981767, -74447.98343753618, -27665.312905944935, -28754.915744652244, -53282.49076396117, -102307.66711326446, -187500.02235174447, -187500.02235174447, -49517.16059650906, -47810.1355207128, -78117.42462127503, -49872.083946714876, -89623.67798372245, -32565.485842881902, 0.0, 0.0, 0.0, 193.0, 0.0, 1.0, 1.0, 0.0, 0.0, 1.0, 1.0, 256.0, 1.0, 1.750529865304519E9, 0.0, 2025-06-21 20:17:45.304
220.0, -44996.43087344538, -38280.67043789273, -30482.258556158373, -74463.94258307727, -27671.861967070337, -28709.228778985595, -53273.5277144346, -102308.73999699832, -187500.02235174447, -187500.02235174447, -49520.58041341072, -47815.81286380444, -78114.87652240712, -49883.79626080945, -89592.54200369622, -32574.337133686204, 0.0, 0.0, 0.0, 193.0, 0.0, 1.0, 1.0, 0.0, 0.0, 1.0, 1.0, 256.0, 1.0, 1.750529865311585E9, 0.0, 2025-06-21 20:17:45.311
222.0, -44983.64567561694, -38256.776423070005, -30470.568593808246, -74454.73366436169, -27673.76186534904, -28755.943924897187, -53308.061159618046, -102317.43482559144, -187500.02235174447, -187500.02235174447, -49531.75628563837, -47820.372619673326, -78126.96881615744, -49889.04892075645, -89601.9520881119, -32579.76860758884, 0.0, 0.0, 0.0, 193.0, 0.0, 1.0, 1.0, 0.0, 0.0, 1.0, 1.0, 256.0, 1.0, 1.75052986531962E9, 0.0, 2025-06-21 20:17:45.319
224.0, -45008.81373987362, -38280.17869951471, -30481.588003824712, -74468.41293196833, -27678.679249129207, -28718.39299421227, -53305.9824473837, -102309.52230805425, -187500.02235174447, -187500.02235174447, -49537.92536710804, -47826.809922076456, -78135.9989209174, -49884.086833487374, -89630.09293438113, -32578.382799432613, 0.0, 0.0, 0.0, 193.0, 0.0, 1.0, 1.0, 0.0, 0.0, 1.0, 1.0, 256.0, 1.0, 1.750529865327684E9, 0.0, 2025-06-21 20:17:45.327
226.0, -44996.27441123419, -38271.52857441051, -30463.147814649084, -74449.39159743686, -27648.862022025827, -28719.890561090775, -53288.5257349641, -102298.92758118243, -187500.02235174447, -187500.02235174447, -49540.04878283129, -47829.872111066834, -78132.0426621488, -49901.2753249735, -89584.98711407032, -32591.391514705603, 0.0, 0.0, 0.0, 193.0, 0.0, 1.0, 1.0, 0.0, 0.0, 1.0, 1.0, 256.0, 1.0, 1.750529865336689E9, 0.0, 2025-06-21 20:17:45.336
228.0, -45004.61161191602, -38274.0319697895, -30473.69783803199, -74456.63356264039, -27688.826941111918, -28742.108195079352, -53305.15543283885, -102313.0985871671, -187500.02235174447, -187500.02235174447, -49526.88360534711, -47810.873128279825, -78123.79486844479, -49871.81572578141, -89623.99090814483, -32563.697703325477, 0.0, 0.0, 0.0, 193.0, 0.0, 1.0, 1.0, 0.0, 0.0, 1.0, 1.0, 256.0, 1.0, 1.75052986534371E9, 0.0, 2025-06-21 20:17:45.343
230.0, -45006.69032415037, -38283.486757694096, -30487.33240214973, -74476.10193206095, -27676.980516550604, -28693.8731305448, -53292.41493849933, -102320.92169772646, -187500.02235174447, -187500.02235174447, -49543.66976543305, -47828.6427651218, -78134.21078136096, -49910.730112878104, -89621.68867846593, -32595.16895951855, 0.0, 0.0, 0.0, 193.0, 0.0, 1.0, 1.0, 0.0, 0.0, 1.0, 1.0, 256.0, 1.0, 1.750529865351726E9, 0.0, 2025-06-21 20:17:45.351
232.0, -44979.62236161499, -38256.68701609218, -30453.31304708875, -74441.65789385533, -27643.251734167545, -28734.665064175733, -53306.34007529498, -102312.0480551777, -187500.02235174447, -187500.02235174447, -49518.52405292083, -47814.918794026235, -78117.04464161929, -49881.06934798591, -89586.73055013783, -32573.308953441257, 0.0, 0.0, 0.0, 193.0, 0.0, 1.0, 1.0, 0.0, 0.0, 1.0, 1.0, 256.0, 1.0, 1.75052986535976E9, 0.0, 2025-06-21 20:17:45.359
234.0, -45005.3715712275, -38284.62669666132, -30482.12444569164, -74465.10487378894, -27679.662725885242, -28764.147015112285, -53298.91929613582, -102310.08110166564, -187500.02235174447, -187500.02235174447, -49531.48806470491, -47818.204500461165, -78128.71225222496, -49879.50472587404, -89624.63910873403, -32571.34199992919, 0.0, 0.0, 0.0, 193.0, 0.0, 1.0, 1.0, 0.0, 0.0, 1.0, 1.0, 256.0, 1.0, 1.750529865367801E9, 0.0, 2025-06-21 20:17:45.367
236.0, -44990.06062627562, -38267.46055691964, -30459.92916344752, -74447.84932706945, -27679.014525296036, -28707.574749895903, -53293.62193269991, -102302.86148820657, -187500.02235174447, -187500.02235174447, -49529.69992514848, -47818.67388709472, -78123.0349091333, -49896.469699915615, -89581.00850355727, -32585.669468125045, 0.0, 0.0, 0.0, 193.0, 0.0, 1.0, 1.0, 0.0, 0.0, 1.0, 1.0, 256.0, 1.0, 1.750529865375821E9, 0.0, 2025-06-21 20:17:45.375
238.0, -45002.756417126235, -38277.67530413572, -30471.976753708932, -74458.6228678969, -27679.461560185144, -28747.53966898199, -53300.439214758786, -102308.18120338694, -187500.02235174447, -187500.02235174447, -49525.96718382445, -47815.29877368198, -78126.96881615744, -49875.77198455, -89627.16485585748, -32567.45279639397, 0.0, 0.0, 0.0, 193.0, 0.0, 1.0, 1.0, 0.0, 0.0, 1.0, 1.0, 256.0, 1.0, 1.750529865383861E9, 0.0, 2025-06-21 20:17:45.383
240.0, -45000.85651884753, -38278.14469076928, -30474.435445599014, -74466.20010926726, -27659.99319076457, -28693.761371822522, -53302.674389204316, -102315.28905812372, -187500.02235174447, -187500.02235174447, -49530.348125737684, -47822.85366330787, -78124.57717950073, -49897.18495573819, -89603.58376545714, -32587.323497214737, 0.0, 0.0, 0.0, 193.0, 0.0, 1.0, 1.0, 0.0, 0.0, 1.0, 1.0, 256.0, 1.0, 1.750529865392898E9, 0.0, 2025-06-21 20:17:45.392
242.0, -45002.689361892866, -38274.99309480108, -30480.537471835312, -74466.75890287863, -27662.27306869901, -28748.143166082285, -53310.38574104139, -102319.22296514786, -187500.02235174447, -187500.02235174447, -49548.76596316886, -47839.103381526875, -78144.44788032149, -49915.267517002525, -89624.86262617858, -32605.093134056704, 0.0, 0.0, 0.0, 193.0, 0.0, 1.0, 1.0, 0.0, 0.0, 1.0, 1.0, 256.0, 1.0, 1.750529865398882E9, 0.0, 2025-06-21 20:17:45.398
244.0, -45007.76320788422, -38292.1368827983, -30478.056428200776, -74476.43720822778, -27679.23804274059, -28730.5299914515, -53319.21468010124, -102329.41536061947, -187500.02235174447, -187500.02235174447, -49530.146960037586, -47821.55726212946, -78129.3381010697, -49888.154850978244, -89624.79557094522, -32582.540223901302, 0.0, 0.0, 0.0, 193.0, 0.0, 1.0, 1.0, 0.0, 0.0, 1.0, 1.0, 256.0, 1.0, 1.750529865407948E9, 0.0, 2025-06-21 20:17:45.407
246.0, -45006.735027639275, -38284.49258619459, -30474.346038621195, -74473.01739132612, -27680.24387124108, -28712.983872054087, -53304.328418294004, -102320.653476793, -187500.02235174447, -187500.02235174447, -49546.1955125565, -47844.981890318624, -78144.0455489213, -49926.51044446355, -89599.13576831053, -32619.107677830183, 0.0, 0.0, 0.0, 193.0, 0.0, 1.0, 1.0, 0.0, 0.0, 1.0, 1.0, 256.0, 1.0, 1.750529865415986E9, 0.0, 2025-06-21 20:17:45.415
248.0, -45006.109178794526, -38282.68209489371, -30477.676448545033, -74466.91536508982, -27685.407124210255, -28749.01488411604, -53308.77641544061, -102309.76817724326, -187500.02235174447, -187500.02235174447, -49523.68730589, -47821.914890040745, -78131.05918539276, -49886.21024921063, -89632.7527919713, -32579.723904099934, 0.0, 0.0, 0.0, 193.0, 0.0, 1.0, 1.0, 0.0, 0.0, 1.0, 1.0, 256.0, 1.0, 1.750529865424018E9, 0.0, 2025-06-21 20:17:45.424
250.0, -45024.81758890362, -38304.743266671096, -30499.536454622325, -74488.44009500029, -27679.707429374153, -28738.218991544127, -53343.71219202426, -102343.72047707088, -187500.02235174447, -187500.02235174447, -49556.633777217125, -47850.18984677671, -78153.38857810362, -49916.183938525195, -89618.53708249773, -32604.802561378787, 0.0, 0.0, 0.0, 193.0, 0.0, 1.0, 1.0, 0.0, 0.0, 1.0, 1.0, 256.0, 1.0, 1.750529865431026E9, 0.0, 2025-06-21 20:17:45.431
252.0, -45005.95271658334, -38279.75401637006, -30480.157492179573, -74459.27106848611, -27701.94741510718, -28765.64458199079, -53326.41194181585, -102326.64374430702, -187500.02235174447, -187500.02235174447, -49548.63185270213, -47837.04702103699, -78145.96779894446, -49903.801072096954, -89617.17362608596, -32590.92212807204, 0.0, 0.0, 0.0, 193.0, 0.0, 1.0, 1.0, 0.0, 0.0, 1.0, 1.0, 256.0, 1.0, 1.750529865440127E9, 0.0, 2025-06-21 20:17:45.440
254.0, -45014.04404807616, -38289.52172869703, -30489.61228008417, -74477.51009196164, -27690.61508066834, -28739.53774446699, -53330.055276162064, -102333.75159904381, -187500.02235174447, -187500.02235174447, -49542.932157866024, -47828.8886343108, -78142.50327855388, -49890.457080657136, -89644.01807117678, -32578.449854665978, 0.0, 0.0, 0.0, 193.0, 0.0, 1.0, 1.0, 0.0, 0.0, 1.0, 1.0, 256.0, 1.0, 1.750529865448107E9, 0.0, 2025-06-21 20:17:45.448
0.0, -45011.78652188618, -38291.44397872019, -30482.057390458274, -74475.43137972729, -27685.16125502125, -28722.617473914324, -53338.97362219973, -102347.47557013936, -187500.02235174447, -187500.02235174447, -49559.33833829622, -47857.23064628013, -78157.5012990834, -49930.95844161016, -89614.35730628458, -32618.772401663355, 0.0, 0.0, 0.0, 193.0, 0.0, 1.0, 1.0, 0.0, 0.0, 1.0, 1.0, 256.0, 1.0, 1.750529865455137E9, 0.0, 2025-06-21 20:17:45.455
2.0, -44981.32109419359, -38256.44114690318, -30455.70468374547, -74443.35662643393, -27658.98736226408, -28731.40170948526, -53292.817269899526, -102308.4941278093, -187500.02235174447, -187500.02235174447, -49515.19364299699, -47807.14038695579, -78118.31869105324, -49867.90417050173, -89613.88791965102, -32559.853203279163, 0.0, 0.0, 0.0, 193.0, 0.0, 1.0, 1.0, 0.0, 0.0, 1.0, 1.0, 256.0, 1.0, 1.750529865464158E9, 0.0, 2025-06-21 20:17:45.464
4.0, -45021.73304816879, -38304.63150794882, -30505.124390736153, -74494.11743809193, -27693.833731869905, -28718.661215145734, -53317.337133566994, -102336.09853221162, -187500.02235174447, -187500.02235174447, -49546.217864300954, -47844.02076530705, -78146.30307511128, -49915.22281351362, -89619.05117262021, -32604.288471256314, 0.0, 0.0, 0.0, 193.0, 0.0, 1.0, 1.0, 0.0, 0.0, 1.0, 1.0, 256.0, 1.0, 1.750529865473164E9, 0.0, 2025-06-21 20:17:45.473
6.0, -45002.331733981584, -38278.658780891754, -30471.797939753287, -74461.79681560956, -27696.225368526622, -28753.507584751558, -53315.34782831047, -102340.65828808049, -187500.02235174447, -187500.02235174447, -49540.7416869094, -47833.06841052394, -78140.08929015271, -49900.314199961926, -89608.61290795957, -32592.285584483816, 0.0, 0.0, 0.0, 193.0, 0.0, 1.0, 1.0, 0.0, 0.0, 1.0, 1.0, 256.0, 1.0, 1.750529865480214E9, 0.0, 2025-06-21 20:17:45.480
8.0, -44988.60776288602, -38264.957161540646, -30463.594849538193, -74453.95135330575, -27672.219594981623, -28718.325938978905, -53300.88624964789, -102317.18895640242, -187500.02235174447, -187500.02235174447, -49530.23636701541, -47821.22198596263, -78130.67920573702, -49880.86818228581, -89622.80626568869, -32574.62770636412, 0.0, 0.0, 0.0, 193.0, 0.0, 1.0, 1.0, 0.0, 0.0, 1.0, 1.0, 256.0, 1.0, 1.750529865487258E9, 0.0, 2025-06-21 20:17:45.487
10.0, -45024.214091803326, -38304.00565910407, -30507.203102970496, -74494.00567936966, -27699.4887232171, -28732.653407174756, -53316.443063788785, -102335.36092464458, -187500.02235174447, -187500.02235174447, -49560.23240807443, -47843.305509484475, -78150.68401702453, -49921.05661881645, -89605.1036840801, -32608.93763410302, 0.0, 0.0, 0.0, 193.0, 0.0, 1.0, 1.0, 0.0, 0.0, 1.0, 1.0, 256.0, 1.0, 1.750529865496254E9, 0.0, 2025-06-21 20:17:45.496
