%OpenBCI Raw EXG Data
%Number of channels = 16
%Sample Rate = 125 Hz
%Board = OpenBCI_GUI$BoardCytonSerialDaisy
Sample Index, EXG Channel 0, EXG Channel 1, EXG Channel 2, EXG Channel 3, EXG Channel 4, EXG Channel 5, EXG Channel 6, EXG Channel 7, EXG Channel 8, EXG Channel 9, EXG Channel 10, EXG Channel 11, EXG Channel 12, EXG Channel 13, EXG Channel 14, EXG Channel 15, Accel Channel 0, Accel Channel 1, Accel Channel 2, Not Used, Digital Channel 0 (D11), Digital Channel 1 (D12), Digital Channel 2 (D13), Digital Channel 3 (D17), Not Used, Digital Channel 4 (D18), Analog Channel 0, Analog Channel 1, Analog Channel 2, Timestamp, Marker Channel, Timestamp (Formatted)
198.0, -43497.92522167268, -38179.662904699195, -29494.959651823003, -71959.42961686011, -27675.997039794573, -27843.83628890947, -52310.48045283323, -99471.11898316372, -187500.02235174447, -187500.02235174447, -47408.31821063974, -46088.31359008713, -77933.67093010795, -48422.95329844395, -87641.79350635929, -31254.3772166225, 0.0, 0.0, 0.0, 193.0, 0.0, 1.0, 1.0, 0.0, 0.0, 1.0, 1.0, 256.0, 1.0, 1.750527914097922E9, 0.0, 2025-06-21 19:45:14.097
200.0, -43523.07093418491, -38206.37323932329, -29502.514541448898, -71976.90868102416, -27668.218632724125, -27826.379576489875, -52322.12571169445, -99489.7826897839, -187500.02235174447, -187500.02235174447, -47370.27554157681, -46048.43807797886, -77905.08304894961, -48395.930039397485, -87622.05691600525, -31226.70575698683, 0.0, 0.0, 0.0, 193.0, 0.0, 1.0, 1.0, 0.0, 0.0, 1.0, 1.0, 256.0, 1.0, 1.750527914098317E9, 0.0, 2025-06-21 19:45:14.098
0.0, -21732.377616450503, -19029.850546103782, -14640.079693803751, -35848.822992899775, -13652.356106323732, -14081.554303354538, -26057.663685996973, -49634.373144432684, -93750.01117587223, -93750.01117587223, -23705.231989053726, -23046.436672978005, -38963.40447228008, -24220.529105726375, -43805.99931550018, -15636.989848254902, 0.0, 0.0, 0.0, 193.0, 0.0, 1.0, 1.0, 0.0, 0.0, 1.0, 1.0, 256.0, 1.0, 1.750527914199957E9, 0.0, 2025-06-21 19:45:14.199
2.0, -43475.95345687312, -38071.8380894468, -29292.497550546832, -71707.36899463761, -27284.238014726405, -28199.34078447113, -52126.45854073269, -99277.17289652502, -187500.02235174447, -187500.02235174447, -47181.51505965174, -45845.39483134685, -77577.00414383461, -48144.115286363995, -87533.38754575104, -30898.40333442728, 0.0, 0.0, 0.0, 193.0, 0.0, 1.0, 1.0, 0.0, 0.0, 1.0, 1.0, 256.0, 1.0, 1.750527914207026E9, 0.0, 2025-06-21 19:45:14.207
4.0, -43472.06425333789, -38066.071339377326, -29284.22740509837, -71706.00553822584, -27312.69178541801, -28178.978345272346, -52145.68104096426, -99286.56062919625, -187500.02235174447, -187500.02235174447, -47216.361429257566, -45872.26162818213, -77598.66298421181, -48188.103519452045, -87544.71988018989, -30936.06602383447, 0.0, 0.0, 0.0, 193.0, 0.0, 1.0, 1.0, 0.0, 0.0, 1.0, 1.0, 256.0, 1.0, 1.750527914214034E9, 0.0, 2025-06-21 19:45:14.214
6.0, -43482.502517998524, -38075.41436855964, -29299.739515750352, -71713.67218657401, -27308.55671269378, -28207.365060730586, -52145.27870956406, -99284.45956521745, -187500.02235174447, -187500.02235174447, -47193.31678072415, -45857.97886347519, -77585.67662068327, -48162.019033672696, -87535.89094113004, -30914.25072124609, 0.0, 0.0, 0.0, 193.0, 0.0, 1.0, 1.0, 0.0, 0.0, 1.0, 1.0, 256.0, 1.0, 1.75052791422405E9, 0.0, 2025-06-21 19:45:14.224
8.0, -43487.41990177869, -38086.72435125403, -29300.611233784108, -71732.29118970528, -27318.03385234283, -28154.592592071607, -52153.213578845694, -99302.07273984823, -187500.02235174447, -187500.02235174447, -47213.36629550056, -45882.09639574247, -77604.45208602573, -48181.71092053782, -87555.26990357279, -30930.12045980936, 0.0, 0.0, 0.0, 193.0, 0.0, 1.0, 1.0, 0.0, 0.0, 1.0, 1.0, 256.0, 1.0, 1.750527914230055E9, 0.0, 2025-06-21 19:45:14.230
10.0, -43482.83779416535, -38081.96342968505, -29292.51990229129, -71711.81699178422, -27308.623767927143, -28191.182397744942, -52135.399238514816, -99295.74719616739, -187500.02235174447, -187500.02235174447, -47208.739484398306, -45877.1790119623, -77592.09157134195, -48185.77893802869, -87537.12028707509, -30931.863895876875, 0.0, 0.0, 0.0, 193.0, 0.0, 1.0, 1.0, 0.0, 0.0, 1.0, 1.0, 256.0, 1.0, 1.750527914238088E9, 0.0, 2025-06-21 19:45:14.238
12.0, -43466.23044803506, -38069.46880453453, -29280.80758819671, -71700.84228525666, -27290.20593049597, -28199.519598426774, -52117.763712139575, -99284.90660010655, -187500.02235174447, -187500.02235174447, -47196.82600460363, -45854.76021227363, -77587.28594628406, -48165.08122266307, -87549.14552559204, -30913.78133461253, 0.0, 0.0, 0.0, 193.0, 0.0, 1.0, 1.0, 0.0, 0.0, 1.0, 1.0, 256.0, 1.0, 1.750527914246125E9, 0.0, 2025-06-21 19:45:14.246
14.0, -43472.153660315715, -38069.15588011216, -29289.815341212197, -71716.28734067528, -27264.859052283653, -28195.362173958085, -52149.592596243936, -99300.12813808062, -187500.02235174447, -187500.02235174447, -47191.41688244545, -45853.21794190621, -77572.82436762148, -48176.86059199102, -87526.97259509237, -30924.085488806428, 0.0, 0.0, 0.0, 193.0, 0.0, 1.0, 1.0, 0.0, 0.0, 1.0, 1.0, 256.0, 1.0, 1.750527914255204E9, 0.0, 2025-06-21 19:45:14.255
16.0, -43472.712453927095, -38068.95471441206, -29292.832826713664, -71713.35926215163, -27321.94540762251, -28179.805359817194, -52130.638316945835, -99286.51592570734, -187500.02235174447, -187500.02235174447, -47200.58109767212, -45863.74561354466, -77589.85639689642, -48173.708996022826, -87544.9657493789, -30926.521828952056, 0.0, 0.0, 0.0, 193.0, 0.0, 1.0, 1.0, 0.0, 0.0, 1.0, 1.0, 256.0, 1.0, 1.750527914262205E9, 0.0, 2025-06-21 19:45:14.262
18.0, -43461.89420961073, -38060.37164454122, -29270.011695624795, -71709.4253551275, -27286.182616494014, -28155.352551383086, -52142.171817084774, -99282.3361494942, -187500.02235174447, -187500.02235174447, -47181.91739105194, -45854.737860529174, -77576.57946068996, -48160.85674296102, -87529.49834221583, -30914.63070090183, 0.0, 0.0, 0.0, 193.0, 0.0, 1.0, 1.0, 0.0, 0.0, 1.0, 1.0, 256.0, 1.0, 1.750527914270211E9, 0.0, 2025-06-21 19:45:14.270
20.0, -43493.834852437365, -38093.65339203518, -29309.775449010784, -71736.56037289625, -27314.36816625216, -28209.68964215394, -52149.10085786592, -99291.1874402985, -187500.02235174447, -187500.02235174447, -47207.57719368663, -45882.58813412048, -77596.49486499964, -48191.61274333153, -87539.7577929208, -30944.02324486056, 0.0, 0.0, 0.0, 193.0, 0.0, 1.0, 1.0, 0.0, 0.0, 1.0, 1.0, 256.0, 1.0, 1.750527914279263E9, 0.0, 2025-06-21 19:45:14.279
22.0, -43491.01853263599, -38093.742799012995, -29309.976614710882, -71726.23386695789, -27320.045509343807, -28201.553607172205, -52144.78697118604, -99294.1378705666, -187500.02235174447, -187500.02235174447, -47221.52468222674, -45889.22660222371, -77617.19258036526, -48182.0238449602, -87570.40203456904, -30934.143773811316, 0.0, 0.0, 0.0, 193.0, 0.0, 1.0, 1.0, 0.0, 0.0, 1.0, 1.0, 256.0, 1.0, 1.750527914286267E9, 0.0, 2025-06-21 19:45:14.286
24.0, -43483.64245696574, -38084.176252386125, -29302.242911129346, -71722.81405005623, -27290.25063398488, -28182.241699962822, -52149.167913099285, -99307.25834456187, -187500.02235174447, -187500.02235174447, -47218.08251358062, -45886.14206148888, -77602.8651121694, -48189.53403109718, -87540.49540048784, -30935.93191336774, 0.0, 0.0, 0.0, 193.0, 0.0, 1.0, 1.0, 0.0, 0.0, 1.0, 1.0, 256.0, 1.0, 1.750527914294294E9, 0.0, 2025-06-21 19:45:14.294
26.0, -43461.93891309964, -38058.47174626252, -29270.03404736925, -71686.62657578308, -27299.30309048928, -28195.138656513533, -52102.2963049765, -99267.8298673427, -187500.02235174447, -187500.02235174447, -47196.781301114715, -45852.703851783735, -77582.2121002927, -48163.44954531784, -87534.99687135183, -30911.41204970027, 0.0, 0.0, 0.0, 193.0, 0.0, 1.0, 1.0, 0.0, 0.0, 1.0, 1.0, 256.0, 1.0, 1.75052791430234E9, 0.0, 2025-06-21 19:45:14.302
28.0, -43488.96217214611, -38092.11112166776, -29306.489742575854, -71738.50497466385, -27311.328329006235, -28152.782100770724, -52161.17079987178, -99309.98525738542, -187500.02235174447, -187500.02235174447, -47198.12240578204, -45862.69508155526, -77586.0118968501, -48173.8207547451, -87547.55855173571, -30919.257512004082, 0.0, 0.0, 0.0, 193.0, 0.0, 1.0, 1.0, 0.0, 0.0, 1.0, 1.0, 256.0, 1.0, 1.750527914310373E9, 0.0, 2025-06-21 19:45:14.310
30.0, -43487.30814305641, -38081.15876688466, -29297.325527349178, -71716.13087846409, -27323.264160545372, -28218.49622946933, -52149.05615437701, -99285.5324489513, -187500.02235174447, -187500.02235174447, -47195.4401964474, -45865.39964263435, -77578.68052466876, -48167.94224595335, -87519.93179558896, -30915.368308468856, 0.0, 0.0, 0.0, 193.0, 0.0, 1.0, 1.0, 0.0, 0.0, 1.0, 1.0, 256.0, 1.0, 1.750527914317414E9, 0.0, 2025-06-21 19:45:14.317
32.0, -43498.998105406536, -38088.91482221065, -29310.60246355563, -71727.26204720284, -27328.11448909217, -28207.76739213078, -52145.725744453164, -99299.36817876915, -187500.02235174447, -187500.02235174447, -47224.78803691722, -45882.45402365375, -77618.4219263103, -48175.74300476826, -87566.78105196728, -30926.83475337443, 0.0, 0.0, 0.0, 193.0, 0.0, 1.0, 1.0, 0.0, 0.0, 1.0, 1.0, 256.0, 1.0, 1.750527914326399E9, 0.0, 2025-06-21 19:45:14.326
34.0, -43517.75121900454, -38108.718467798055, -29328.66267307552, -71747.84800384617, -27334.909419406584, -28198.066735037177, -52156.83456144745, -99306.18546082801, -187500.02235174447, -187500.02235174447, -47232.25351956529, -45892.26643946963, -77617.63961525436, -48186.94122874037, -87547.62560696907, -30932.288579021526, 0.0, 0.0, 0.0, 193.0, 0.0, 1.0, 1.0, 0.0, 0.0, 1.0, 1.0, 256.0, 1.0, 1.750527914334466E9, 0.0, 2025-06-21 19:45:14.334
36.0, -43500.74154147405, -38093.65339203518, -29315.609254313622, -71726.70325359145, -27309.20491328298, -28204.571092673672, -52141.61302347339, -99287.76762339684, -187500.02235174447, -187500.02235174447, -47246.33511857213, -45904.20227100876, -77635.67747302979, -48188.997589230254, -87571.02788341379, -30937.31772152397, 0.0, 0.0, 0.0, 193.0, 0.0, 1.0, 1.0, 0.0, 0.0, 1.0, 1.0, 256.0, 1.0, 1.750527914341502E9, 0.0, 2025-06-21 19:45:14.341
38.0, -43477.339265029346, -38081.47169130704, -29285.52380627678, -71718.65662558754, -27295.41388695406, -28171.825787046648, -52152.587730000945, -99293.46731823294, -187500.02235174447, -187500.02235174447, -47203.91150759596, -45872.88747702688, -77596.91954814429, -48166.690548263854, -87542.2164848109, -30914.384831712825, 0.0, 0.0, 0.0, 193.0, 0.0, 1.0, 1.0, 0.0, 0.0, 1.0, 1.0, 256.0, 1.0, 1.750527914350525E9, 0.0, 2025-06-21 19:45:14.350
40.0, -43471.036073092946, -38073.38035981421, -29285.99319291034, -71714.83447728568, -27312.982358095927, -28177.681944093936, -52144.38463978584, -99285.7783181403, -187500.02235174447, -187500.02235174447, -47198.81530986015, -45873.84860203846, -77583.2179287932, -48184.817813017115, -87536.98617660835, -30931.036881332027, 0.0, 0.0, 0.0, 193.0, 0.0, 1.0, 1.0, 0.0, 0.0, 1.0, 1.0, 256.0, 1.0, 1.750527914358602E9, 0.0, 2025-06-21 19:45:14.358
42.0, -43482.34605578733, -38080.599973273274, -29297.571396538187, -71720.08713723268, -27306.433296970525, -28223.100688827122, -52149.90552066631, -99292.01445484335, -187500.02235174447, -187500.02235174447, -47193.87557433553, -45858.224732664195, -77583.79907414902, -48166.847010475045, -87550.30781630371, -30916.329433480434, 0.0, 0.0, 0.0, 193.0, 0.0, 1.0, 1.0, 0.0, 0.0, 1.0, 1.0, 256.0, 1.0, 1.750527914366586E9, 0.0, 2025-06-21 19:45:14.366
44.0, -43508.76581773351, -38099.68836303811, -29327.455678874932, -71749.68084689151, -27334.820012428765, -28171.177586457445, -52152.83359918995, -99320.91526042405, -187500.02235174447, -187500.02235174447, -47217.747237413794, -45880.55412537505, -77597.09836209993, -48193.333827654584, -87549.5702087367, -30936.088375578925, 0.0, 0.0, 0.0, 193.0, 0.0, 1.0, 1.0, 0.0, 0.0, 1.0, 1.0, 256.0, 1.0, 1.750527914373581E9, 0.0, 2025-06-21 19:45:14.373
46.0, -43483.64245696574, -38073.5368220254, -29290.575300523677, -71708.39717488256, -27333.858887417187, -28225.91700862849, -52146.99979388712, -99293.06498683275, -187500.02235174447, -187500.02235174447, -47227.8502259076, -45892.624067380915, -77616.29851058705, -48193.49028986577, -87571.87724970309, -30939.821116902964, 0.0, 0.0, 0.0, 193.0, 0.0, 1.0, 1.0, 0.0, 0.0, 1.0, 1.0, 256.0, 1.0, 1.750527914382583E9, 0.0, 2025-06-21 19:45:14.382
48.0, -43503.87078569779, -38095.843862991795, -29318.537332837266, -71737.8791258191, -27336.56344849628, -28212.885941611046, -52166.17759062977, -99300.61987645864, -187500.02235174447, -187500.02235174447, -47207.71130415336, -45869.26649442512, -77598.03713536706, -48170.57975179908, -87551.76067969331, -30916.217674758158, 0.0, 0.0, 0.0, 193.0, 0.0, 1.0, 1.0, 0.0, 0.0, 1.0, 1.0, 256.0, 1.0, 1.750527914390623E9, 0.0, 2025-06-21 19:45:14.390
50.0, -43500.18274786267, -38079.79531047289, -29334.362367911624, -71752.25129750387, -27350.421530058567, -28205.15223802951, -52171.251436621125, -99329.56538552826, -187500.02235174447, -187500.02235174447, -47240.613071991575, -45895.641552882385, -77622.0205571676, -48213.38334243099, -87576.34759859415, -30957.07666362246, 0.0, 0.0, 0.0, 193.0, 0.0, 1.0, 1.0, 0.0, 0.0, 1.0, 1.0, 256.0, 1.0, 1.750527914397638E9, 0.0, 2025-06-21 19:45:14.397
52.0, -43474.388834761245, -38073.335656325304, -29296.23029187087, -71716.22028544192, -27285.288546715805, -28181.928775540448, -52136.49447399312, -99290.80746064275, -187500.02235174447, -187500.02235174447, -47226.48676949582, -45889.405416179354, -77622.15466763433, -48194.13849045497, -87575.87821196059, -30946.727805939652, 0.0, 0.0, 0.0, 193.0, 0.0, 1.0, 1.0, 0.0, 0.0, 1.0, 1.0, 256.0, 1.0, 1.750527914405607E9, 0.0, 2025-06-21 19:45:14.405
54.0, -43514.107884658326, -38116.54157835741, -29316.257454902825, -71746.59630615667, -27336.652855474098, -28231.750813931325, -52167.406936574815, -99321.45170229099, -187500.02235174447, -187500.02235174447, -47211.06406582166, -45877.380177662395, -77593.14210333134, -48189.80225203065, -87542.59646446664, -30934.83667788943, 0.0, 0.0, 0.0, 193.0, 0.0, 1.0, 1.0, 0.0, 0.0, 1.0, 1.0, 256.0, 1.0, 1.750527914414677E9, 0.0, 2025-06-21 19:45:14.414
56.0, -43468.15269805821, -38075.14614762618, -29272.11275960359, -71693.80148575324, -27304.30988124727, -28219.30089226972, -52118.41191272878, -99273.61896915663, -187500.02235174447, -187500.02235174447, -47204.35854248507, -45873.69213982727, -77591.91275738631, -48175.83241174608, -87547.98323488036, -30925.02426207355, 0.0, 0.0, 0.0, 193.0, 0.0, 1.0, 1.0, 0.0, 0.0, 1.0, 1.0, 256.0, 1.0, 1.750527914421669E9, 0.0, 2025-06-21 19:45:14.421
58.0, -43483.93302964366, -38093.608688546265, -29289.480065045365, -71717.15905870903, -27279.477093157424, -28197.91027282599, -52145.54693049752, -99291.4333094875, -187500.02235174447, -187500.02235174447, -47182.23031547431, -45852.65914829483, -77572.22087052118, -48149.32324282208, -87522.90457760151, -30895.028221014527, 0.0, 0.0, 0.0, 193.0, 0.0, 1.0, 1.0, 0.0, 0.0, 1.0, 1.0, 256.0, 1.0, 1.75052791442975E9, 0.0, 2025-06-21 19:45:14.429
60.0, -43490.392683791244, -38096.603822303274, -29308.233178643368, -71731.66534086053, -27303.415811469058, -28168.42832188944, -52138.819055416476, -99288.16995479703, -187500.02235174447, -187500.02235174447, -47218.08251358062, -45887.21494522273, -77602.2169115802, -48190.85278402004, -87549.10082210312, -30932.6015034439, 0.0, 0.0, 0.0, 193.0, 0.0, 1.0, 1.0, 0.0, 0.0, 1.0, 1.0, 256.0, 1.0, 1.750527914437782E9, 0.0, 2025-06-21 19:45:14.437
62.0, -43460.08371830985, -38073.894449936684, -29275.309059060703, -71705.08911670317, -27277.621898367634, -28242.412596036505, -52128.49254947812, -99269.64035864358, -187500.02235174447, -187500.02235174447, -47183.638475374995, -45870.60759909244, -77589.02938235157, -48153.346556824035, -87538.19317080894, -30904.14773275229, 0.0, 0.0, 0.0, 193.0, 0.0, 1.0, 1.0, 0.0, 0.0, 1.0, 1.0, 256.0, 1.0, 1.750527914446753E9, 0.0, 2025-06-21 19:45:14.446
64.0, -43480.80378541992, -38090.36768560025, -29293.168102880492, -71723.03756750078, -27300.957119578972, -28237.338750045154, -52147.51388400959, -99293.31085602175, -187500.02235174447, -187500.02235174447, -47184.9348765534, -45867.74657580216, -77581.45214098122, -48172.03261518868, -87527.91136835949, -30916.97763406964, 0.0, 0.0, 0.0, 193.0, 0.0, 1.0, 1.0, 0.0, 0.0, 1.0, 1.0, 256.0, 1.0, 1.750527914453792E9, 0.0, 2025-06-21 19:45:14.453
66.0, -43495.51123327151, -38098.660182793166, -29315.966882224904, -71731.44182341598, -27324.918189635064, -28230.096784841633, -52138.48377924965, -99294.27198103334, -187500.02235174447, -187500.02235174447, -47205.7443506413, -45882.65518935385, -77604.60854823692, -48182.2697141492, -87559.11440361911, -30928.913465608774, 0.0, 0.0, 0.0, 193.0, 0.0, 1.0, 1.0, 0.0, 0.0, 1.0, 1.0, 256.0, 1.0, 1.75052791446188E9, 0.0, 2025-06-21 19:45:14.461
68.0, -43466.99040734654, -38076.82252846033, -29282.394562053036, -71712.64400632906, -27273.553880876767, -28193.328165212653, -52128.49254947812, -99282.51496344984, -187500.02235174447, -187500.02235174447, -47197.63066740402, -45879.481241641195, -77594.52791148757, -48179.74396702576, -87558.44385128544, -30922.811439372475, 0.0, 0.0, 0.0, 193.0, 0.0, 1.0, 1.0, 0.0, 0.0, 1.0, 1.0, 256.0, 1.0, 1.750527914470876E9, 0.0, 2025-06-21 19:45:14.470
70.0, -43463.07885206686, -38073.11213888075, -29275.08554161615, -71707.19018068197, -27285.377953693624, -28193.954014057403, -52136.33801178193, -99282.87259136113, -187500.02235174447, -187500.02235174447, -47184.71135910885, -45862.51626759962, -77571.75148388762, -48172.859629733524, -87519.32829848866, -30918.58695967042, 0.0, 0.0, 0.0, 193.0, 0.0, 1.0, 1.0, 0.0, 0.0, 1.0, 1.0, 256.0, 1.0, 1.750527914477865E9, 0.0, 2025-06-21 19:45:14.477
72.0, -43475.19349756164, -38091.4405693341, -29295.582091281667, -71733.20761122795, -27320.000805854896, -28222.49719172683, -52145.01048863059, -99301.64805670358, -187500.02235174447, -187500.02235174447, -47181.98444628531, -45864.01383447812, -77581.25097528112, -48167.271693619696, -87547.64795871353, -30919.03399455953, 0.0, 0.0, 0.0, 193.0, 0.0, 1.0, 1.0, 0.0, 0.0, 1.0, 1.0, 256.0, 1.0, 1.750527914485934E9, 0.0, 2025-06-21 19:45:14.485
74.0, -43486.39172153374, -38102.3929241172, -29303.315794863203, -71747.66918989053, -27301.046526556795, -28228.487459240852, -52199.504041612636, -99344.40694384658, -187500.02235174447, -187500.02235174447, -47209.790016387706, -45899.91073607335, -77604.92147265929, -48207.10250223905, -87547.60325522462, -30958.618933989877, 0.0, 0.0, 0.0, 193.0, 0.0, 1.0, 1.0, 0.0, 0.0, 1.0, 1.0, 256.0, 1.0, 1.750527914493974E9, 0.0, 2025-06-21 19:45:14.493
76.0, -43463.72705265606, -38073.38035981421, -29292.162274380004, -71720.40006165506, -27286.048506027284, -28234.231857565865, -52170.17855288727, -99323.91039418106, -187500.02235174447, -187500.02235174447, -47202.99508607329, -45885.89619229987, -77603.2674435696, -48185.018978717206, -87548.9667116364, -30938.211791302183, 0.0, 0.0, 0.0, 193.0, 0.0, 1.0, 1.0, 0.0, 0.0, 1.0, 1.0, 256.0, 1.0, 1.750527914503044E9, 0.0, 2025-06-21 19:45:14.503
78.0, -43464.688177667646, -38078.96829592804, -29285.613213254597, -71726.0774047467, -27296.799695110287, -28226.09582258413, -52164.34474758444, -99317.60720224468, -187500.02235174447, -187500.02235174447, -47185.739539353795, -45873.26745668262, -77591.64453645283, -48173.843106489556, -87542.8646854001, -30924.286654506526, 0.0, 0.0, 0.0, 193.0, 0.0, 1.0, 1.0, 0.0, 0.0, 1.0, 1.0, 256.0, 1.0, 1.750527914510033E9, 0.0, 2025-06-21 19:45:14.510
80.0, -43472.10895682681, -38076.57665927132, -29285.99319291034, -71720.91415177753, -27296.240901498903, -28221.82663939317, -52157.23689284765, -99313.13685335362, -187500.02235174447, -187500.02235174447, -47192.71328362385, -45880.28590444159, -77589.65523119632, -48187.70118805185, -87539.48957198735, -30935.88720987883, 0.0, 0.0, 0.0, 193.0, 0.0, 1.0, 1.0, 0.0, 0.0, 1.0, 1.0, 256.0, 1.0, 1.750527914518031E9, 0.0, 2025-06-21 19:45:14.518
82.0, -43457.26739850848, -38071.81573770234, -29281.142864363537, -71716.22028544192, -27292.35169796368, -28179.559490628184, -52135.30983153699, -99297.66944619054, -187500.02235174447, -187500.02235174447, -47181.22448697382, -45865.444346123266, -77585.81073115, -48166.221161630296, -87545.412784268, -30920.084526548926, 0.0, 0.0, 0.0, 193.0, 0.0, 1.0, 1.0, 0.0, 0.0, 1.0, 1.0, 256.0, 1.0, 1.750527914526071E9, 0.0, 2025-06-21 19:45:14.526
84.0, -43462.721224155575, -38073.000380158475, -29281.813416697198, -71721.80822155574, -27290.854131085176, -28223.458316738408, -52140.495436250625, -99302.02803635932, -187500.02235174447, -187500.02235174447, -47180.978617784815, -45869.04297698057, -77575.88655661185, -48183.78963277217, -87533.38754575104, -30930.187515042726, 0.0, 0.0, 0.0, 193.0, 0.0, 1.0, 1.0, 0.0, 0.0, 1.0, 1.0, 256.0, 1.0, 1.750527914534074E9, 0.0, 2025-06-21 19:45:14.534
86.0, -43480.93789588665, -38091.12764491173, -29303.829884985673, -71733.25231471685, -27286.11556126065, -28221.424307992973, -52146.66451772029, -99305.44785326098, -187500.02235174447, -187500.02235174447, -47202.369237228544, -45885.09152949948, -77599.95938539022, -48190.137528197476, -87554.84522042813, -30938.949398869205, 0.0, 0.0, 0.0, 193.0, 0.0, 1.0, 1.0, 0.0, 0.0, 1.0, 1.0, 256.0, 1.0, 1.750527914542075E9, 0.0, 2025-06-21 19:45:14.542
88.0, -43475.729939428566, -38091.999362945484, -29292.408143569013, -71732.80527982775, -27309.473134216445, -28239.30570355722, -52134.683982692244, -99294.89782987807, -187500.02235174447, -187500.02235174447, -47200.02230406074, -45884.59979112146, -77597.99243187814, -48179.67691179239, -87542.77527842227, -30929.248741775602, 0.0, 0.0, 0.0, 193.0, 0.0, 1.0, 1.0, 0.0, 0.0, 1.0, 1.0, 256.0, 1.0, 1.750527914550161E9, 0.0, 2025-06-21 19:45:14.550
90.0, -43476.64636095123, -38087.70782801006, -29281.209919596902, -71711.99580573986, -27301.135933534617, -28217.713918413392, -52137.343840282425, -99292.21562054344, -187500.02235174447, -187500.02235174447, -47199.61997266054, -45879.7271108302, -77592.35979227541, -48179.87807749249, -87530.10183931612, -30925.963035340672, 0.0, 0.0, 0.0, 193.0, 0.0, 1.0, 1.0, 0.0, 0.0, 1.0, 1.0, 256.0, 1.0, 1.750527914558215E9, 0.0, 2025-06-21 19:45:14.558
92.0, -43467.59390444683, -38081.15876688466, -29271.911593903496, -71706.2290556704, -27287.724886861433, -28209.354365987107, -52140.38367752835, -99288.30406526376, -187500.02235174447, -187500.02235174447, -47177.268228205234, -45857.956511730736, -77582.88265262636, -48138.10266710552, -87519.5071124443, -30889.6414506008, 0.0, 0.0, 0.0, 193.0, 0.0, 1.0, 1.0, 0.0, 0.0, 1.0, 1.0, 256.0, 1.0, 1.750527914566184E9, 0.0, 2025-06-21 19:45:14.566
94.0, -43467.03511083545, -38080.756435484465, -29275.59963173862, -71711.54877085076, -27281.77932283632, -28226.632264451062, -52138.237910060634, -99289.64516993109, -187500.02235174447, -187500.02235174447, -47186.365388198545, -45876.57551486201, -77586.74950441712, -48165.19298138535, -87520.71410664488, -30910.54033166651, 0.0, 0.0, 0.0, 193.0, 0.0, 1.0, 1.0, 0.0, 0.0, 1.0, 1.0, 256.0, 1.0, 1.750527914574211E9, 0.0, 2025-06-21 19:45:14.574
96.0, -43466.18574454615, -38079.86236570625, -29285.210881854404, -71707.70427080445, -27296.576177665735, -28232.399014520528, -52120.11064530738, -99278.5810564257, -187500.02235174447, -187500.02235174447, -47189.20405974437, -45865.578456589996, -77588.13531257336, -48155.7158417363, -87529.92302536048, -30902.78427634052, 0.0, 0.0, 0.0, 193.0, 0.0, 1.0, 1.0, 0.0, 0.0, 1.0, 1.0, 256.0, 1.0, 1.750527914582253E9, 0.0, 2025-06-21 19:45:14.582
98.0, -43482.860145909806, -38094.27924087992, -29294.196283125435, -71732.29118970528, -27305.27100625885, -28224.151220816522, -52149.88316892185, -99307.81713817324, -187500.02235174447, -187500.02235174447, -47188.041769032694, -45870.20526769225, -77588.40353350682, -48165.97529244129, -87538.19317080894, -30910.517979922057, 0.0, 0.0, 0.0, 193.0, 0.0, 1.0, 1.0, 0.0, 0.0, 1.0, 1.0, 256.0, 1.0, 1.750527914590268E9, 0.0, 2025-06-21 19:45:14.590
100.0, -43456.440383963636, -38068.57473475632, -29265.854271156106, -71706.00553822584, -27281.73461934741, -28196.52446466976, -52131.10770357939, -99284.8842483621, -187500.02235174447, -187500.02235174447, -47194.50142318028, -45877.22371545121, -77586.05660033901, -48182.56028682712, -87524.80447588021, -30927.46060221918, 0.0, 0.0, 0.0, 193.0, 0.0, 1.0, 1.0, 0.0, 0.0, 1.0, 1.0, 256.0, 1.0, 1.750527914600294E9, 0.0, 2025-06-21 19:45:14.600
102.0, -43480.15558483072, -38087.327848354325, -29295.872663959584, -71734.0793292617, -27307.416773726556, -28200.48072343835, -52144.27288106357, -99307.72773119542, -187500.02235174447, -187500.02235174447, -47179.01166427275, -45867.16543044632, -77586.2130625502, -48162.354309839524, -87532.64993818403, -30912.708450878676, 0.0, 0.0, 0.0, 193.0, 0.0, 1.0, 1.0, 0.0, 0.0, 1.0, 1.0, 256.0, 1.0, 1.750527914606296E9, 0.0, 2025-06-21 19:45:14.606
104.0, -43478.54625922993, -38085.986743687004, -29304.321623363692, -71742.4835851769, -27278.806540823763, -28201.799476361215, -52151.403087544815, -99307.66067596206, -187500.02235174447, -187500.02235174447, -47206.72782739733, -45894.0322272816, -77601.94869064674, -48199.704074824345, -87542.97644412237, -30943.151526826805, 0.0, 0.0, 0.0, 193.0, 0.0, 1.0, 1.0, 0.0, 0.0, 1.0, 1.0, 256.0, 1.0, 1.75052791461431E9, 0.0, 2025-06-21 19:45:14.614
106.0, -43471.30429402641, -38076.24138310449, -29301.28178611777, -71727.9773030254, -27309.093154560705, -28236.668197711493, -52137.276785049056, -99289.2875420198, -187500.02235174447, -187500.02235174447, -47197.98829531531, -45881.49289864217, -77599.35588828992, -48179.833374003574, -87544.47401100089, -30927.84058187492, 0.0, 0.0, 0.0, 193.0, 0.0, 1.0, 1.0, 0.0, 0.0, 1.0, 1.0, 256.0, 1.0, 1.750527914622363E9, 0.0, 2025-06-21 19:45:14.622
108.0, -43481.40728252021, -38087.953697199075, -29307.7190885209, -71740.65074213156, -27316.17865755304, -28241.607933236115, -52148.45265727671, -99300.8880973921, -187500.02235174447, -187500.02235174447, -47200.78226337222, -45886.186764977785, -77606.79901919354, -48184.460185105825, -87555.49342101735, -30931.863895876875, 0.0, 0.0, 0.0, 193.0, 0.0, 1.0, 1.0, 0.0, 0.0, 1.0, 1.0, 256.0, 1.0, 1.750527914630424E9, 0.0, 2025-06-21 19:45:14.630
110.0, -43489.3645035463, -38098.3919618597, -29314.178742668482, -71742.4835851769, -27324.202933812492, -28201.799476361215, -52157.974500414675, -99307.50421375087, -187500.02235174447, -187500.02235174447, -47218.37308625854, -45902.615297152435, -77614.95740591972, -48208.73417958429, -87564.61293275512, -30953.03099787605, 0.0, 0.0, 0.0, 193.0, 0.0, 1.0, 1.0, 0.0, 0.0, 1.0, 1.0, 256.0, 1.0, 1.750527914637437E9, 0.0, 2025-06-21 19:45:14.637
112.0, -43491.107939613816, -38106.57270033034, -29313.865818246108, -71746.39514045657, -27299.370145722645, -28235.260037810807, -52156.812209703, -99307.63832421761, -187500.02235174447, -187500.02235174447, -47202.63745816201, -45890.120672001925, -77609.86120818391, -48181.91208623792, -87562.57892400968, -30934.389643000322, 0.0, 0.0, 0.0, 193.0, 0.0, 1.0, 1.0, 0.0, 0.0, 1.0, 1.0, 256.0, 1.0, 1.750527914646491E9, 0.0, 2025-06-21 19:45:14.646
114.0, -43493.87955592627, -38105.47746485203, -29310.915387978006, -71750.2843439918, -27320.470192488458, -28230.63322670856, -52159.04738414853, -99316.46726327745, -187500.02235174447, -187500.02235174447, -47217.72488566934, -45906.70566638776, -77611.82816169599, -48211.34933368556, -87557.79565069624, -30958.104843867404, 0.0, 0.0, 0.0, 193.0, 0.0, 1.0, 1.0, 0.0, 0.0, 1.0, 1.0, 256.0, 1.0, 1.750527914654475E9, 0.0, 2025-06-21 19:45:14.654
116.0, -43479.6638464527, -38092.11112166776, -29297.37023083809, -71728.69255884798, -27297.26908174385, -28219.30089226972, -52138.43907576073, -99298.63057120211, -187500.02235174447, -187500.02235174447, -47199.53056568272, -45887.594924878475, -77600.45112376823, -48190.741025297764, -87549.05611861421, -30941.452794248202, 0.0, 0.0, 0.0, 193.0, 0.0, 1.0, 1.0, 0.0, 0.0, 1.0, 1.0, 256.0, 1.0, 1.750527914661427E9, 0.0, 2025-06-21 19:45:14.661
118.0, -43479.73090168607, -38092.133473412214, -29300.09714366164, -71740.47192817592, -27297.4925991884, -28209.890807854037, -52147.02214563157, -99303.99498987138, -187500.02235174447, -187500.02235174447, -47199.86584184955, -45883.4822038987, -77599.66881271229, -48183.119080438504, -87547.35738603561, -30931.774488899053, 0.0, 0.0, 0.0, 193.0, 0.0, 1.0, 1.0, 0.0, 0.0, 1.0, 1.0, 256.0, 1.0, 1.75052791466947E9, 0.0, 2025-06-21 19:45:14.669
120.0, -43487.86693666779, -38088.6913047661, -29308.5684548102, -71739.26493397534, -27312.669433673556, -28223.950055116424, -52157.818038203484, -99298.31764677975, -187500.02235174447, -187500.02235174447, -47204.760873885265, -45891.19355573578, -77600.47347551268, -48191.47863286479, -87536.22621729688, -30939.642302947323, 0.0, 0.0, 0.0, 193.0, 0.0, 1.0, 1.0, 0.0, 0.0, 1.0, 1.0, 256.0, 1.0, 1.750527914678521E9, 0.0, 2025-06-21 19:45:14.678
122.0, -43505.99420142105, -38108.47259860904, -29334.407071400532, -71757.32514349523, -27334.238867072927, -28236.534087244763, -52165.171762129285, -99318.1883476005, -187500.02235174447, -187500.02235174447, -47219.781246159226, -45898.8825558284, -77625.3733188359, -48184.84016476157, -87569.48561304637, -30935.373119756357, 0.0, 0.0, 0.0, 193.0, 0.0, 1.0, 1.0, 0.0, 0.0, 1.0, 1.0, 256.0, 1.0, 1.750527914686515E9, 0.0, 2025-06-21 19:45:14.686
124.0, -43516.87950097078, -38119.335546414324, -29342.43134765999, -71776.7935129158, -27341.167907854073, -28223.68183418296, -52178.69456752474, -99325.27385059284, -187500.02235174447, -187500.02235174447, -47238.13202835704, -45923.40241949588, -77638.09146143097, -48218.39013318898, -87576.39230208306, -30963.31280032549, 0.0, 0.0, 0.0, 193.0, 0.0, 1.0, 1.0, 0.0, 0.0, 1.0, 1.0, 256.0, 1.0, 1.750527914693611E9, 0.0, 2025-06-21 19:45:14.693
126.0, -43493.00783789252, -38095.68740078061, -29325.578132340688, -71756.05109406127, -27315.865733130664, -28238.322226801185, -52142.21652057368, -99298.85408864667, -187500.02235174447, -187500.02235174447, -47235.11454285557, -45929.817370154546, -77642.20418241074, -48207.84010980608, -87579.2756771178, -30959.401245045814, 0.0, 0.0, 0.0, 193.0, 0.0, 1.0, 1.0, 0.0, 0.0, 1.0, 1.0, 256.0, 1.0, 1.750527914701619E9, 0.0, 2025-06-21 19:45:14.701
128.0, -43495.98061990507, -38097.49789208149, -29318.649091559542, -71750.41845445853, -27313.94348310751, -28248.11229087261, -52142.79766592952, -99302.94445788198, -187500.02235174447, -187500.02235174447, -47221.56938571565, -45903.956401819756, -77623.38401357937, -48196.127795711494, -87570.0220549133, -30943.062119848983, 0.0, 0.0, 0.0, 193.0, 0.0, 1.0, 1.0, 0.0, 0.0, 1.0, 1.0, 256.0, 1.0, 1.750527914710683E9, 0.0, 2025-06-21 19:45:14.710
130.0, -43514.39845733625, -38122.21892144906, -29326.271036418802, -71760.65555341907, -27317.296244775804, -28261.143357890054, -52165.32822434047, -99321.7422749689, -187500.02235174447, -187500.02235174447, -47225.63740320652, -45903.84464309748, -77616.1196966314, -48207.68364759489, -87557.86270592961, -30952.360445542392, 0.0, 0.0, 0.0, 193.0, 0.0, 1.0, 1.0, 0.0, 0.0, 1.0, 1.0, 256.0, 1.0, 1.750527914717671E9, 0.0, 2025-06-21 19:45:14.717
132.0, -43500.22745135158, -38111.020697476946, -29310.42364959999, -71749.09970153567, -27321.54307622231, -28215.031709078758, -52152.49832302312, -99305.98429512791, -187500.02235174447, -187500.02235174447, -47217.38960950251, -45902.212965752246, -77623.0263856681, -48188.103519452045, -87561.64015074256, -30940.491669236624, 0.0, 0.0, 0.0, 193.0, 0.0, 1.0, 1.0, 0.0, 0.0, 1.0, 1.0, 256.0, 1.0, 1.750527914725731E9, 0.0, 2025-06-21 19:45:14.725
134.0, -43541.42171638271, -38150.15860201819, -29350.008589030338, -71796.35128931419, -27350.399178314114, -28222.743060915836, -52185.020111205595, -99338.48373156592, -187500.02235174447, -187500.02235174447, -47238.087324868124, -45935.47236150174, -77637.77853700859, -48226.16854025943, -87577.30872360572, -30971.78411147405, 0.0, 0.0, 0.0, 193.0, 0.0, 1.0, 1.0, 0.0, 0.0, 1.0, 1.0, 256.0, 1.0, 1.750527914734725E9, 0.0, 2025-06-21 19:45:14.734
136.0, -43522.646251040256, -38127.71745058506, -29335.792879556764, -71763.11424530915, -27329.612055970676, -28277.54953832025, -52161.886055694355, -99312.15337659758, -187500.02235174447, -187500.02235174447, -47247.29624358371, -45934.46653300125, -77651.25663891515, -48216.73610409929, -87583.20958414192, -30970.621820762375, 0.0, 0.0, 0.0, 193.0, 0.0, 1.0, 1.0, 0.0, 0.0, 1.0, 1.0, 256.0, 1.0, 1.750527914742774E9, 0.0, 2025-06-21 19:45:14.742
138.0, -43530.06703019942, -38134.04299426592, -29339.726786580897, -71775.76533267085, -27327.51099199188, -28245.25126758233, -52190.98802697516, -99326.01145815986, -187500.02235174447, -187500.02235174447, -47239.94251965792, -45921.16724505035, -77645.73575803469, -48204.800272560155, -87577.12990965009, -30956.6072769889, 0.0, 0.0, 0.0, 193.0, 0.0, 1.0, 1.0, 0.0, 0.0, 1.0, 1.0, 256.0, 1.0, 1.750527914749794E9, 0.0, 2025-06-21 19:45:14.749
140.0, -43522.780361506986, -38120.00609874798, -29340.732615081386, -71766.62346918863, -27327.354529780692, -28239.573924490684, -52156.566340513986, -99305.20198407197, -187500.02235174447, -187500.02235174447, -47251.096040141114, -45932.03019285562, -77647.25567665765, -48219.977107045306, -87573.68774100396, -30967.581983516455, 0.0, 0.0, 0.0, 193.0, 0.0, 1.0, 1.0, 0.0, 0.0, 1.0, 1.0, 256.0, 1.0, 1.750527914757834E9, 0.0, 2025-06-21 19:45:14.757
142.0, -43528.345945876354, -38132.5007238985, -29347.728711095897, -71777.93345188301, -27338.440995030523, -28273.63798304057, -52163.24951210613, -99326.16792037105, -187500.02235174447, -187500.02235174447, -47235.98626088932, -45916.540433948096, -77642.78532776659, -48204.040313248675, -87590.38449411208, -30954.528564754557, 0.0, 0.0, 0.0, 193.0, 0.0, 1.0, 1.0, 0.0, 0.0, 1.0, 1.0, 256.0, 1.0, 1.7505279147668E9, 0.0, 2025-06-21 19:45:14.766
144.0, -43534.20210292365, -38140.92733155815, -29334.60823710063, -71779.22985306142, -27341.927867165552, -28215.568150945684, -52172.6148930329, -99328.98424017242, -187500.02235174447, -187500.02235174447, -47246.715098227876, -45937.3946115249, -77645.26637140111, -48228.224900749316, -87575.9229154495, -30975.025114420074, 0.0, 0.0, 0.0, 193.0, 0.0, 1.0, 1.0, 0.0, 0.0, 1.0, 1.0, 256.0, 1.0, 1.750527914773887E9, 0.0, 2025-06-21 19:45:14.773
146.0, -43520.61224229482, -38127.73980232952, -29330.51786786531, -71762.42134123103, -27339.089195619727, -28237.271694811785, -52149.011450888094, -99311.23695507491, -187500.02235174447, -187500.02235174447, -47238.802580690695, -45927.60454745347, -77643.4782318447, -48210.947002285364, -87575.67704626049, -30960.09414912393, 0.0, 0.0, 0.0, 193.0, 0.0, 1.0, 1.0, 0.0, 0.0, 1.0, 1.0, 256.0, 1.0, 1.750527914781866E9, 0.0, 2025-06-21 19:45:14.781
148.0, -43537.84543726986, -38146.15763976069, -29348.265152962824, -71789.86928342216, -27334.50708800639, -28260.763378234315, -52175.38650934536, -99337.45555132098, -187500.02235174447, -187500.02235174447, -47243.49644702631, -45933.66187020086, -77649.91553424782, -48213.8303773201, -87580.19209864046, -30964.139814870337, 0.0, 0.0, 0.0, 193.0, 0.0, 1.0, 1.0, 0.0, 0.0, 1.0, 1.0, 256.0, 1.0, 1.750527914789961E9, 0.0, 2025-06-21 19:45:14.789
150.0, -43526.78132376449, -38120.83311329283, -29356.490594922376, -71787.36588804316, -27329.589704226222, -28272.006305695333, -52166.915198196795, -99329.27481285034, -187500.02235174447, -187500.02235174447, -47255.14170588752, -45941.842608671504, -77653.71533080522, -48232.85171185157, -87582.56138355272, -30980.32247785598, 0.0, 0.0, 0.0, 193.0, 0.0, 1.0, 1.0, 0.0, 0.0, 1.0, 1.0, 256.0, 1.0, 1.750527914798975E9, 0.0, 2025-06-21 19:45:14.798
152.0, -43524.47909408559, -38119.82728479234, -29332.55187661074, -71755.69346614998, -27318.88321863213, -28254.661351998016, -52143.51292175209, -99304.57613522722, -187500.02235174447, -187500.02235174447, -47251.43131630794, -45929.57150096554, -77659.23621168568, -48204.15207197095, -87586.98702895487, -30958.730692712154, 0.0, 0.0, 0.0, 193.0, 0.0, 1.0, 1.0, 0.0, 0.0, 1.0, 1.0, 256.0, 1.0, 1.750527914805997E9, 0.0, 2025-06-21 19:45:14.805
154.0, -43541.55582684944, -38139.22859897955, -29354.791862343773, -71791.14333285611, -27351.829689959253, -28250.861555440613, -52184.14839317184, -99337.5002548099, -187500.02235174447, -187500.02235174447, -47240.81423769167, -45920.586099694505, -77639.54432482056, -48208.55536562865, -87564.03178739928, -30958.149547356315, 0.0, 0.0, 0.0, 193.0, 0.0, 1.0, 1.0, 0.0, 0.0, 1.0, 1.0, 256.0, 1.0, 1.750527914814041E9, 0.0, 2025-06-21 19:45:14.814
156.0, -43526.04371619746, -38113.21116843357, -29356.42353968901, -71777.5981757162, -27343.827765444254, -28255.91304968751, -52155.42640154677, -99320.26705983485, -187500.02235174447, -187500.02235174447, -47261.10962165709, -45942.44610577179, -77663.34893266547, -48226.347354215075, -87597.93938373798, -30978.13200689936, 0.0, 0.0, 0.0, 193.0, 0.0, 1.0, 1.0, 0.0, 0.0, 1.0, 1.0, 256.0, 1.0, 1.750527914822058E9, 0.0, 2025-06-21 19:45:14.822
158.0, -43512.94559394665, -38124.521151127956, -29343.794804071764, -71781.01799261785, -27335.401157784603, -28241.764395447302, -52162.95893942821, -99322.45753079148, -187500.02235174447, -187500.02235174447, -47247.92209242846, -45930.13029457692, -77650.56373483702, -48213.98683953129, -87585.80238649875, -30962.821061947474, 0.0, 0.0, 0.0, 193.0, 0.0, 1.0, 1.0, 0.0, 0.0, 1.0, 1.0, 256.0, 1.0, 1.750527914830064E9, 0.0, 2025-06-21 19:45:14.830
160.0, -43531.005803466534, -38128.566816874365, -29358.546955412265, -71791.85858867868, -27347.98518991294, -28257.701189243937, -52169.910331953804, -99335.06391466426, -187500.02235174447, -187500.02235174447, -47258.8073919782, -45949.41985004185, -77655.70463606175, -48234.30457524116, -87582.18140389698, -30981.50712031211, 0.0, 0.0, 0.0, 193.0, 0.0, 1.0, 1.0, 0.0, 0.0, 1.0, 1.0, 256.0, 1.0, 1.750527914838108E9, 0.0, 2025-06-21 19:45:14.838
162.0, -43524.590852807865, -38140.18972399113, -29348.66748436302, -71776.52529198234, -27344.520669522368, -28261.45628231243, -52162.288387094544, -99329.699495995, -187500.02235174447, -187500.02235174447, -47250.53724652973, -45936.56759698005, -77657.20220294026, -48212.153996485955, -87588.39518885556, -30965.41386430429, 0.0, 0.0, 0.0, 193.0, 0.0, 1.0, 1.0, 0.0, 0.0, 1.0, 1.0, 256.0, 1.0, 1.75052791484615E9, 0.0, 2025-06-21 19:45:14.846
164.0, -43536.70549830264, -38135.80878207788, -29354.52364141031, -71785.73421069792, -27339.513878764377, -28240.333883802163, -52173.08427966646, -99335.08626640872, -187500.02235174447, -187500.02235174447, -47255.700499498904, -45934.60064346798, -77649.66966505881, -48222.413447190935, -87573.59833402614, -30969.12425388387, 0.0, 0.0, 0.0, 193.0, 0.0, 1.0, 1.0, 0.0, 0.0, 1.0, 1.0, 256.0, 1.0, 1.750527914855238E9, 0.0, 2025-06-21 19:45:14.855
166.0, -43544.46155362864, -38119.58141560333, -29374.506100953353, -71794.31728056876, -27366.5594895553, -28278.197738909454, -52174.09010816695, -99340.80831298928, -187500.02235174447, -187500.02235174447, -47278.991017221335, -45960.68512924733, -77678.79398808409, -48235.80214211967, -87606.94713675346, -30987.5644430595, 0.0, 0.0, 0.0, 193.0, 0.0, 1.0, 1.0, 0.0, 0.0, 1.0, 1.0, 256.0, 1.0, 1.750527914862225E9, 0.0, 2025-06-21 19:45:14.862
168.0, -43522.73565801807, -38133.68536635463, -29342.766623826818, -71770.11034132366, -27339.536230508835, -28245.69830247144, -52154.5099800241, -99315.17086209904, -187500.02235174447, -187500.02235174447, -47262.49542981332, -45939.65213771488, -77665.71821757773, -48219.88770006749, -87597.82762501569, -30969.95126842872, 0.0, 0.0, 0.0, 193.0, 0.0, 1.0, 1.0, 0.0, 0.0, 1.0, 1.0, 256.0, 1.0, 1.750527914870229E9, 0.0, 2025-06-21 19:45:14.870
170.0, -43524.23322489658, -38138.11101175678, -29353.33899895418, -71773.6419169476, -27340.6538177316, -28241.049139624734, -52161.461372549704, -99317.7413127114, -187500.02235174447, -187500.02235174447, -47250.44783955191, -45923.9388613628, -77646.60747606844, -48215.46205466534, -87570.3126275912, -30963.73748347014, 0.0, 0.0, 0.0, 193.0, 0.0, 1.0, 1.0, 0.0, 0.0, 1.0, 1.0, 256.0, 1.0, 1.750527914878268E9, 0.0, 2025-06-21 19:45:14.878
172.0, -43504.67544849819, -38115.33458415682, -29325.80164978524, -71755.69346614998, -27316.759802908877, -28241.9655611474, -52131.822959401965, -99297.96001886846, -187500.02235174447, -187500.02235174447, -47244.25640633779, -45919.960250849756, -77651.41310112632, -48202.565098114625, -87585.71297952092, -30954.75208219911, 0.0, 0.0, 0.0, 193.0, 0.0, 1.0, 1.0, 0.0, 0.0, 1.0, 1.0, 256.0, 1.0, 1.75052791488629E9, 0.0, 2025-06-21 19:45:14.886
174.0, -43548.350757163855, -38146.381157205244, -29366.884156094096, -71805.42609756305, -27358.669323762577, -28267.379494593086, -52182.69552978224, -99345.23395839143, -187500.02235174447, -187500.02235174447, -47239.02609813525, -45926.889291630905, -77637.19739165275, -48219.17244424492, -87565.28348508877, -30966.620858504877, 0.0, 0.0, 0.0, 193.0, 0.0, 1.0, 1.0, 0.0, 0.0, 1.0, 1.0, 256.0, 1.0, 1.750527914894322E9, 0.0, 2025-06-21 19:45:14.894
176.0, -43545.825010040404, -38155.72418638756, -29370.751007884865, -71794.0937631242, -27353.953105682507, -28243.060796625712, -52177.59933204643, -99341.27769962283, -187500.02235174447, -187500.02235174447, -47286.83647952515, -45968.10590840649, -77687.66763063284, -48263.47360175534, -87627.08605850769, -31012.91132127182, 0.0, 0.0, 0.0, 193.0, 0.0, 1.0, 1.0, 0.0, 0.0, 1.0, 1.0, 256.0, 1.0, 1.750527914902354E9, 0.0, 2025-06-21 19:45:14.902
178.0, -43558.25257995756, -38171.146890061726, -29383.111522568648, -71813.15980114457, -27354.713064993986, -28297.353183907653, -52210.814024307016, -99368.14449645812, -187500.02235174447, -187500.02235174447, -47261.69076701293, -45939.875655159434, -77662.83484254299, -48242.82058987863, -87608.7799797988, -30991.587757061454, 0.0, 0.0, 0.0, 193.0, 0.0, 1.0, 1.0, 0.0, 0.0, 1.0, 1.0, 256.0, 1.0, 1.750527914910384E9, 0.0, 2025-06-21 19:45:14.910
180.0, -43568.7355481071, -38180.087587843846, -29392.611013962152, -71821.07231868176, -27392.17458870108, -28297.50964611884, -52211.23870745167, -99366.69163306852, -187500.02235174447, -187500.02235174447, -47291.79856679423, -45971.279856119145, -77687.51116842165, -48280.12565137454, -87627.71190735244, -31027.216437723215, 0.0, 0.0, 0.0, 193.0, 0.0, 1.0, 1.0, 0.0, 0.0, 1.0, 1.0, 256.0, 1.0, 1.750527914917429E9, 0.0, 2025-06-21 19:45:14.917
182.0, -43552.59758861036, -38159.389872478234, -29365.118368282125, -71788.84110317721, -27340.720872964965, -28275.247308641352, -52181.28736988156, -99333.67810650804, -187500.02235174447, -187500.02235174447, -47279.21453466589, -45958.67347224635, -77689.67928763381, -48248.63204343701, -87630.17059924253, -31000.79667577704, 0.0, 0.0, 0.0, 193.0, 0.0, 1.0, 1.0, 0.0, 0.0, 1.0, 1.0, 256.0, 1.0, 1.750527914926469E9, 0.0, 2025-06-21 19:45:14.926
184.0, -43586.86281286035, -38190.39174203775, -29387.470112737432, -71817.13841165762, -27369.84519599023, -28270.195814394454, -52182.85199199343, -99353.3476416287, -187500.02235174447, -187500.02235174447, -47266.31757811518, -45945.21772208426, -77664.17594721031, -48238.8866828545, -87594.29604939176, -30986.826835492473, 0.0, 0.0, 0.0, 193.0, 0.0, 1.0, 1.0, 0.0, 0.0, 1.0, 1.0, 256.0, 1.0, 1.750527914934466E9, 0.0, 2025-06-21 19:45:14.934
186.0, -43596.47406297613, -38195.86791942929, -29378.350600999667, -71796.91008292558, -27372.32623962477, -28274.666163285514, -52195.23485842167, -99347.8491124927, -187500.02235174447, -187500.02235174447, -47298.12411047508, -45973.53738230913, -77702.19626452879, -48263.76417443326, -87627.35427944116, -31016.33113817348, 0.0, 0.0, 0.0, 193.0, 0.0, 1.0, 1.0, 0.0, 0.0, 1.0, 1.0, 256.0, 1.0, 1.750527914941538E9, 0.0, 2025-06-21 19:45:14.941
188.0, -43607.62758345933, -38215.71626850561, -29375.355467242658, -71799.88286493813, -27361.195070886028, -28260.65161951204, -52196.486556111166, -99350.46426659398, -187500.02235174447, -187500.02235174447, -47275.30297938621, -45944.927149406336, -77675.77650258261, -48236.80797062015, -87605.29310766378, -30986.022172692083, 0.0, 0.0, 0.0, 193.0, 0.0, 1.0, 1.0, 0.0, 0.0, 1.0, 1.0, 256.0, 1.0, 1.750527914949514E9, 0.0, 2025-06-21 19:45:14.949
190.0, -43618.66934522025, -38216.3197656059, -29377.925917855016, -71797.22300734794, -27360.03278017435, -28257.1200438881, -52168.859799964404, -99336.02503967585, -187500.02235174447, -187500.02235174447, -47285.20480217991, -45956.39359431191, -77674.65891535985, -48255.78460166271, -87601.33684889518, -31003.009498478117, 0.0, 0.0, 0.0, 193.0, 0.0, 1.0, 1.0, 0.0, 0.0, 1.0, 1.0, 256.0, 1.0, 1.750527914958492E9, 0.0, 2025-06-21 19:45:14.958
192.0, -43669.07252896697, -38258.69867309316, -29407.653737980574, -71823.66512103858, -27422.975292560495, -28277.3260208757, -52211.41752140731, -99363.62944407815, -187500.02235174447, -187500.02235174447, -47285.54007834674, -45953.174943110345, -77685.67832537631, -48242.37355498953, -87629.03066027531, -30991.31953612799, 0.0, 0.0, 0.0, 193.0, 0.0, 1.0, 1.0, 0.0, 0.0, 1.0, 1.0, 256.0, 1.0, 1.75052791496657E9, 0.0, 2025-06-21 19:45:14.966
194.0, -43665.13862194284, -38251.14378346727, -29390.085266838705, -71808.95767318699, -27395.08031548027, -28237.49521225634, -52224.158015746834, -99353.05706895079, -187500.02235174447, -187500.02235174447, -47322.50986367582, -45979.55000156761, -77706.64426167539, -48278.02458739574, -87618.52534038131, -31024.310710944024, 0.0, 0.0, 0.0, 193.0, 0.0, 1.0, 1.0, 0.0, 0.0, 1.0, 1.0, 256.0, 1.0, 1.75052791497361E9, 0.0, 2025-06-21 19:45:14.973
196.0, -43623.854949933884, -38208.541358535454, -29381.971583601426, -71785.30952755327, -27406.077373752283, -28267.960639948924, -52168.47982030867, -99319.97648715694, -187500.02235174447, -187500.02235174447, -47293.58670635065, -45950.53743726462, -77682.34791545247, -48246.08394456911, -87614.2338054459, -30993.308841384514, 0.0, 0.0, 0.0, 193.0, 0.0, 1.0, 1.0, 0.0, 0.0, 1.0, 1.0, 256.0, 1.0, 1.75052791498161E9, 0.0, 2025-06-21 19:45:14.981
198.0, -43618.401124286785, -38198.43837004166, -29386.91131912605, -71809.203542376, -27400.04240274935, -28278.041276698266, -52214.41265516432, -99340.54009205582, -187500.02235174447, -187500.02235174447, -47280.93561898895, -45941.03794587111, -77671.57437462502, -48234.08105779661, -87606.34363965318, -30980.344829600435, 0.0, 0.0, 0.0, 193.0, 0.0, 1.0, 1.0, 0.0, 0.0, 1.0, 1.0, 256.0, 1.0, 1.750527914990646E9, 0.0, 2025-06-21 19:45:14.990
200.0, -43566.96976029513, -38137.68632861213, -29386.91131912605, -71799.5475887713, -27395.303832924827, -28259.288163100264, -52225.208547736234, -99349.90547298259, -187500.02235174447, -187500.02235174447, -47305.25431695632, -45962.83089671504, -77681.76677009664, -48265.976997134334, -87607.90826176504, -31011.726678815685, 0.0, 0.0, 0.0, 193.0, 0.0, 1.0, 1.0, 0.0, 0.0, 1.0, 1.0, 256.0, 1.0, 1.750527914997677E9, 0.0, 2025-06-21 19:45:14.997
202.0, -43513.72790500258, -38091.373514100735, -29357.00468504485, -71769.37273375664, -27365.33014361026, -28244.69247397095, -52206.05310273804, -99337.07557166525, -187500.02235174447, -187500.02235174447, -47261.84722922411, -45918.641497926896, -77655.43641512828, -48218.05485702215, -87602.70030530695, -30967.112596882893, 0.0, 0.0, 0.0, 193.0, 0.0, 1.0, 1.0, 0.0, 0.0, 1.0, 1.0, 256.0, 1.0, 1.750527915005707E9, 0.0, 2025-06-21 19:45:15.005
204.0, -43474.36648301679, -38057.130641595206, -29349.740368096875, -71777.79934141629, -27389.045344477337, -28229.940322630446, -52218.033637766086, -99344.04931593529, -187500.02235174447, -187500.02235174447, -47255.722851243365, -45917.099227559476, -77633.15172590634, -48228.67193563842, -87577.84516547265, -30972.27584985207, 0.0, 0.0, 0.0, 193.0, 0.0, 1.0, 1.0, 0.0, 0.0, 1.0, 1.0, 256.0, 1.0, 1.750527915014734E9, 0.0, 2025-06-21 19:45:15.014
206.0, -43431.87581680725, -38013.05300152934, -29342.833679060186, -71754.95585858297, -27391.593443345242, -28276.051971441746, -52207.21539344972, -99335.73446699792, -187500.02235174447, -187500.02235174447, -47238.176731845946, -45908.67261989983, -77626.40149908084, -48215.81968257662, -87584.7295027649, -30963.37985555886, 0.0, 0.0, 0.0, 193.0, 0.0, 1.0, 1.0, 0.0, 0.0, 1.0, 1.0, 256.0, 1.0, 1.750527915022769E9, 0.0, 2025-06-21 19:45:15.022
208.0, -43404.4949298495, -37985.44859712703, -29337.75983306883, -71760.45438771897, -27393.940376513052, -28228.465107496395, -52216.22314646521, -99350.28545263833, -187500.02235174447, -187500.02235174447, -47220.87648163754, -45888.3325324455, -77611.02349889559, -48206.05197024965, -87583.74602600886, -30951.555782741998, 0.0, 0.0, 0.0, 193.0, 0.0, 1.0, 1.0, 0.0, 0.0, 1.0, 1.0, 256.0, 1.0, 1.750527915029794E9, 0.0, 2025-06-21 19:45:15.029
210.0, -43391.262697131955, -37967.03075969586, -29349.449795418954, -71763.11424530915, -27394.968556757995, -28239.193944834944, -52211.26105919613, -99338.9978216884, -187500.02235174447, -187500.02235174447, -47231.87353990955, -45900.737750618195, -77609.79415295055, -48231.19768276187, -87583.05312193074, -30974.868652208886, 0.0, 0.0, 0.0, 193.0, 0.0, 1.0, 1.0, 0.0, 0.0, 1.0, 1.0, 256.0, 1.0, 1.750527915037842E9, 0.0, 2025-06-21 19:45:15.037
212.0, -43366.5863712533, -37945.327215829755, -29343.05719650474, -71745.76929161182, -27384.731457797465, -28228.57686621867, -52196.844184022455, -99333.85692046367, -187500.02235174447, -187500.02235174447, -47218.171920558445, -45885.31504694403, -77611.24701634014, -48201.246345191765, -87604.19787218545, -30946.861916406386, 0.0, 0.0, 0.0, 193.0, 0.0, 1.0, 1.0, 0.0, 0.0, 1.0, 1.0, 256.0, 1.0, 1.750527915046892E9, 0.0, 2025-06-21 19:45:15.046
214.0, -43392.2908773769, -37967.99188470744, -29356.736464111385, -71776.3464780267, -27397.80722830382, -28228.085127840655, -52260.30078653107, -99372.0560517378, -187500.02235174447, -187500.02235174447, -47232.94642364341, -45895.03805578209, -77608.3636413054, -48224.134531514, -87578.0686829172, -30968.230184105658, 0.0, 0.0, 0.0, 193.0, 0.0, 1.0, 1.0, 0.0, 0.0, 1.0, 1.0, 256.0, 1.0, 1.750527915053858E9, 0.0, 2025-06-21 19:45:15.053
216.0, -43356.10340310376, -37930.01627087787, -29330.31670216521, -71733.85581181715, -27403.12694348418, -28245.653598982528, -52206.85776553843, -99342.26117637887, -187500.02235174447, -187500.02235174447, -47228.00668811878, -45892.557012147554, -77613.70570823023, -48216.24436572127, -87592.95494472444, -30960.74234971313, 0.0, 0.0, 0.0, 193.0, 0.0, 1.0, 1.0, 0.0, 0.0, 1.0, 1.0, 256.0, 1.0, 1.750527915061937E9, 0.0, 2025-06-21 19:45:15.061
218.0, -43373.40365331217, -37952.03273916635, -29335.70347257894, -71754.88880334959, -27384.59734733073, -28217.91508411349, -52217.76541683262, -99351.17952241654, -187500.02235174447, -187500.02235174447, -47207.59954543108, -45869.199439191754, -77594.59496672094, -48192.93149625439, -87566.98221766738, -30936.46835523467, 0.0, 0.0, 0.0, 193.0, 0.0, 1.0, 1.0, 0.0, 0.0, 1.0, 1.0, 256.0, 1.0, 1.750527915069918E9, 0.0, 2025-06-21 19:45:15.069
220.0, -43367.994531153985, -37948.88114319815, -29346.85699306214, -71767.31637326675, -27403.305757439826, -28158.213574673366, -52217.608954621435, -99349.36903111567, -187500.02235174447, -187500.02235174447, -47243.138819115025, -45906.57155592103, -77612.09638262945, -48233.321098485125, -87573.57598228169, -30973.63930626384, 0.0, 0.0, 0.0, 193.0, 0.0, 1.0, 1.0, 0.0, 0.0, 1.0, 1.0, 256.0, 1.0, 1.750527915079E9, 0.0, 2025-06-21 19:45:15.079
222.0, -43374.36477832375, -37955.63137002366, -29350.880307064093, -71768.7915884008, -27403.08223999527, -28263.378532335584, -52238.574890920514, -99369.12797321416, -187500.02235174447, -187500.02235174447, -47220.45179849289, -45898.770797106125, -77615.96323442021, -48210.52231914071, -87602.40973262904, -30954.103881609906, 0.0, 0.0, 0.0, 193.0, 0.0, 1.0, 1.0, 0.0, 0.0, 1.0, 1.0, 256.0, 1.0, 1.750527915086028E9, 0.0, 2025-06-21 19:45:15.086
224.0, -43371.36964456674, -37955.340797345736, -29341.24670520386, -71767.02580058883, -27404.065716751305, -28235.103575599624, -52224.49329191367, -99357.43801086403, -187500.02235174447, -187500.02235174447, -47232.74525794331, -45903.956401819756, -77609.99531865065, -48230.6835926394, -87577.59929628365, -30969.481881795156, 0.0, 0.0, 0.0, 193.0, 0.0, 1.0, 1.0, 0.0, 0.0, 1.0, 1.0, 256.0, 1.0, 1.75052791509406E9, 0.0, 2025-06-21 19:45:15.094
226.0, -43344.0334610979, -37926.685860954036, -29322.582998583675, -71730.3242361932, -27366.5594895553, -28217.333938757653, -52208.645905094854, -99326.72671398244, -187500.02235174447, -187500.02235174447, -47204.4926529518, -45875.79320380607, -77594.39380102084, -48191.232763675784, -87574.2241828709, -30935.060195333983, 0.0, 0.0, 0.0, 193.0, 0.0, 1.0, 1.0, 0.0, 0.0, 1.0, 1.0, 256.0, 1.0, 1.750527915102102E9, 0.0, 2025-06-21 19:45:15.102
228.0, -43392.78261575492, -37968.08129168526, -29364.894850837572, -71780.25803330637, -27435.24640026646, -28236.422328522483, -52262.04422259858, -99381.51083964239, -187500.02235174447, -187500.02235174447, -47231.11358059807, -45894.63572438189, -77617.86313269891, -48207.10250223905, -87599.30284014974, -30951.287561808535, 0.0, 0.0, 0.0, 193.0, 0.0, 1.0, 1.0, 0.0, 0.0, 1.0, 1.0, 256.0, 1.0, 1.750527915110116E9, 0.0, 2025-06-21 19:45:15.110
230.0, -43372.30841783386, -37949.19406762053, -29352.444929175967, -71763.69539066499, -27422.930589071584, -28225.335863272652, -52268.34741453498, -99379.40977566359, -187500.02235174447, -187500.02235174447, -47241.68595572543, -45906.99623906568, -77616.5220280316, -48232.87406359602, -87590.38449411208, -30973.50519579711, 0.0, 0.0, 0.0, 193.0, 0.0, 1.0, 1.0, 0.0, 0.0, 1.0, 1.0, 256.0, 1.0, 1.750527915118166E9, 0.0, 2025-06-21 19:45:15.118
232.0, -43360.95373165056, -37944.70136698501, -29351.10382450865, -71758.39802722908, -27416.023900034896, -28226.632264451062, -52246.62151892442, -99373.53126687185, -187500.02235174447, -187500.02235174447, -47235.4498190224, -45897.07206452752, -77625.59683628046, -48214.34446744257, -87629.79061958678, -30952.606314731398, 0.0, 0.0, 0.0, 193.0, 0.0, 1.0, 1.0, 0.0, 0.0, 1.0, 1.0, 256.0, 1.0, 1.750527915126226E9, 0.0, 2025-06-21 19:45:15.126
234.0, -43376.26467660245, -37964.147384661126, -29345.247667461357, -71774.11130358116, -27398.23191144847, -28229.739156930347, -52259.25025454167, -99384.19304897703, -187500.02235174447, -187500.02235174447, -47231.672374209455, -45905.74454137618, -77606.50844651563, -48227.91197632694, -87583.50015681985, -30965.100939881915, 0.0, 0.0, 0.0, 193.0, 0.0, 1.0, 1.0, 0.0, 0.0, 1.0, 1.0, 256.0, 1.0, 1.750527915134252E9, 0.0, 2025-06-21 19:45:15.134
236.0, -43362.71951946253, -37949.5069920429, -29344.800632572253, -71757.34749523968, -27400.310623682813, -28265.054913169733, -52231.04235303907, -99365.79756329031, -187500.02235174447, -187500.02235174447, -47218.171920558445, -45890.679465613306, -77603.78153369208, -48206.65546734995, -87582.60608704163, -30948.247724562614, 0.0, 0.0, 0.0, 193.0, 0.0, 1.0, 1.0, 0.0, 0.0, 1.0, 1.0, 256.0, 1.0, 1.750527915141288E9, 0.0, 2025-06-21 19:45:15.141
238.0, -43379.4386243151, -37961.84515498223, -29350.14269949707, -71769.46214073445, -27405.093896996248, -28232.980159876366, -52220.604088378444, -99363.27181616686, -187500.02235174447, -187500.02235174447, -47230.621842220055, -45899.21783199523, -77617.326690832, -48213.22688021981, -87597.51470059332, -30952.606314731398, 0.0, 0.0, 0.0, 193.0, 0.0, 1.0, 1.0, 0.0, 0.0, 1.0, 1.0, 256.0, 1.0, 1.750527915150282E9, 0.0, 2025-06-21 19:45:15.150
240.0, -43362.27248457343, -37946.04247165233, -29331.009606243326, -71749.65849514706, -27381.46810310699, -28206.38158397455, -52212.33394292998, -99323.82098720325, -187500.02235174447, -187500.02235174447, -47241.39538304751, -45909.70080014477, -77613.43748729676, -48221.519377412726, -87568.14450837905, -30962.55284101401, 0.0, 0.0, 0.0, 193.0, 0.0, 1.0, 1.0, 0.0, 0.0, 1.0, 1.0, 256.0, 1.0, 1.750527915158328E9, 0.0, 2025-06-21 19:45:15.158
242.0, -43370.05089164387, -37958.29122761384, -29340.464394147923, -71753.52534693782, -27389.648841577633, -28200.659537393993, -52224.605050635946, -99345.59158630272, -187500.02235174447, -187500.02235174447, -47207.19721403089, -45880.86704979742, -77603.69212671425, -48171.809097744124, -87575.81115672721, -30915.16714276876, 0.0, 0.0, 0.0, 193.0, 0.0, 1.0, 1.0, 0.0, 0.0, 1.0, 1.0, 256.0, 1.0, 1.750527915166342E9, 0.0, 2025-06-21 19:45:15.166
244.0, -43398.41525535766, -37983.638105826154, -29355.730635610897, -71777.41936176055, -27403.193998717546, -28206.20277001891, -52231.95877456174, -99374.47004013897, -187500.02235174447, -187500.02235174447, -47239.78605744673, -45912.42771296832, -77616.05264139804, -48219.59712738957, -87576.23583987186, -30959.93768691274, 0.0, 0.0, 0.0, 193.0, 0.0, 1.0, 1.0, 0.0, 0.0, 1.0, 1.0, 256.0, 1.0, 1.750527915173345E9, 0.0, 2025-06-21 19:45:15.173
246.0, -43375.8399934578, -37958.961779947495, -29342.81132731573, -71750.93254458101, -27401.741135327953, -28263.445587568953, -52208.60120160595, -99341.43416183403, -187500.02235174447, -187500.02235174447, -47233.46051376588, -45904.76106462015, -77621.35000483395, -48203.16859521492, -87585.75768300983, -30944.492631494122, 0.0, 0.0, 0.0, 193.0, 0.0, 1.0, 1.0, 0.0, 0.0, 1.0, 1.0, 256.0, 1.0, 1.750527915182405E9, 0.0, 2025-06-21 19:45:15.182
248.0, -43389.76513025345, -37977.44667261204, -29347.81811807372, -71771.49614947989, -27402.031708005874, -28237.24934306733, -52227.890757070876, -99361.84130452172, -187500.02235174447, -187500.02235174447, -47223.53633922772, -45894.68042787081, -77612.565769263, -48195.03256023319, -87579.45449107344, -30934.568456955967, 0.0, 0.0, 0.0, 193.0, 0.0, 1.0, 1.0, 0.0, 0.0, 1.0, 1.0, 256.0, 1.0, 1.75052791519043E9, 0.0, 2025-06-21 19:45:15.190
250.0, -43383.39488308369, -37966.06963468428, -29351.081472764192, -71761.52727145283, -27399.640071349153, -28219.457354480906, -52203.61676259241, -99345.47982758044, -187500.02235174447, -187500.02235174447, -47240.613071991575, -45908.44910245528, -77612.61047275191, -48224.223938491814, -87570.75966248033, -30961.055274135506, 0.0, 0.0, 0.0, 193.0, 0.0, 1.0, 1.0, 0.0, 0.0, 1.0, 1.0, 256.0, 1.0, 1.750527915197446E9, 0.0, 2025-06-21 19:45:15.197
252.0, -43356.796307181874, -37944.09786988472, -29323.3206061507, -71740.91896306502, -27369.308754123304, -28191.58472914514, -52200.91220151332, -99328.80542621679, -187500.02235174447, -187500.02235174447, -47222.15053107149, -45889.42776792381, -77613.66100474131, -48191.813909031625, -87593.67020054701, -30930.88041912084, 0.0, 0.0, 0.0, 193.0, 0.0, 1.0, 1.0, 0.0, 0.0, 1.0, 1.0, 256.0, 1.0, 1.750527915206403E9, 0.0, 2025-06-21 19:45:15.206
254.0, -43403.10912169327, -37985.56035584931, -29359.932763568493, -71783.00729787437, -27410.592426132254, -28229.895619141535, -52231.511739672635, -99369.5079528699, -187500.02235174447, -187500.02235174447, -47222.932842127426, -45897.94378256128, -77598.23830106716, -48201.939249269875, -87545.166915079, -30943.755023927097, 0.0, 0.0, 0.0, 193.0, 0.0, 1.0, 1.0, 0.0, 0.0, 1.0, 1.0, 256.0, 1.0, 1.750527915214485E9, 0.0, 2025-06-21 19:45:15.214
0.0, -43391.21799364305, -37972.596344065234, -29362.547917669766, -71765.93056511052, -27417.3203012133, -28236.735252944858, -52222.9286698018, -99364.38940338962, -187500.02235174447, -187500.02235174447, -47255.61109252109, -45919.84849212748, -77639.38786260938, -48226.16854025943, -87610.32225016621, -30965.436216048747, 0.0, 0.0, 0.0, 193.0, 0.0, 1.0, 1.0, 0.0, 0.0, 1.0, 1.0, 256.0, 1.0, 1.750527915221501E9, 0.0, 2025-06-21 19:45:15.221
2.0, -43386.41236858516, -37967.09781492923, -29338.18451621348, -71767.1375593111, -27383.479760107966, -28226.185229561954, -52238.10550428695, -99362.33304289974, -187500.02235174447, -187500.02235174447, -47223.20106306089, -45897.00500929416, -77614.37626056389, -48200.888717280475, -87583.61191554212, -30943.777375671554, 0.0, 0.0, 0.0, 193.0, 0.0, 1.0, 1.0, 0.0, 0.0, 1.0, 1.0, 256.0, 1.0, 1.750527915229535E9, 0.0, 2025-06-21 19:45:15.229
4.0, -43388.960467453064, -37966.33785561775, -29353.629571632096, -71768.9927541009, -27393.627452090677, -28215.88107536806, -52236.33971647498, -99371.4078511486, -187500.02235174447, -187500.02235174447, -47243.22822609285, -45921.36841075044, -77622.93697869027, -48234.371630474525, -87576.68287476098, -30978.668448766286, 0.0, 0.0, 0.0, 193.0, 0.0, 1.0, 1.0, 0.0, 0.0, 1.0, 1.0, 256.0, 1.0, 1.750527915238538E9, 0.0, 2025-06-21 19:45:15.238
6.0, -43382.947848194584, -37968.058939940805, -29354.031903032293, -71767.7857599003, -27405.00449001843, -28245.363026304607, -52229.701248371755, -99372.74895581591, -187500.02235174447, -187500.02235174447, -47221.25646129328, -45888.779567334605, -77615.0244611531, -48198.27356317921, -87600.86746226162, -30940.424614003256, 0.0, 0.0, 0.0, 193.0, 0.0, 1.0, 1.0, 0.0, 0.0, 1.0, 1.0, 256.0, 1.0, 1.750527915246606E9, 0.0, 2025-06-21 19:45:15.246
8.0, -43383.41723482814, -37970.584687064256, -29352.869612320617, -71781.46502750696, -27404.37864117368, -28224.419441749986, -52225.94615530326, -99372.2572174379, -187500.02235174447, -187500.02235174447, -47241.26127258078, -45914.52877694712, -77617.99724316565, -48238.2384822653, -87583.7236742644, -30979.540166800045, 0.0, 0.0, 0.0, 193.0, 0.0, 1.0, 1.0, 0.0, 0.0, 1.0, 1.0, 256.0, 1.0, 1.750527915253605E9, 0.0, 2025-06-21 19:45:15.253
10.0, -43387.88758371921, -37972.03755045385, -29346.09703375066, -71762.35428599767, -27386.810170031808, -28225.648787695027, -52233.277527484606, -99364.52351385636, -187500.02235174447, -187500.02235174447, -47235.06983936666, -45908.38204722191, -77620.45593505572, -48227.241423993284, -87600.44277911697, -30968.967791672683, 0.0, 0.0, 0.0, 193.0, 0.0, 1.0, 1.0, 0.0, 0.0, 1.0, 1.0, 256.0, 1.0, 1.750527915261654E9, 0.0, 2025-06-21 19:45:15.261
12.0, -43413.234461931526, -37991.79649255234, -29349.829775074697, -71775.40770475956, -27395.57205385829, -28218.384470747053, -52235.33388797449, -99377.06284249578, -187500.02235174447, -187500.02235174447, -47228.56548173016, -45900.581288407004, -77616.36556582041, -48212.73514184179, -87585.64592428756, -30955.109710110395, 0.0, 0.0, 0.0, 193.0, 0.0, 1.0, 1.0, 0.0, 0.0, 1.0, 1.0, 256.0, 1.0, 1.750527915270653E9, 0.0, 2025-06-21 19:45:15.270
14.0, -43420.81170330187, -37996.69152458805, -29358.993990301373, -71773.93248962551, -27417.208542491026, -28207.745040386326, -52233.56810016252, -99372.81601104928, -187500.02235174447, -187500.02235174447, -47241.64125223652, -45909.07495130002, -77614.39861230835, -48230.41537170594, -87573.84420321515, -30970.532413784556, 0.0, 0.0, 0.0, 193.0, 0.0, 1.0, 1.0, 0.0, 0.0, 1.0, 1.0, 256.0, 1.0, 1.750527915277708E9, 0.0, 2025-06-21 19:45:15.277
16.0, -43419.381191656736, -37993.09289373075, -29371.175691029515, -71778.35813502767, -27423.779955360886, -28255.0189799093, -52237.18908276428, -99374.02300524987, -187500.02235174447, -187500.02235174447, -47251.69953724141, -45913.07591355752, -77643.76880452261, -48223.329868713605, -87627.08605850769, -30964.452739292712, 0.0, 0.0, 0.0, 193.0, 0.0, 1.0, 1.0, 0.0, 0.0, 1.0, 1.0, 256.0, 1.0, 1.750527915285726E9, 0.0, 2025-06-21 19:45:15.285
18.0, -43420.990517257516, -37992.26587918591, -29373.790845130785, -71797.17830385904, -27407.753754586432, -28208.125020042065, -52260.50195223116, -99390.51859265789, -187500.02235174447, -187500.02235174447, -47249.66552849597, -45917.05452407057, -77626.17798163628, -48239.80310437717, -87592.48555809088, -30980.009553433607, 0.0, 0.0, 0.0, 193.0, 0.0, 1.0, 1.0, 0.0, 0.0, 1.0, 1.0, 256.0, 1.0, 1.750527915293783E9, 0.0, 2025-06-21 19:45:15.293
20.0, -43400.002229213984, -37970.47292834198, -29369.074627050715, -71773.0384198473, -27413.095821511248, -28223.748889416325, -52241.167693277326, -99372.2572174379, -187500.02235174447, -187500.02235174447, -47258.0027291778, -45922.061314828556, -77641.93596147728, -48241.25596776676, -87617.7877328143, -30982.69176276824, 0.0, 0.0, 0.0, 193.0, 0.0, 1.0, 1.0, 0.0, 0.0, 1.0, 1.0, 256.0, 1.0, 1.750527915302794E9, 0.0, 2025-06-21 19:45:15.302
22.0, -43414.3967526432, -37992.19882395254, -29369.34284798418, -71786.4941700094, -27420.60600764823, -28203.58761591764, -52242.62055666692, -99392.79847059233, -187500.02235174447, -187500.02235174447, -47247.899740684006, -45909.253765255664, -77632.81644973952, -48231.95764207335, -87616.75955256935, -30971.381780073858, 0.0, 0.0, 0.0, 193.0, 0.0, 1.0, 1.0, 0.0, 0.0, 1.0, 1.0, 256.0, 1.0, 1.750527915309855E9, 0.0, 2025-06-21 19:45:15.309
24.0, -43404.204357171584, -37963.38742534965, -29362.927897325506, -71782.58261472972, -27419.37666170319, -28201.464200194383, -52249.14726604787, -99376.21347620648, -187500.02235174447, -187500.02235174447, -47248.27972033974, -45913.03121006861, -77618.89131294386, -48240.9877468333, -87581.35438935214, -30981.32830635647, 0.0, 0.0, 0.0, 193.0, 0.0, 1.0, 1.0, 0.0, 0.0, 1.0, 1.0, 256.0, 1.0, 1.750527915317916E9, 0.0, 2025-06-21 19:45:15.317
26.0, -43398.951697224584, -37965.86846898418, -29362.23499324739, -71779.27455655034, -27423.645844894156, -28262.48446255737, -52247.76145789164, -99381.19791522002, -187500.02235174447, -187500.02235174447, -47241.30597606969, -45907.91266058834, -77632.57058055051, -48223.10635126905, -87614.926709524, -30965.905602682305, 0.0, 0.0, 0.0, 193.0, 0.0, 1.0, 1.0, 0.0, 0.0, 1.0, 1.0, 256.0, 1.0, 1.750527915326952E9, 0.0, 2025-06-21 19:45:15.326
28.0, -43421.035220746424, -37994.3669431647, -29378.037676577293, -71794.16081835757, -27424.159935016625, -28208.61675842008, -52254.84696088397, -99396.39710144963, -187500.02235174447, -187500.02235174447, -47257.48863905533, -45913.29943100207, -77627.0720514145, -48244.54167420169, -87591.90441273504, -30984.36814360239, 0.0, 0.0, 0.0, 193.0, 0.0, 1.0, 1.0, 0.0, 0.0, 1.0, 1.0, 256.0, 1.0, 1.750527915333909E9, 0.0, 2025-06-21 19:45:15.333
30.0, -43394.25783088897, -37962.00161719342, -29364.648981648563, -71764.96944009894, -27416.64974887964, -28229.38152901906, -52267.45334475677, -99376.41464190658, -187500.02235174447, -187500.02235174447, -47265.557618803694, -45918.37327699343, -77646.36160687944, -48252.901226627975, -87629.47769516442, -30992.884158239864, 0.0, 0.0, 0.0, 193.0, 0.0, 1.0, 1.0, 0.0, 0.0, 1.0, 1.0, 256.0, 1.0, 1.750527915341918E9, 0.0, 2025-06-21 19:45:15.341
32.0, -43425.41616265967, -37982.118187203196, -29394.779133174317, -71807.25894060839, -27447.584563205786, -28234.79065117725, -52248.230844525206, -99394.38544444865, -187500.02235174447, -187500.02235174447, -47238.33319405714, -45900.93891631829, -77621.26059785612, -48225.05095303666, -87613.1832734565, -30965.011532904096, 0.0, 0.0, 0.0, 193.0, 0.0, 1.0, 1.0, 0.0, 0.0, 1.0, 1.0, 256.0, 1.0, 1.750527915349893E9, 0.0, 2025-06-21 19:45:15.349
34.0, -43407.288897906416, -37963.65564628311, -29369.745179384376, -71779.0957425947, -27429.367891474714, -28216.506924212805, -52274.27062681563, -99409.69638940053, -187500.02235174447, -187500.02235174447, -47289.25046792632, -45943.20606508328, -77658.90093551886, -48276.63877923951, -87626.01317477383, -31016.934635273774, 0.0, 0.0, 0.0, 193.0, 0.0, 1.0, 1.0, 0.0, 0.0, 1.0, 1.0, 256.0, 1.0, 1.750527915358997E9, 0.0, 2025-06-21 19:45:15.358
36.0, -43381.338522593804, -37969.400044608126, -29352.802557087252, -71757.25808826186, -27412.067641266305, -28224.285331283252, -52232.204643750745, -99373.24069419393, -187500.02235174447, -187500.02235174447, -47229.370144530556, -45889.45011966826, -77624.03221416858, -48217.384304688494, -87616.3795729136, -30956.942553155728, 0.0, 0.0, 0.0, 193.0, 0.0, 1.0, 1.0, 0.0, 0.0, 1.0, 1.0, 256.0, 1.0, 1.750527915366005E9, 0.0, 2025-06-21 19:45:15.366
38.0, -43390.65920003167, -37972.43988185404, -29361.027999046804, -71782.71672519646, -27413.98989128946, -28200.659537393993, -52246.129780546406, -99391.70323511401, -187500.02235174447, -187500.02235174447, -47235.852150422594, -45893.16050924784, -77606.39668779334, -48225.006249547754, -87574.2241828709, -30962.93282066975, 0.0, 0.0, 0.0, 193.0, 0.0, 1.0, 1.0, 0.0, 0.0, 1.0, 1.0, 256.0, 1.0, 1.750527915374058E9, 0.0, 2025-06-21 19:45:15.374
40.0, -43393.229650644025, -37968.84125099674, -29366.459472949446, -71776.16766407105, -27422.349443715746, -28253.566116519705, -52248.432010225304, -99390.49624091343, -187500.02235174447, -187500.02235174447, -47249.68788024043, -45915.199329280775, -77636.59389455247, -48245.905130613464, -87619.3300031817, -30984.837530235953, 0.0, 0.0, 0.0, 193.0, 0.0, 1.0, 1.0, 0.0, 0.0, 1.0, 1.0, 256.0, 1.0, 1.750527915382105E9, 0.0, 2025-06-21 19:45:15.382
42.0, -43379.21510687055, -37928.630462721645, -29358.591658901176, -71778.20167281647, -27411.95588254403, -28214.294101511732, -52230.41650419433, -99382.20374372051, -187500.02235174447, -187500.02235174447, -47226.75499042928, -45899.351942461966, -77619.13718213286, -48225.45328443686, -87604.01905822982, -30965.995009660128, 0.0, 0.0, 0.0, 193.0, 0.0, 1.0, 1.0, 0.0, 0.0, 1.0, 1.0, 256.0, 1.0, 1.750527915390108E9, 0.0, 2025-06-21 19:45:15.390
44.0, -43411.73689505302, -37975.546774333336, -29393.415676762543, -71806.0519464078, -27440.364949746723, -28244.424253037483, -52269.196780824284, -99402.5661829193, -187500.02235174447, -187500.02235174447, -47274.74418577483, -45934.98062312372, -77644.3723016229, -48260.813744165156, -87604.73431405239, -31000.66256531031, 0.0, 0.0, 0.0, 193.0, 0.0, 1.0, 1.0, 0.0, 0.0, 1.0, 1.0, 256.0, 1.0, 1.750527915398122E9, 0.0, 2025-06-21 19:45:15.398
46.0, -43442.96228205708, -38025.34646097976, -29369.76753112883, -71774.11130358116, -27428.80909786333, -28250.503927529327, -52231.95877456174, -99376.57110411777, -187500.02235174447, -187500.02235174447, -47232.074705609644, -45900.02249479562, -77637.86794398642, -48225.11800827003, -87626.41550617403, -30967.44787304972, 0.0, 0.0, 0.0, 193.0, 0.0, 1.0, 1.0, 0.0, 0.0, 1.0, 1.0, 256.0, 1.0, 1.7505279154062E9, 0.0, 2025-06-21 19:45:15.406
48.0, -43524.18852140767, -38097.58729905931, -29392.163979073048, -71810.43288832104, -27441.728406158498, -28235.684720955458, -52261.61953945393, -99400.17454626257, -187500.02235174447, -187500.02235174447, -47267.390461849034, -45930.174998065835, -77652.95537149375, -48253.92940687292, -87607.50593036484, -30994.337021629457, 0.0, 0.0, 0.0, 193.0, 0.0, 1.0, 1.0, 0.0, 0.0, 1.0, 1.0, 256.0, 1.0, 1.750527915413284E9, 0.0, 2025-06-21 19:45:15.413
50.0, -43570.07665277441, -38143.29661647041, -29388.788865660295, -71800.93339692753, -27423.131754771683, -28260.539860789762, -52240.09480954347, -99379.67799659706, -187500.02235174447, -187500.02235174447, -47284.869526013084, -45947.005861640675, -77672.15551998085, -48250.174313804426, -87624.35914568415, -30994.672297796285, 0.0, 0.0, 0.0, 193.0, 0.0, 1.0, 1.0, 0.0, 0.0, 1.0, 1.0, 256.0, 1.0, 1.750527915421172E9, 0.0, 2025-06-21 19:45:15.421
52.0, -43668.64784582232, -38253.24484744607, -29398.266005309346, -71815.70790001248, -27431.647769409155, -28236.82465992268, -52249.63900442589, -99402.32031373028, -187500.02235174447, -187500.02235174447, -47287.48468011435, -45950.85036168699, -77680.7385898517, -48242.50766545626, -87618.30182293676, -30984.32344011348, 0.0, 0.0, 0.0, 193.0, 0.0, 1.0, 1.0, 0.0, 0.0, 1.0, 1.0, 256.0, 1.0, 1.750527915430259E9, 0.0, 2025-06-21 19:45:15.430
54.0, -43769.6330272714, -38309.43713300671, -29420.371880575643, -71831.5552868313, -27448.00924635044, -28266.284259114775, -52248.02967882511, -99400.95685731851, -187500.02235174447, -187500.02235174447, -47332.70225914744, -45983.305094636096, -77705.07963956353, -48277.152869361984, -87615.15022696856, -31015.906455028828, 0.0, 0.0, 0.0, 193.0, 0.0, 1.0, 1.0, 0.0, 0.0, 1.0, 1.0, 256.0, 1.0, 1.750527915438226E9, 0.0, 2025-06-21 19:45:15.438
56.0, -43841.4491822063, -38416.591395925454, -29417.2426363519, -71829.29776064132, -27438.688568912577, -28282.69043954497, -52246.398001479865, -99400.12984277366, -187500.02235174447, -187500.02235174447, -47335.60798592663, -45986.166117926376, -77726.38085202943, -48259.07030809764, -87645.97328257243, -30998.98618447616, 0.0, 0.0, 0.0, 193.0, 0.0, 1.0, 1.0, 0.0, 0.0, 1.0, 1.0, 256.0, 1.0, 1.750527915445246E9, 0.0, 2025-06-21 19:45:15.445
58.0, -43905.866909726494, -38470.36969308492, -29430.944255703005, -71851.47069114097, -27436.60985667823, -28271.961602206422, -52279.7915076961, -99411.39512197913, -187500.02235174447, -187500.02235174447, -47353.01999485731, -45999.510109366194, -77729.95713114228, -48282.60669500908, -87620.42523866001, -31023.103716743437, 0.0, 0.0, 0.0, 193.0, 0.0, 1.0, 1.0, 0.0, 0.0, 1.0, 1.0, 256.0, 1.0, 1.750527915453319E9, 0.0, 2025-06-21 19:45:15.453
60.0, -43908.59382255004, -38453.583532998986, -29437.716834272964, -71835.84682176673, -27444.410615493136, -28292.994593738866, -52236.29501298607, -99400.44276719604, -187500.02235174447, -187500.02235174447, -47378.72450098092, -46014.0610950066, -77759.61789603447, -48286.674712499946, -87655.2939600103, -31028.401080179345, 0.0, 0.0, 0.0, 193.0, 0.0, 1.0, 1.0, 0.0, 0.0, 1.0, 1.0, 256.0, 1.0, 1.75052791546236E9, 0.0, 2025-06-21 19:45:15.462
62.0, -43922.518959345696, -38495.29188815259, -29436.73335751693, -71848.05087423931, -27433.011225820926, -28257.097692143645, -52233.56810016252, -99411.14925279013, -187500.02235174447, -187500.02235174447, -47367.4815735199, -46001.25354543371, -77752.1524133864, -48259.27147379774, -87634.39507894458, -31004.060030467517, 0.0, 0.0, 0.0, 193.0, 0.0, 1.0, 1.0, 0.0, 0.0, 1.0, 1.0, 256.0, 1.0, 1.750527915469376E9, 0.0, 2025-06-21 19:45:15.469
64.0, -43928.620985582, -38479.9809432007, -29449.607962323185, -71854.82345280927, -27450.847917896263, -28275.89550923056, -52257.75268766317, -99408.7129126445, -187500.02235174447, -187500.02235174447, -47398.14816691258, -46028.09799052453, -77767.82098624957, -48302.45504408539, -87645.34743372769, -31042.77325186411, 0.0, 0.0, 0.0, 193.0, 0.0, 1.0, 1.0, 0.0, 0.0, 1.0, 1.0, 256.0, 1.0, 1.750527915477413E9, 0.0, 2025-06-21 19:45:15.477
66.0, -43894.3110578431, -38436.48444849068, -29438.722662773453, -71849.61549635118, -27446.802252149853, -28289.775942537304, -52258.60205395247, -99412.04332256834, -187500.02235174447, -187500.02235174447, -47365.29110256328, -46006.41679840288, -77763.01536119168, -48270.514401258755, -87656.25508502187, -31016.554655618034, 0.0, 0.0, 0.0, 193.0, 0.0, 1.0, 1.0, 0.0, 0.0, 1.0, 1.0, 256.0, 1.0, 1.75052791548635E9, 0.0, 2025-06-21 19:45:15.486
68.0, -43859.77761265965, -38404.67791613077, -29430.38546209162, -71850.1072347292, -27435.894600855663, -28246.92764841648, -52265.77696392262, -99421.25224128393, -187500.02235174447, -187500.02235174447, -47372.93539916699, -46016.18451072985, -77752.44298606431, -48301.136291162526, -87638.5301516688, -31040.582780907487, 0.0, 0.0, 0.0, 193.0, 0.0, 1.0, 1.0, 0.0, 0.0, 1.0, 1.0, 256.0, 1.0, 1.750527915494426E9, 0.0, 2025-06-21 19:45:15.494
70.0, -43810.871995791436, -38358.4545085972, -29432.464174325967, -71837.21027817849, -27446.62343819421, -28283.83037851219, -52252.902359116364, -99409.65168591162, -187500.02235174447, -187500.02235174447, -47354.629320458094, -45999.42070238837, -77741.53533477013, -48287.18880262242, -87653.77404138733, -31025.60711212243, 0.0, 0.0, 0.0, 193.0, 0.0, 1.0, 1.0, 0.0, 0.0, 1.0, 1.0, 256.0, 1.0, 1.750527915501403E9, 0.0, 2025-06-21 19:45:15.501
72.0, -43786.97798096872, -38332.146505373305, -29417.712022985463, -71839.13252820165, -27443.941228859574, -28236.958770389414, -52273.75653669317, -99415.75371214793, -187500.02235174447, -187500.02235174447, -47337.84316037216, -45989.63063831695, -77730.00183463118, -48272.70487221538, -87642.62052090414, -31014.118315472406, 0.0, 0.0, 0.0, 193.0, 0.0, 1.0, 1.0, 0.0, 0.0, 1.0, 1.0, 256.0, 1.0, 1.750527915509452E9, 0.0, 2025-06-21 19:45:15.509
74.0, -43763.66511150183, -38310.040630107, -29434.4981830714, -71847.29091492784, -27457.687551699586, -28296.928500763002, -52275.74584194968, -99425.67788668608, -187500.02235174447, -187500.02235174447, -47348.25907328833, -46000.67240007787, -77727.52079099666, -48299.43755858392, -87638.0831167797, -31037.319426217015, 0.0, 0.0, 0.0, 193.0, 0.0, 1.0, 1.0, 0.0, 0.0, 1.0, 1.0, 256.0, 1.0, 1.750527915518471E9, 0.0, 2025-06-21 19:45:15.518
76.0, -43722.11321855941, -38270.835670332395, -29420.841267209205, -71829.76714727488, -27443.024807336904, -28288.45718961444, -52263.22886505471, -99415.32902900327, -187500.02235174447, -187500.02235174447, -47339.65365167304, -45987.1048911935, -77738.29433182412, -48273.35307280458, -87659.69725366798, -31015.23590269517, 0.0, 0.0, 0.0, 193.0, 0.0, 1.0, 1.0, 0.0, 0.0, 1.0, 1.0, 256.0, 1.0, 1.750527915525586E9, 0.0, 2025-06-21 19:45:15.525
78.0, -43734.585491965474, -38286.548946684474, -29446.00933146588, -71865.99932503693, -27450.982028362996, -28260.539860789762, -52288.01694965565, -99436.36202053571, -187500.02235174447, -187500.02235174447, -47349.55547446674, -46001.49941462272, -77731.18647708732, -48300.68925627342, -87644.6321779051, -31040.962760563227, 0.0, 0.0, 0.0, 193.0, 0.0, 1.0, 1.0, 0.0, 0.0, 1.0, 1.0, 256.0, 1.0, 1.750527915533544E9, 0.0, 2025-06-21 19:45:15.533
80.0, -43683.26588669609, -38239.36441413932, -29429.11141265767, -71834.12573744365, -27441.14726080266, -28282.288108144774, -52270.20260932477, -99412.26684001289, -187500.02235174447, -187500.02235174447, -47347.297948276755, -45998.83955703254, -77736.81911669007, -48295.07896841514, -87660.47956472392, -31036.58181864999, 0.0, 0.0, 0.0, 193.0, 0.0, 1.0, 1.0, 0.0, 0.0, 1.0, 1.0, 256.0, 1.0, 1.750527915541626E9, 0.0, 2025-06-21 19:45:15.541
82.0, -43686.4621861532, -38253.781289312996, -29430.318406858256, -71853.34823767522, -27455.16180457614, -28236.802308178227, -52280.506763518664, -99424.82852039678, -187500.02235174447, -187500.02235174447, -47327.516654433806, -45981.44989984631, -77719.45181124829, -48280.08094788563, -87653.12584079812, -31020.421507408802, 0.0, 0.0, 0.0, 193.0, 0.0, 1.0, 1.0, 0.0, 0.0, 1.0, 1.0, 256.0, 1.0, 1.750527915550605E9, 0.0, 2025-06-21 19:45:15.550
84.0, -43694.061779268006, -38259.8833155493, -29446.59047682172, -71868.03333378235, -27463.253136068957, -28264.58552653617, -52272.77305993713, -99434.55152923484, -187500.02235174447, -187500.02235174447, -47358.764393182326, -46023.33706895555, -77737.91435216837, -48317.81069252619, -87645.3921372166, -31059.20178403876, 0.0, 0.0, 0.0, 193.0, 0.0, 1.0, 1.0, 0.0, 0.0, 1.0, 1.0, 256.0, 1.0, 1.750527915557638E9, 0.0, 2025-06-21 19:45:15.557
86.0, -43659.61774106237, -38233.776478025495, -29426.11627890066, -71845.30160967131, -27441.415481736123, -28311.390079425586, -52259.741992919684, -99423.84504364074, -187500.02235174447, -187500.02235174447, -47334.73626789287, -45995.50914710869, -77734.91921841136, -48292.03913116922, -87672.81772766325, -31034.7266238602, 0.0, 0.0, 0.0, 193.0, 0.0, 1.0, 1.0, 0.0, 0.0, 1.0, 1.0, 256.0, 1.0, 1.750527915565629E9, 0.0, 2025-06-21 19:45:15.565
88.0, -43699.38149444837, -38262.789042328484, -29454.190069936525, -71879.67859264357, -27472.14913036217, -28268.9217649605, -52293.06844390255, -99451.18122710958, -187500.02235174447, -187500.02235174447, -47344.5263319643, -46006.41679840288, -77727.78901193012, -48314.79320702472, -87644.9898058164, -31055.089063058982, 0.0, 0.0, 0.0, 193.0, 0.0, 1.0, 1.0, 0.0, 0.0, 1.0, 1.0, 256.0, 1.0, 1.750527915573686E9, 0.0, 2025-06-21 19:45:15.573
90.0, -43672.53704935754, -38244.03592873048, -29459.800357794807, -71863.65239186912, -27451.76433941893, -28312.64177711508, -52257.6856324298, -99415.64195342564, -187500.02235174447, -187500.02235174447, -47362.832410673196, -46020.29723170963, -77754.4546430653, -48322.61631758408, -87679.23267832193, -31065.661438186344, 0.0, 0.0, 0.0, 193.0, 0.0, 1.0, 1.0, 0.0, 0.0, 1.0, 1.0, 256.0, 1.0, 1.750527915581709E9, 0.0, 2025-06-21 19:45:15.581
92.0, -43681.2095262062, -38245.35468165334, -29455.285305414833, -71878.00221180942, -27455.05004585386, -28276.633116797584, -52280.55146700758, -99418.59238369374, -187500.02235174447, -187500.02235174447, -47356.95390188145, -46009.926022282365, -77751.101881397, -48312.535680834735, -87683.56891674626, -31052.652722913354, 0.0, 0.0, 0.0, 193.0, 0.0, 1.0, 1.0, 0.0, 0.0, 1.0, 1.0, 256.0, 1.0, 1.750527915589735E9, 0.0, 2025-06-21 19:45:15.589
94.0, -43684.87521229687, -38249.42269914421, -29463.93543051904, -71883.79131362335, -27471.545633261878, -28284.143302934564, -52271.61076922545, -99418.83825288275, -187500.02235174447, -187500.02235174447, -47369.09089912068, -46033.127133026974, -77754.09701515401, -48341.10121024862, -87667.76623341635, -31083.095798861483, 0.0, 0.0, 0.0, 193.0, 0.0, 1.0, 1.0, 0.0, 0.0, 1.0, 1.0, 256.0, 1.0, 1.750527915597774E9, 0.0, 2025-06-21 19:45:15.597
96.0, -43657.04729045001, -38228.814390756415, -29442.276590141846, -71863.22770872447, -27443.091862570272, -28256.15891887652, -52268.25800755716, -99411.12690104567, -187500.02235174447, -187500.02235174447, -47348.86257038863, -46012.89880429492, -77751.81713721956, -48312.110997690084, -87697.87403319764, -31052.76448163563, 0.0, 0.0, 0.0, 193.0, 0.0, 1.0, 1.0, 0.0, 0.0, 1.0, 1.0, 256.0, 1.0, 1.750527915606823E9, 0.0, 2025-06-21 19:45:15.606
98.0, -43669.05017722252, -38240.66081531773, -29450.12205244566, -71875.58822340825, -27452.81487140833, -28250.995665907347, -52295.52713579263, -99441.72643920498, -187500.02235174447, -187500.02235174447, -47344.79455289776, -46010.14953972692, -77730.62768347593, -48320.291736160725, -87648.43197446251, -31060.4311299838, 0.0, 0.0, 0.0, 193.0, 0.0, 1.0, 1.0, 0.0, 0.0, 1.0, 1.0, 256.0, 1.0, 1.750527915612874E9, 0.0, 2025-06-21 19:45:15.612
100.0, -43656.10851718289, -38224.25463488753, -29453.765386791874, -71866.58047039277, -27479.34639207678, -28275.44847434145, -52280.75263270768, -99431.0199536109, -187500.02235174447, -187500.02235174447, -47356.99860537036, -46017.81618807509, -77745.31277958308, -48329.254785687306, -87689.33566681572, -31067.76250216514, 0.0, 0.0, 0.0, 193.0, 0.0, 1.0, 1.0, 0.0, 0.0, 1.0, 1.0, 256.0, 1.0, 1.750527915621976E9, 0.0, 2025-06-21 19:45:15.621
102.0, -43673.38641564684, -38240.347890895355, -29451.418453624065, -71871.00611579491, -27471.411522795144, -28298.001384496856, -52300.243353872705, -99455.98685216748, -187500.02235174447, -187500.02235174447, -47349.48841923338, -46006.97559201427, -77740.90948592538, -48316.55899483669, -87692.15198661709, -31051.401025223855, 0.0, 0.0, 0.0, 193.0, 0.0, 1.0, 1.0, 0.0, 0.0, 1.0, 1.0, 256.0, 1.0, 1.750527915629903E9, 0.0, 2025-06-21 19:45:15.629
104.0, -43667.7090725552, -38232.725946036095, -29448.669189056065, -71861.86425231269, -27453.775996419907, -28294.089829217177, -52312.805034256584, -99450.01893639792, -187500.02235174447, -187500.02235174447, -47355.52339023631, -46010.82009206058, -77735.34390155601, -48323.39862864002, -87650.8906663526, -31062.599249195966, 0.0, 0.0, 0.0, 193.0, 0.0, 1.0, 1.0, 0.0, 0.0, 1.0, 1.0, 256.0, 1.0, 1.7505279156379E9, 0.0, 2025-06-21 19:45:15.637
106.0, -43658.656616050794, -38221.23714938607, -29440.980188963436, -71847.9614672615, -27478.76524672094, -28290.424143126507, -52292.73316773572, -99430.5729187218, -187500.02235174447, -187500.02235174447, -47335.56328243772, -45989.07184470557, -77734.29336956661, -48287.233506111326, -87677.4445387655, -31027.28349295658, 0.0, 0.0, 0.0, 193.0, 0.0, 1.0, 1.0, 0.0, 0.0, 1.0, 1.0, 256.0, 1.0, 1.75052791564494E9, 0.0, 2025-06-21 19:45:15.644
108.0, -43682.2600581956, -38242.78423104098, -29453.49716585841, -71873.80008385183, -27454.379493520202, -28267.603012037638, -52293.33666483601, -99439.13363684817, -187500.02235174447, -187500.02235174447, -47352.93058787949, -46012.34001068354, -77739.43427079133, -48314.05559945769, -87661.88772462461, -31050.819879868017, 0.0, 0.0, 0.0, 193.0, 0.0, 1.0, 1.0, 0.0, 0.0, 1.0, 1.0, 256.0, 1.0, 1.750527915653977E9, 0.0, 2025-06-21 19:45:15.653
110.0, -43657.94136022823, -38222.35473660883, -29452.089005957725, -71854.13054873116, -27487.862406714252, -28313.200570726465, -52293.87310670294, -99422.0122005954, -187500.02235174447, -187500.02235174447, -47354.67402394701, -46011.1106647385, -77746.18449761684, -48308.64647729951, -87678.76329168836, -31046.61775191042, 0.0, 0.0, 0.0, 193.0, 0.0, 1.0, 1.0, 0.0, 0.0, 1.0, 1.0, 256.0, 1.0, 1.750527915662024E9, 0.0, 2025-06-21 19:45:15.662
112.0, -43673.855802280406, -38237.15159143825, -29446.344607632713, -71867.92157506009, -27481.045124655382, -28232.10844184261, -52313.96732496826, -99443.42517178359, -187500.02235174447, -187500.02235174447, -47345.554512209244, -46002.5052431232, -77739.70249172479, -48308.37825636605, -87686.47464352545, -31044.181411764792, 0.0, 0.0, 0.0, 193.0, 0.0, 1.0, 1.0, 0.0, 0.0, 1.0, 1.0, 256.0, 1.0, 1.750527915669069E9, 0.0, 2025-06-21 19:45:15.669
114.0, -43664.892752753825, -38233.86588500332, -29447.372787877655, -71869.32973496077, -27466.740008203986, -28264.02673292479, -52275.3882140384, -99435.11032284622, -187500.02235174447, -187500.02235174447, -47361.915989150526, -46023.292365466645, -77742.38470105943, -48330.66294558799, -87660.16664030156, -31067.5836882095, 0.0, 0.0, 0.0, 193.0, 0.0, 1.0, 1.0, 0.0, 0.0, 1.0, 1.0, 256.0, 1.0, 1.750527915678038E9, 0.0, 2025-06-21 19:45:15.678
116.0, -43657.80724976149, -38226.55686456643, -29450.79260477932, -71866.9604500485, -27475.412485052646, -28318.430878929008, -52277.75749895066, -99435.19972982405, -187500.02235174447, -187500.02235174447, -47343.94518660846, -46002.304077423105, -77742.58586675953, -48296.35301784909, -87673.57768697474, -31037.900571572853, 0.0, 0.0, 0.0, 193.0, 0.0, 1.0, 1.0, 0.0, 0.0, 1.0, 1.0, 256.0, 1.0, 1.750527915686051E9, 0.0, 2025-06-21 19:45:15.686
118.0, -43696.74398860264, -38259.32452193791, -29467.243488698423, -71892.26262477192, -27475.47954028601, -28266.507776559327, -52299.90807770587, -99449.88482593118, -187500.02235174447, -187500.02235174447, -47371.348425310665, -46026.645127134936, -77753.18059363135, -48333.68043108946, -87669.28615203932, -31071.137615577893, 0.0, 0.0, 0.0, 193.0, 0.0, 1.0, 1.0, 0.0, 0.0, 1.0, 1.0, 256.0, 1.0, 1.750527915693103E9, 0.0, 2025-06-21 19:45:15.693
120.0, -43669.47486036717, -38231.250730902044, -29453.944200747515, -71859.56202263379, -27486.275432857925, -28286.378477380094, -52273.13068784842, -99432.74103793396, -187500.02235174447, -187500.02235174447, -47376.3328643242, -46032.233063248765, -77768.33507637204, -48330.59589035463, -87694.90125118509, -31068.589516709988, 0.0, 0.0, 0.0, 193.0, 0.0, 1.0, 1.0, 0.0, 0.0, 1.0, 1.0, 256.0, 1.0, 1.750527915701119E9, 0.0, 2025-06-21 19:45:15.701
122.0, -43669.34074990043, -38235.117582692816, -29443.21536340897, -71865.30642095882, -27453.351313275256, -28260.048122411743, -52281.356129807966, -99426.77312216439, -187500.02235174447, -187500.02235174447, -47335.51857894881, -45998.0572459766, -77736.84146843452, -48286.518250288755, -87658.17733504502, -31027.194085978757, 0.0, 0.0, 0.0, 193.0, 0.0, 1.0, 1.0, 0.0, 0.0, 1.0, 1.0, 256.0, 1.0, 1.750527915710114E9, 0.0, 2025-06-21 19:45:15.710
124.0, -43689.23380246566, -38255.41296665823, -29479.447541171023, -71899.34812776424, -27487.527130547423, -28261.07630265669, -52318.72824653724, -99460.74777373645, -187500.02235174447, -187500.02235174447, -47384.24538186138, -46045.75586864423, -77768.60329730551, -48347.71732660739, -87682.63014347914, -31086.7391332077, 0.0, 0.0, 0.0, 193.0, 0.0, 1.0, 1.0, 0.0, 0.0, 1.0, 1.0, 256.0, 1.0, 1.750527915718184E9, 0.0, 2025-06-21 19:45:15.718
126.0, -43646.83254323394, -38214.93395744967, -29450.412625123576, -71870.02263903889, -27473.62434549622, -28287.697230302958, -52301.18212713982, -99443.73809620597, -187500.02235174447, -187500.02235174447, -47355.94807338096, -46022.085371266054, -77762.52362281366, -48314.25676515779, -87695.92943143004, -31056.51957470412, 0.0, 0.0, 0.0, 193.0, 0.0, 1.0, 1.0, 0.0, 0.0, 1.0, 1.0, 256.0, 1.0, 1.750527915725269E9, 0.0, 2025-06-21 19:45:15.725
128.0, -43693.99472403464, -38259.86096380484, -29476.765331836385, -71901.94093012105, -27480.218110110538, -28293.061648972234, -52343.851607305005, -99473.62237854271, -187500.02235174447, -187500.02235174447, -47358.764393182326, -46022.9123858109, -77744.44106154933, -48332.451085144414, -87666.42512874903, -31070.95880162225, 0.0, 0.0, 0.0, 193.0, 0.0, 1.0, 1.0, 0.0, 0.0, 1.0, 1.0, 256.0, 1.0, 1.750527915733203E9, 0.0, 2025-06-21 19:45:15.733
130.0, -43687.37860767587, -38256.39644341427, -29478.084084759248, -71888.52988344787, -27498.613595797255, -28330.634931401604, -52315.30842963558, -99464.61462552722, -187500.02235174447, -187500.02235174447, -47395.264791877846, -46052.1708193029, -77783.53426260165, -48358.15559126802, -87717.67767878505, -31096.864473445952, 0.0, 0.0, 0.0, 193.0, 0.0, 1.0, 1.0, 0.0, 0.0, 1.0, 1.0, 256.0, 1.0, 1.750527915742235E9, 0.0, 2025-06-21 19:45:15.742
132.0, -43703.24834623913, -38268.1311092533, -29473.524328890366, -71894.05076432833, -27466.158862848148, -28276.990744708866, -52319.510557593174, -99470.33667210778, -187500.02235174447, -187500.02235174447, -47372.80128870026, -46030.86960683699, -77767.19513740482, -48326.863149030585, -87696.28705934132, -31065.504975975156, 0.0, 0.0, 0.0, 193.0, 0.0, 1.0, 1.0, 0.0, 0.0, 1.0, 1.0, 256.0, 1.0, 1.750527915749275E9, 0.0, 2025-06-21 19:45:15.749
134.0, -43685.2104884637, -38249.66856833322, -29456.179375193045, -71875.27529898589, -27484.397886323677, -28257.9694101774, -52313.520290079156, -99456.21036961203, -187500.02235174447, -187500.02235174447, -47379.61857075913, -46037.0163365622, -77760.24374487922, -48340.27419570377, -87670.33668402872, -31078.781912181606, 0.0, 0.0, 0.0, 193.0, 0.0, 1.0, 1.0, 0.0, 0.0, 1.0, 1.0, 256.0, 1.0, 1.750527915757272E9, 0.0, 2025-06-21 19:45:15.757
136.0, -43671.620627834876, -38239.23030367259, -29457.654590327096, -71867.94392680454, -27491.170464893636, -28298.113143219132, -52286.877010688426, -99435.51265424641, -187500.02235174447, -187500.02235174447, -47350.158971567034, -46008.875490292965, -77752.21946861976, -48299.97400045085, -87685.80409119179, -31042.013292552627, 0.0, 0.0, 0.0, 193.0, 0.0, 1.0, 1.0, 0.0, 0.0, 1.0, 1.0, 256.0, 1.0, 1.750527915765262E9, 0.0, 2025-06-21 19:45:15.765
138.0, -43698.733293859164, -38260.46446090513, -29466.282363686845, -71888.8204561258, -27480.24046185499, -28231.34848253113, -52327.31131640808, -99460.09957314725, -187500.02235174447, -187500.02235174447, -47371.2813700773, -46028.612080647006, -77755.63928552142, -48331.78053281076, -87672.48245149643, -31071.808167911553, 0.0, 0.0, 0.0, 193.0, 0.0, 1.0, 1.0, 0.0, 0.0, 1.0, 1.0, 256.0, 1.0, 1.750527915774372E9, 0.0, 2025-06-21 19:45:15.774
140.0, -43673.766395302584, -38241.24196067357, -29460.090930472725, -71863.76415059139, -27477.267679842436, -28295.45328562895, -52282.78664145311, -99430.2152908105, -187500.02235174447, -187500.02235174447, -47380.155012626055, -46031.897787081936, -77768.31272462758, -48332.96517526689, -87698.72339948696, -31072.72458943422, 0.0, 0.0, 0.0, 193.0, 0.0, 1.0, 1.0, 0.0, 0.0, 1.0, 1.0, 256.0, 1.0, 1.75052791578137E9, 0.0, 2025-06-21 19:45:15.781
142.0, -43663.015206219585, -38232.14480068026, -29423.702290499485, -71848.83318529525, -27451.920801630116, -28271.91689871751, -52280.19383909629, -99433.50099724544, -187500.02235174447, -187500.02235174447, -47336.122076049105, -45989.29536215012, -77727.47608750773, -48287.76994797825, -87656.09862281068, -31029.31750170201, 0.0, 0.0, 0.0, 193.0, 0.0, 1.0, 1.0, 0.0, 0.0, 1.0, 1.0, 256.0, 1.0, 1.750527915789395E9, 0.0, 2025-06-21 19:45:15.789
144.0, -43702.35427646092, -38269.31575170944, -29482.867358072683, -71895.21305504002, -27492.019831182937, -28287.876044258603, -52307.46296733177, -99460.971291181, -187500.02235174447, -187500.02235174447, -47368.53210550929, -46022.59946138853, -77742.60821850398, -48333.591024111636, -87661.10541356867, -31072.14344407838, 0.0, 0.0, 0.0, 193.0, 0.0, 1.0, 1.0, 0.0, 0.0, 1.0, 1.0, 256.0, 1.0, 1.750527915798433E9, 0.0, 2025-06-21 19:45:15.798
146.0, -43668.7596045446, -38239.319710650416, -29442.656569797586, -71862.42304592408, -27470.53980476139, -28242.658465225515, -52303.1937841408, -99448.00727939693, -187500.02235174447, -187500.02235174447, -47361.51365775033, -46019.224347975774, -77756.17572738836, -48316.111959947586, -87699.10337914269, -31054.44086246978, 0.0, 0.0, 0.0, 193.0, 0.0, 1.0, 1.0, 0.0, 0.0, 1.0, 1.0, 256.0, 1.0, 1.750527915805477E9, 0.0, 2025-06-21 19:45:15.805
148.0, -43694.10648275691, -38256.30703643645, -29465.88003228665, -71890.89916836013, -27482.85561595626, -28259.44462531145, -52323.243298917216, -99458.80317196884, -187500.02235174447, -187500.02235174447, -47361.983044383895, -46020.74426659874, -77743.72580572675, -48331.73582932184, -87664.83815489271, -31070.44471149978, 0.0, 0.0, 0.0, 193.0, 0.0, 1.0, 1.0, 0.0, 0.0, 1.0, 1.0, 256.0, 1.0, 1.750527915813519E9, 0.0, 2025-06-21 19:45:15.813
150.0, -43685.54576463053, -38245.242922931066, -29474.239584712934, -71877.35401122022, -27495.01496493995, -28290.44649487096, -52301.02566492864, -99435.91498564661, -187500.02235174447, -187500.02235174447, -47378.8809631921, -46037.0163365622, -77768.73740777223, -48338.57546312517, -87700.08685589873, -31077.999601125674, 0.0, 0.0, 0.0, 193.0, 0.0, 1.0, 1.0, 0.0, 0.0, 1.0, 1.0, 256.0, 1.0, 1.75052791582155E9, 0.0, 2025-06-21 19:45:15.821
152.0, -43706.422293951786, -38262.34200743938, -29483.87318657317, -71892.03910732736, -27492.77979049442, -28254.951924675934, -52303.998446941194, -99454.31047133333, -187500.02235174447, -187500.02235174447, -47376.3328643242, -46020.766618343194, -77766.68104728236, -48325.2091199409, -87701.47266405495, -31062.599249195966, 0.0, 0.0, 0.0, 193.0, 0.0, 1.0, 1.0, 0.0, 0.0, 1.0, 1.0, 256.0, 1.0, 1.750527915830569E9, 0.0, 2025-06-21 19:45:15.830
154.0, -43702.24251773865, -38269.06988252042, -29486.331878463257, -71903.10322083274, -27486.20837762456, -28306.048012500767, -52313.20736565678, -99465.86632321672, -187500.02235174447, -187500.02235174447, -47402.55146057028, -46054.78597340417, -77781.07557071156, -48360.43546920246, -87697.31523958627, -31098.764371724654, 0.0, 0.0, 0.0, 193.0, 0.0, 1.0, 1.0, 0.0, 0.0, 1.0, 1.0, 256.0, 1.0, 1.750527915837596E9, 0.0, 2025-06-21 19:45:15.837
156.0, -43668.603142333406, -38238.58210308339, -29452.670151313563, -71867.38513319315, -27483.637927012198, -28295.11800946212, -52282.92075191984, -99437.70312520303, -187500.02235174447, -187500.02235174447, -47355.03165185829, -46017.36915318599, -77756.33218959955, -48307.774759265754, -87692.82253895076, -31051.7810048796, 0.0, 0.0, 0.0, 193.0, 0.0, 1.0, 1.0, 0.0, 0.0, 1.0, 1.0, 256.0, 1.0, 1.750527915845602E9, 0.0, 2025-06-21 19:45:15.845
158.0, -43718.246366768646, -38280.35751347036, -29493.193864011035, -71914.25674131594, -27513.67867156013, -28283.517454089815, -52320.359923882475, -99473.80119249836, -187500.02235174447, -187500.02235174447, -47384.58065802821, -46041.44198196435, -77766.59164030453, -48343.9622335389, -87680.61848647815, -31082.805226183562, 0.0, 0.0, 0.0, 193.0, 0.0, 1.0, 1.0, 0.0, 0.0, 1.0, 1.0, 256.0, 1.0, 1.750527915853624E9, 0.0, 2025-06-21 19:45:15.853
160.0, -43703.80713985052, -38274.36724595633, -29491.65159364362, -71897.24706378544, -27502.569854565845, -28304.50574213335, -52299.08106316103, -99451.33768932078, -187500.02235174447, -187500.02235174447, -47403.80315825977, -46057.13290657198, -77790.75387606071, -48352.70176562092, -87710.36865834816, -31091.85768268796, 0.0, 0.0, 0.0, 193.0, 0.0, 1.0, 1.0, 0.0, 0.0, 1.0, 1.0, 256.0, 1.0, 1.750527915861644E9, 0.0, 2025-06-21 19:45:15.861
162.0, -43711.56319517651, -38275.99892330157, -29495.719611134486, -71912.91563664861, -27487.05774391386, -28287.496064602863, -52309.742845266206, -99465.5310470499, -187500.02235174447, -187500.02235174447, -47388.91689645254, -46044.28065351018, -77782.88606201245, -48338.21783521388, -87711.37448684865, -31076.569089480534, 0.0, 0.0, 0.0, 193.0, 0.0, 1.0, 1.0, 0.0, 0.0, 1.0, 1.0, 256.0, 1.0, 1.750527915869723E9, 0.0, 2025-06-21 19:45:15.869
164.0, -43695.73816010215, -38256.82112655892, -29478.955802793003, -71897.96231960802, -27507.263720901457, -28269.63702078307, -52303.506708563174, -99445.90621541813, -187500.02235174447, -187500.02235174447, -47394.415425588544, -46057.08820308307, -77778.7062857993, -48354.22168424389, -87685.02178013585, -31093.62347049993, 0.0, 0.0, 0.0, 193.0, 0.0, 1.0, 1.0, 0.0, 0.0, 1.0, 1.0, 256.0, 1.0, 1.750527915877689E9, 0.0, 2025-06-21 19:45:15.877
166.0, -43714.33481148897, -38276.5353651685, -29502.894521104638, -71913.228561071, -27529.749575823498, -28337.340454738198, -52320.11405469347, -99466.31335810584, -187500.02235174447, -187500.02235174447, -47385.00534117286, -46046.67229016689, -77789.36806790449, -48331.57936711066, -87714.63784153914, -31074.333915035, 0.0, 0.0, 0.0, 193.0, 0.0, 1.0, 1.0, 0.0, 0.0, 1.0, 1.0, 256.0, 1.0, 1.750527915886769E9, 0.0, 2025-06-21 19:45:15.886
168.0, -43727.522340717594, -38290.59461243088, -29516.17145731109, -71933.6804072476, -27512.315215148355, -28282.556329078237, -52333.88272927794, -99482.40661411364, -187500.02235174447, -187500.02235174447, -47415.940155499, -46073.51673525772, -77801.54976863263, -48375.20997228742, -87713.16262640509, -31115.50582832168, 0.0, 0.0, 0.0, 193.0, 0.0, 1.0, 1.0, 0.0, 0.0, 1.0, 1.0, 256.0, 1.0, 1.750527915893784E9, 0.0, 2025-06-21 19:45:15.893
170.0, -43699.314439215, -38265.09127200738, -29497.820675113282, -71904.84665690025, -27508.224845913035, -28295.699154817958, -52305.25014463069, -99450.93535792058, -187500.02235174447, -187500.02235174447, -47418.30944041126, -46072.55561024614, -77807.85296056903, -48372.88539086407, -87730.90991150259, -31112.35423235348, 0.0, 0.0, 0.0, 193.0, 0.0, 1.0, 1.0, 0.0, 0.0, 1.0, 1.0, 256.0, 1.0, 1.750527915901827E9, 0.0, 2025-06-21 19:45:15.901
172.0, -43714.89360510035, -38279.2846297365, -29502.60394842672, -71930.46175604603, -27494.72439226203, -28238.612799479106, -52326.998391985704, -99476.57280881082, -187500.02235174447, -187500.02235174447, -47386.99464642938, -46055.165953059906, -77787.08818997005, -48342.15174223802, -87706.65826876859, -31084.593365739987, 0.0, 0.0, 0.0, 193.0, 0.0, 1.0, 1.0, 0.0, 0.0, 1.0, 1.0, 256.0, 1.0, 1.75052791590988E9, 0.0, 2025-06-21 19:45:15.909
174.0, -43719.74393364715, -38284.15731002776, -29511.61170144221, -71928.56185776733, -27512.06934595935, -28337.161640782553, -52319.13057793744, -99476.79632625537, -187500.02235174447, -187500.02235174447, -47415.35901014316, -46085.229049352296, -77800.54394013213, -48383.43541424697, -87706.27828911284, -31122.837200503018, 0.0, 0.0, 0.0, 193.0, 0.0, 1.0, 1.0, 0.0, 0.0, 1.0, 1.0, 256.0, 1.0, 1.750527915917821E9, 0.0, 2025-06-21 19:45:15.917
176.0, -43696.83339558046, -38258.47515564861, -29485.616622640686, -71898.3199475193, -27499.820589997842, -28304.818666555726, -52301.74092075121, -99451.89648293215, -187500.02235174447, -187500.02235174447, -47398.59520180168, -46053.8695518815, -77796.5653296191, -48346.37622194007, -87727.60185332321, -31088.035534386105, 0.0, 0.0, 0.0, 193.0, 0.0, 1.0, 1.0, 0.0, 0.0, 1.0, 1.0, 256.0, 1.0, 1.750527915924914E9, 0.0, 2025-06-21 19:45:15.924
178.0, -43717.24053826815, -38279.798719858976, -29511.23172178647, -71928.13717462268, -27507.30842439037, -28289.775942537304, -52314.16849066836, -99473.42121284262, -187500.02235174447, -187500.02235174447, -47395.57771630022, -46053.914255370415, -77779.1533206884, -48352.63471038756, -87688.17337610405, -31093.221139099736, 0.0, 0.0, 0.0, 193.0, 0.0, 1.0, 1.0, 0.0, 0.0, 1.0, 1.0, 256.0, 1.0, 1.750527915933888E9, 0.0, 2025-06-21 19:45:15.933
180.0, -43709.015096308605, -38265.71712085213, -29509.75650665242, -71909.16054358013, -27497.361898107756, -28317.581512639706, -52322.84096751702, -99469.28614011839, -187500.02235174447, -187500.02235174447, -47422.019829990844, -46073.270866068706, -77810.49046641475, -48376.774594399285, -87738.59891159523, -31114.835275988018, 0.0, 0.0, 0.0, 193.0, 0.0, 1.0, 1.0, 0.0, 0.0, 1.0, 1.0, 256.0, 1.0, 1.750527915942057E9, 0.0, 2025-06-21 19:45:15.942
182.0, -43729.64575644085, -38288.180624029716, -29519.770088168396, -71934.30625609234, -27533.01293051397, -28287.272547158307, -52336.54258686812, -99488.06160546084, -187500.02235174447, -187500.02235174447, -47402.05972219226, -46055.45652573783, -77799.47105639828, -48353.68524237695, -87726.61837656717, -31093.86933968894, 0.0, 0.0, 0.0, 193.0, 0.0, 1.0, 1.0, 0.0, 0.0, 1.0, 1.0, 256.0, 1.0, 1.750527915948975E9, 0.0, 2025-06-21 19:45:15.948
184.0, -43723.543730204554, -38282.436225704696, -29516.037346844358, -71933.50159329195, -27527.581456611333, -28291.228805926898, -52336.34142116802, -99486.89931474917, -187500.02235174447, -187500.02235174447, -47430.28997543931, -46088.93943893188, -77812.97151004929, -48390.94560038395, -87721.209254409, -31131.084994207027, 0.0, 0.0, 0.0, 193.0, 0.0, 1.0, 1.0, 0.0, 0.0, 1.0, 1.0, 256.0, 1.0, 1.750527915958061E9, 0.0, 2025-06-21 19:45:15.958
186.0, -43698.95681130372, -38262.297303950465, -29494.154989022612, -71910.81457266981, -27511.085869203314, -28276.811930753225, -52313.11795867896, -99466.4251168281, -187500.02235174447, -187500.02235174447, -47393.633114532604, -46056.26118853822, -77795.98418426326, -48350.57834989767, -87733.90504525961, -31092.930566421815, 0.0, 0.0, 0.0, 193.0, 0.0, 1.0, 1.0, 0.0, 0.0, 1.0, 1.0, 256.0, 1.0, 1.750527915966061E9, 0.0, 2025-06-21 19:45:15.966
188.0, -43698.532128159066, -38260.03977776048, -29485.840140085238, -71915.24021807197, -27487.795351480887, -28235.684720955458, -52310.3463423665, -99465.21812262751, -187500.02235174447, -187500.02235174447, -47399.69043728, -46065.80538342064, -77783.9589457463, -48368.79502162874, -87704.91483270108, -31106.609834028466, 0.0, 0.0, 0.0, 193.0, 0.0, 1.0, 1.0, 0.0, 0.0, 1.0, 1.0, 256.0, 1.0, 1.750527915973046E9, 0.0, 2025-06-21 19:45:15.973
190.0, -43689.45731991021, -38257.759899826044, -29483.135579006146, -71897.18000855208, -27500.73701152051, -28332.870105847134, -52318.30356339259, -99470.35902385224, -187500.02235174447, -187500.02235174447, -47388.76043424135, -46055.07654608209, -77779.13096894395, -48352.746469109836, -87702.59025127772, -31094.025801900127, 0.0, 0.0, 0.0, 193.0, 0.0, 1.0, 1.0, 0.0, 0.0, 1.0, 1.0, 256.0, 1.0, 1.750527915981112E9, 0.0, 2025-06-21 19:45:15.981
192.0, -43712.61372716591, -38278.792891358484, -29503.78859088285, -71919.91173266312, -27515.846790772295, -28312.999405026367, -52319.64466805991, -99487.56986708283, -187500.02235174447, -187500.02235174447, -47375.43879454599, -46034.08825803855, -77770.34673337302, -48339.82716081467, -87706.99354493542, -31080.368886037933, 0.0, 0.0, 0.0, 193.0, 0.0, 1.0, 1.0, 0.0, 0.0, 1.0, 1.0, 256.0, 1.0, 1.750527915990136E9, 0.0, 2025-06-21 19:45:15.990
194.0, -43719.162788291316, -38280.17869951471, -29515.94793986654, -71926.93018042209, -27520.45125013009, -28288.323079147707, -52320.73990353822, -99482.80894551384, -187500.02235174447, -187500.02235174447, -47426.713696326464, -46082.03274989519, -77804.23197796727, -48395.14772834155, -87725.54549283332, -31131.26380816267, 0.0, 0.0, 0.0, 193.0, 0.0, 1.0, 1.0, 0.0, 0.0, 1.0, 1.0, 256.0, 1.0, 1.750527915998237E9, 0.0, 2025-06-21 19:45:15.998
196.0, -43706.10936952941, -38263.88427780679, -29502.715707148996, -71910.23342731399, -27507.82251451284, -28291.094695460168, -52306.948877209295, -99463.92172144911, -187500.02235174447, -187500.02235174447, -47390.928553453516, -46048.68394716787, -77790.41859989389, -48334.52979737876, -87720.5610538198, -31077.172586580826, 0.0, 0.0, 0.0, 193.0, 0.0, 1.0, 1.0, 0.0, 0.0, 1.0, 1.0, 256.0, 1.0, 1.750527916005217E9, 0.0, 2025-06-21 19:45:16.005
198.0, -43735.88189314388, -38296.428417733725, -29514.69624217704, -71931.3781775687, -27511.801125025886, -28295.073305973212, -52336.60964210149, -99486.80990777134, -187500.02235174447, -187500.02235174447, -47420.075228223235, -46075.79661319216, -77802.89087329994, -48368.258579761816, -87708.22289088045, -31108.219159629247, 0.0, 0.0, 0.0, 193.0, 0.0, 1.0, 1.0, 0.0, 0.0, 1.0, 1.0, 256.0, 1.0, 1.750527916013234E9, 0.0, 2025-06-21 19:45:16.013
200.0, -43715.430046967274, -38274.85898433435, -29499.005317569416, -71903.86318014422, -27520.563008852365, -28302.18116071, -52309.184051654825, -99468.25795987344, -187500.02235174447, -187500.02235174447, -47409.81577751825, -46060.70918568483, -77796.43121915236, -48361.64246340305, -87720.7622195199, -31100.06077290306, 0.0, 0.0, 0.0, 193.0, 0.0, 1.0, 1.0, 0.0, 0.0, 1.0, 1.0, 256.0, 1.0, 1.750527916022261E9, 0.0, 2025-06-21 19:45:16.022
202.0, -43719.94509934725, -38290.50520545307, -29492.88093958866, -71919.68821521857, -27515.757383794473, -28299.52130311982, -52318.325915137044, -99481.55724782434, -187500.02235174447, -187500.02235174447, -47392.69434126549, -46056.708223427326, -77788.13872195945, -48343.9622335389, -87713.87788222765, -31085.44273202929, 0.0, 0.0, 0.0, 193.0, 0.0, 1.0, 1.0, 0.0, 0.0, 1.0, 1.0, 256.0, 1.0, 1.750527916029268E9, 0.0, 2025-06-21 19:45:16.029
204.0, -43717.64286966835, -38288.873528107826, -29495.205521012012, -71916.00017738345, -27515.95854949457, -28300.102448475656, -52318.81765351506, -99477.46687858902, -187500.02235174447, -187500.02235174447, -47400.852727991674, -46067.481764254786, -77781.0532189671, -48366.157515783016, -87691.45908253898, -31106.408668328368, 0.0, 0.0, 0.0, 193.0, 0.0, 1.0, 1.0, 0.0, 0.0, 1.0, 1.0, 256.0, 1.0, 1.750527916037263E9, 0.0, 2025-06-21 19:45:16.037
206.0, -43706.623459651884, -38274.05432153396, -29486.220119740978, -71898.05172658584, -27493.986784695004, -28276.2754888863, -52303.28319111862, -99461.64184351466, -187500.02235174447, -187500.02235174447, -47395.264791877846, -46053.60133094804, -77791.7150010723, -48344.677489361464, -87727.91477774558, -31085.330973307013, 0.0, 0.0, 0.0, 193.0, 0.0, 1.0, 1.0, 0.0, 0.0, 1.0, 1.0, 256.0, 1.0, 1.750527916045372E9, 0.0, 2025-06-21 19:45:16.045
208.0, -43732.84205589796, -38303.9386038707, -29497.440695457542, -71929.76885196792, -27507.196665668092, -28289.17244543701, -52334.150950211406, -99493.31426540784, -187500.02235174447, -187500.02235174447, -47384.11127139465, -46049.30979601262, -77769.76558801718, -48341.90587304901, -87676.50576549838, -31082.559356994556, 0.0, 0.0, 0.0, 193.0, 0.0, 1.0, 1.0, 0.0, 0.0, 1.0, 1.0, 256.0, 1.0, 1.75052791605438E9, 0.0, 2025-06-21 19:45:16.054
210.0, -43718.60399467993, -38283.37499897182, -29498.89355884714, -71908.98172962449, -27509.655357558175, -28312.909998048544, -52317.498900592196, -99476.61751229972, -187500.02235174447, -187500.02235174447, -47410.642792063096, -46074.0755288691, -77802.48854189976, -48366.04575706074, -87723.13150443215, -31106.721592750742, 0.0, 0.0, 0.0, 193.0, 0.0, 1.0, 1.0, 0.0, 0.0, 1.0, 1.0, 256.0, 1.0, 1.750527916061428E9, 0.0, 2025-06-21 19:45:16.061
212.0, -43735.300747788046, -38299.691772424194, -29513.01986134289, -71926.86312518873, -27527.581456611333, -28306.51739913433, -52334.39681940041, -99498.96925675504, -187500.02235174447, -187500.02235174447, -47400.74096926939, -46058.7198804283, -77794.30780342911, -48348.45493417441, -87727.7583155344, -31088.795493697584, 0.0, 0.0, 0.0, 193.0, 0.0, 1.0, 1.0, 0.0, 0.0, 1.0, 1.0, 256.0, 1.0, 1.75052791606942E9, 0.0, 2025-06-21 19:45:16.069
214.0, -43728.63992794036, -38292.29334500949, -29511.432887486564, -71920.6269884857, -27517.947854751095, -28313.1335154931, -52336.81080780159, -99490.29677990638, -187500.02235174447, -187500.02235174447, -47416.297783410286, -46073.18145909088, -77793.54784411762, -48375.25467577633, -87708.11113215818, -31113.851799231983, 0.0, 0.0, 0.0, 193.0, 0.0, 1.0, 1.0, 0.0, 0.0, 1.0, 1.0, 256.0, 1.0, 1.750527916077398E9, 0.0, 2025-06-21 19:45:16.077
216.0, -43697.14632000284, -38267.4829086641, -29487.1588930081, -71899.43753474207, -27496.311366118356, -28273.79444525176, -52297.76231023816, -99463.6758522601, -187500.02235174447, -187500.02235174447, -47395.57771630022, -46053.57897920358, -77791.29031792765, -48341.63765211555, -87728.6076818237, -31082.715819205743, 0.0, 0.0, 0.0, 193.0, 0.0, 1.0, 1.0, 0.0, 0.0, 1.0, 1.0, 256.0, 1.0, 1.750527916085485E9, 0.0, 2025-06-21 19:45:16.085
218.0, -43729.198721551744, -38296.78604564501, -29507.923663607082, -71938.08370090529, -27489.24821487048, -28271.49221557286, -52347.74081084023, -99502.4337771456, -187500.02235174447, -187500.02235174447, -47401.88090823661, -46068.59935147755, -77784.85301552451, -48355.607492400115, -87690.65441973858, -31095.992755412193, 0.0, 0.0, 0.0, 193.0, 0.0, 1.0, 1.0, 0.0, 0.0, 1.0, 1.0, 256.0, 1.0, 1.750527916094576E9, 0.0, 2025-06-21 19:45:16.094
220.0, -43707.38341896336, -38281.586859415394, -29499.74292513644, -71914.61436922722, -27524.83219204333, -28337.541620438293, -52310.88278423343, -99473.5329715649, -187500.02235174447, -187500.02235174447, -47408.56407982875, -46074.679025969395, -77796.364163919, -48360.74839362483, -87710.03338218134, -31102.899444448885, 0.0, 0.0, 0.0, 193.0, 0.0, 1.0, 1.0, 0.0, 0.0, 1.0, 1.0, 256.0, 1.0, 1.750527916101556E9, 0.0, 2025-06-21 19:45:16.101
222.0, -43728.95285236274, -38302.26222303656, -29513.779820654374, -71932.27224734692, -27514.30452040488, -28327.125707522122, -52318.21415641477, -99489.62622757272, -187500.02235174447, -187500.02235174447, -47400.58450705821, -46059.90452288443, -77794.62072785148, -48351.98650979835, -87720.67281254206, -31092.796455955086, 0.0, 0.0, 0.0, 193.0, 0.0, 1.0, 1.0, 0.0, 0.0, 1.0, 1.0, 256.0, 1.0, 1.750527916109602E9, 0.0, 2025-06-21 19:45:16.109
224.0, -43732.95381462024, -38296.94250785619, -29526.542666738354, -71938.70954975004, -27532.320026435857, -28312.46296315944, -52324.80792102908, -99489.87209676173, -187500.02235174447, -187500.02235174447, -47432.793370818305, -46087.799499964654, -77806.84713206853, -48388.53161198278, -87717.34240261822, -31126.3464243825, 0.0, 0.0, 0.0, 193.0, 0.0, 1.0, 1.0, 0.0, 0.0, 1.0, 1.0, 256.0, 1.0, 1.750527916117607E9, 0.0, 2025-06-21 19:45:16.117
226.0, -43711.943174832246, -38278.882298336306, -29506.917835106593, -71917.20717158403, -27523.49108737601, -28286.98197448039, -52308.87112723245, -99470.20256164105, -187500.02235174447, -187500.02235174447, -47409.74872228489, -46066.7218049433, -77806.13187624597, -48354.08757377715, -87738.15187670612, -31096.10451413447, 0.0, 0.0, 0.0, 193.0, 0.0, 1.0, 1.0, 0.0, 0.0, 1.0, 1.0, 256.0, 1.0, 1.750527916125633E9, 0.0, 2025-06-21 19:45:16.125
228.0, -43731.00921285262, -38298.596536945886, -29517.780782911872, -71938.95541893905, -27509.63300581372, -28282.44457035596, -52343.62808986045, -99498.92455326612, -187500.02235174447, -187500.02235174447, -47412.63209731962, -46070.25338056724, -77794.33015517356, -48366.87277160559, -87703.61843152267, -31107.660366017863, 0.0, 0.0, 0.0, 193.0, 0.0, 1.0, 1.0, 0.0, 0.0, 1.0, 1.0, 256.0, 1.0, 1.750527916133751E9, 0.0, 2025-06-21 19:45:16.133
230.0, -43709.66329689781, -38281.96683907114, -29510.762335152907, -71916.96130239502, -27511.957587237073, -28336.71460589345, -52320.158758182384, -99484.79825077037, -187500.02235174447, -187500.02235174447, -47425.305536425774, -46078.21060159333, -77810.17754199238, -48382.317827024206, -87737.92835926157, -31121.764316769164, 0.0, 0.0, 0.0, 193.0, 0.0, 1.0, 1.0, 0.0, 0.0, 1.0, 1.0, 256.0, 1.0, 1.750527916141648E9, 0.0, 2025-06-21 19:45:16.141
232.0, -43711.29497424304, -38289.1864525302, -29504.66030891661, -71930.05942464583, -27504.06742144435, -28312.70883234845, -52328.183034441834, -99498.00813174345, -187500.02235174447, -187500.02235174447, -47386.25703886236, -46046.96286284481, -77780.606184078, -48345.43744867295, -87708.46876006947, -31087.990830897194, 0.0, 0.0, 0.0, 193.0, 0.0, 1.0, 1.0, 0.0, 0.0, 1.0, 1.0, 256.0, 1.0, 1.750527916150688E9, 0.0, 2025-06-21 19:45:16.150
234.0, -43719.36395399141, -38288.76176938555, -29519.099535834735, -71941.23529687349, -27512.181104681626, -28262.864442213115, -52336.74375256822, -99502.8361085458, -187500.02235174447, -187500.02235174447, -47426.91486202656, -46091.39813082196, -77803.91905354489, -48401.897955167056, -87721.49982708691, -31141.009168745182, 0.0, 0.0, 0.0, 193.0, 0.0, 1.0, 1.0, 0.0, 0.0, 1.0, 1.0, 256.0, 1.0, 1.750527916156746E9, 0.0, 2025-06-21 19:45:16.156
236.0, -43708.47865444168, -38276.065978534934, -29512.08108807577, -71924.11386062072, -27525.83802054382, -28337.36280648265, -52320.69520004931, -99484.95471298155, -187500.02235174447, -187500.02235174447, -47406.2394984054, -46065.76067993172, -77801.30389944362, -48364.86111460461, -87739.91766451809, -31106.319261350545, 0.0, 0.0, 0.0, 193.0, 0.0, 1.0, 1.0, 0.0, 0.0, 1.0, 1.0, 256.0, 1.0, 1.750527916165719E9, 0.0, 2025-06-21 19:45:16.165
238.0, -43739.1228960899, -38299.781179402016, -29533.918742408605, -71957.57442207032, -27537.72914859404, -28290.245329170863, -52356.81561908909, -99523.4891204225, -187500.02235174447, -187500.02235174447, -47421.751609057384, -46075.081357369585, -77800.58864362106, -48387.5704869712, -87719.39876310811, -31126.413479615865, 0.0, 0.0, 0.0, 193.0, 0.0, 1.0, 1.0, 0.0, 0.0, 1.0, 1.0, 256.0, 1.0, 1.750527916173738E9, 0.0, 2025-06-21 19:45:16.173
240.0, -43705.997610807135, -38267.549963897465, -29526.341501038256, -71935.46854680403, -27533.169392725158, -28340.022664072832, -52324.09266520652, -99500.15389921116, -187500.02235174447, -187500.02235174447, -47433.843902807705, -46089.49823254326, -77820.10171653054, -48393.76192018532, -87744.25390294241, -31135.64475007591, 0.0, 0.0, 0.0, 193.0, 0.0, 1.0, 1.0, 0.0, 0.0, 1.0, 1.0, 256.0, 1.0, 1.750527916182809E9, 0.0, 2025-06-21 19:45:16.182
242.0, -43693.45828216771, -38261.783213828, -29502.246320515434, -71926.39373855517, -27513.96924423805, -28301.287090931786, -52319.19763317081, -99491.4814223625, -187500.02235174447, -187500.02235174447, -47402.28323963681, -46061.46914499631, -77797.34764067503, -48365.35285298263, -87735.58142609375, -31109.470857318745, 0.0, 0.0, 0.0, 193.0, 0.0, 1.0, 1.0, 0.0, 0.0, 1.0, 1.0, 256.0, 1.0, 1.750527916188802E9, 0.0, 2025-06-21 19:45:16.188
244.0, -43711.71965738769, -38284.62669666132, -29511.321128764288, -71941.25764861795, -27500.267624886947, -28287.31725064722, -52338.08485723554, -99498.3881113992, -187500.02235174447, -187500.02235174447, -47415.35901014316, -46081.228087094794, -77795.64890809642, -48390.78913817277, -87713.98964094993, -31132.98489248573, 0.0, 0.0, 0.0, 193.0, 0.0, 1.0, 1.0, 0.0, 0.0, 1.0, 1.0, 256.0, 1.0, 1.750527916197831E9, 0.0, 2025-06-21 19:45:16.197
246.0, -43694.955849046215, -38271.170946499224, -29495.98783206795, -71918.5259245069, -27493.807970739363, -28301.37649790961, -52312.82738600104, -99485.20058217057, -187500.02235174447, -187500.02235174447, -47394.281315121814, -46063.50315374174, -77793.95017551782, -48352.90293132102, -87727.51244634538, -31098.607909513466, 0.0, 0.0, 0.0, 193.0, 0.0, 1.0, 1.0, 0.0, 0.0, 1.0, 1.0, 256.0, 1.0, 1.75052791620588E9, 0.0, 2025-06-21 19:45:16.205
248.0, -43706.19877650723, -38278.61407740284, -29506.761372895406, -71933.79216596988, -27516.986729739518, -28311.010099769843, -52335.045019989615, -99509.31811443783, -187500.02235174447, -187500.02235174447, -47396.04710293378, -46059.23397055078, -77779.82387302208, -48369.21970477339, -87700.89151869912, -31109.135581151913, 0.0, 0.0, 0.0, 193.0, 0.0, 1.0, 1.0, 0.0, 0.0, 1.0, 1.0, 256.0, 1.0, 1.750527916212901E9, 0.0, 2025-06-21 19:45:16.212
250.0, -43688.809119321006, -38263.81722257343, -29503.02863157137, -71917.18481983957, -27498.524188819432, -28305.84684680067, -52323.13154019494, -99491.30260840686, -187500.02235174447, -187500.02235174447, -47401.16565241405, -46062.296159541154, -77788.51870161519, -48374.24884727584, -87718.70585903, -31115.10349692148, 0.0, 0.0, 0.0, 193.0, 0.0, 1.0, 1.0, 0.0, 0.0, 1.0, 1.0, 256.0, 1.0, 1.750527916221926E9, 0.0, 2025-06-21 19:45:16.221
252.0, -43707.42812245228, -38279.91047858125, -29506.806076384317, -71938.66484626113, -27524.251046687492, -28284.67974480149, -52331.491092621225, -99502.5902393568, -187500.02235174447, -187500.02235174447, -47391.420291831535, -46055.7694501602, -77786.77526554767, -48360.077841291175, -87720.94103347552, -31102.96649968225, 0.0, 0.0, 0.0, 193.0, 0.0, 1.0, 1.0, 0.0, 0.0, 1.0, 1.0, 256.0, 1.0, 1.750527916229957E9, 0.0, 2025-06-21 19:45:16.229
254.0, -43714.89360510035, -38286.280725751014, -29518.22781780098, -71946.7338260095, -27525.547447865898, -28299.610710097637, -52346.26559570618, -99502.5902393568, -187500.02235174447, -187500.02235174447, -47416.1413211991, -46086.81602320862, -77799.89573954293, -48397.58406848718, -87716.96242296249, -31137.187020443325, 0.0, 0.0, 0.0, 193.0, 0.0, 1.0, 1.0, 0.0, 0.0, 1.0, 1.0, 256.0, 1.0, 1.75052791623798E9, 0.0, 2025-06-21 19:45:16.237
0.0, -43695.69345661324, -38269.1816412427, -29501.821637370784, -71918.99531114046, -27501.608729554264, -28320.397832441075, -52316.82834825854, -99484.91000949264, -187500.02235174447, -187500.02235174447, -47402.41735010354, -46072.8238311796, -77807.16005649092, -48365.442259960444, -87741.12465871868, -31109.2920433631, 0.0, 0.0, 0.0, 193.0, 0.0, 1.0, 1.0, 0.0, 0.0, 1.0, 1.0, 256.0, 1.0, 1.750527916245039E9, 0.0, 2025-06-21 19:45:16.245
2.0, -43724.817779638506, -38291.26516476455, -29522.765221925405, -71949.01370394394, -27529.749575823498, -28295.54269260677, -52344.09747649402, -99513.20731797307, -187500.02235174447, -187500.02235174447, -47403.98197221541, -46064.93366538688, -77790.75387606071, -48373.37712924208, -87704.22192862295, -31115.550531810586, 0.0, 0.0, 0.0, 193.0, 0.0, 1.0, 1.0, 0.0, 0.0, 1.0, 1.0, 256.0, 1.0, 1.750527916254038E9, 0.0, 2025-06-21 19:45:16.254
4.0, -43712.09963704344, -38276.46830993513, -29522.385242269665, -71932.09343339127, -27531.671825846654, -28336.066405304246, -52322.818615772565, -99495.77295729793, -187500.02235174447, -187500.02235174447, -47426.26666143735, -46084.26792434072, -77812.63623388245, -48396.31001905323, -87746.48907738795, -31136.225895431748, 0.0, 0.0, 0.0, 193.0, 0.0, 1.0, 1.0, 0.0, 0.0, 1.0, 1.0, 256.0, 1.0, 1.750527916262078E9, 0.0, 2025-06-21 19:45:16.262
6.0, -43699.1132735149, -38276.513013424046, -29494.579672167263, -71927.10899437773, -27498.591244052797, -28263.646753269048, -52325.14319719592, -99497.89637302118, -187500.02235174447, -187500.02235174447, -47393.1860796435, -46055.30006352664, -77787.1105417145, -48358.3120534792, -87720.22577765296, -31099.837255458508, 0.0, 0.0, 0.0, 193.0, 0.0, 1.0, 1.0, 0.0, 0.0, 1.0, 1.0, 256.0, 1.0, 1.750527916269085E9, 0.0, 2025-06-21 19:45:16.269
8.0, -43705.70703812922, -38281.83272860441, -29509.868265374695, -71938.35192183875, -27504.87208424474, -28298.493122874872, -52332.943956010815, -99509.09459699328, -187500.02235174447, -187500.02235174447, -47411.31334439675, -46086.21252610833, -77794.39721040693, -48397.78523418728, -87712.98381244944, -31137.164668698868, 0.0, 0.0, 0.0, 193.0, 0.0, 1.0, 1.0, 0.0, 0.0, 1.0, 1.0, 256.0, 1.0, 1.75052791627716E9, 0.0, 2025-06-21 19:45:16.277
10.0, -43696.565174646996, -38275.14955701227, -29514.048041587837, -71931.48993629098, -27512.87400875974, -28308.663166602037, -52318.37061862596, -99491.52612585141, -187500.02235174447, -187500.02235174447, -47390.570925542226, -46055.63533969347, -77789.0104399932, -48362.89416109254, -87731.98279523644, -31105.514598550155, 0.0, 0.0, 0.0, 193.0, 0.0, 1.0, 1.0, 0.0, 0.0, 1.0, 1.0, 256.0, 1.0, 1.750527916286147E9, 0.0, 2025-06-21 19:45:16.286
