%OpenBCI Raw EXG Data
%Number of channels = 16
%Sample Rate = 125 Hz
%Board = OpenBCI_GUI$BoardCytonSerialDaisy
Sample Index, EXG Channel 0, EXG Channel 1, EXG Channel 2, EXG Channel 3, EXG Channel 4, EXG Channel 5, EXG Channel 6, EXG Channel 7, EXG Channel 8, EXG Channel 9, EXG Channel 10, EXG Channel 11, EXG Channel 12, EXG Channel 13, EXG Channel 14, EXG Channel 15, Accel Channel 0, Accel Channel 1, Accel Channel 2, Not Used, Digital Channel 0 (D11), Digital Channel 1 (D12), Digital Channel 2 (D13), Digital Channel 3 (D17), Not Used, Digital Channel 4 (D18), Analog Channel 0, Analog Channel 1, Analog Channel 2, Timestamp, Marker Channel, Timestamp (Formatted)
0.0, -43538.47128611461, -38036.76820239642, -29578.152844685657, -72190.5913580169, -27519.73599430752, -27558.225698259557, -52289.4921647897, -99621.68033381467, 0.0, 0.0, 0.0, 0.0, 0.0, 0.0, 0.0, 0.0, 0.0, 0.0, 0.0, 193.0, 0.0, 0.5, 0.5, 0.0, 0.0, 0.5, 0.5, 128.0, 0.5, 1.750528220423824E9, 0.0, 2025-06-21 19:50:20.423
228.0, -43507.58117527737, -38010.01316428342, -29567.46871083602, -72160.14828206877, -27515.645625072197, -27587.32766954037, -52260.88193188691, -99591.88545845574, -187500.02235174447, -187500.02235174447, -47503.179014108064, -46225.910928954, -77832.73045214778, -48456.45856338246, -87836.76777324293, -31160.231668976747, 0.0, 0.0, 0.0, 193.0, 0.0, 1.0, 1.0, 0.0, 0.0, 1.0, 1.0, 256.0, 1.0, 1.750528220424446E9, 0.0, 2025-06-21 19:50:20.424
0.0, -21995.03296554482, -19131.707445586617, -14969.790276263986, -36353.19010653378, -13932.848147493381, -13995.00834882359, -26339.608590556218, -50035.98928880564, -93750.01117587223, -93750.01117587223, -23748.03557968564, -23104.886484728635, -38908.70975359795, -24214.628245190175, -43912.997116207735, -15565.710135186928, 0.0, 0.0, 0.0, 193.0, 0.0, 1.0, 1.0, 0.0, 0.0, 1.0, 1.0, 256.0, 1.0, 1.750528220544326E9, 0.0, 2025-06-21 19:50:20.544
2.0, -43980.36527399603, -38252.440184645675, -29937.188915871255, -72696.18781759594, -27871.775969478604, -28026.047709709135, -52667.59427399567, -100062.45673447332, -187500.02235174447, -187500.02235174447, -47951.0185660146, -46665.32387320088, -77937.89540981001, -48884.27095225704, -88408.05600977612, -31738.247780590988, 0.0, 0.0, 0.0, 193.0, 0.0, 1.0, 1.0, 0.0, 0.0, 1.0, 1.0, 256.0, 1.0, 1.750528220551279E9, 0.0, 2025-06-21 19:50:20.551
4.0, -43994.64803870297, -38265.89593480777, -29947.627180531883, -72713.57747478217, -27865.495129286664, -27983.668802221873, -52667.03548038429, -100075.6666154464, -187500.02235174447, -187500.02235174447, -47953.38785092686, -46662.328739443874, -77934.0956132526, -48882.95219933417, -88403.1162742515, -31736.459641034562, 0.0, 0.0, 0.0, 193.0, 0.0, 1.0, 1.0, 0.0, 0.0, 1.0, 1.0, 256.0, 1.0, 1.750528220559367E9, 0.0, 2025-06-21 19:50:20.559
6.0, -43990.44591074537, -38252.68605383469, -29951.628142789385, -72704.54737002222, -27862.36588506292, -27992.564796515086, -52672.3328438202, -100069.94456886585, -187500.02235174447, -187500.02235174447, -47981.998083829654, -46692.48124271408, -77957.11791004156, -48913.261164815565, -88414.49331217926, -31764.80165300389, 0.0, 0.0, 0.0, 193.0, 0.0, 1.0, 1.0, 0.0, 0.0, 1.0, 1.0, 256.0, 1.0, 1.750528220566404E9, 0.0, 2025-06-21 19:50:20.566
8.0, -44004.32634405212, -38267.415853430735, -29959.9206399823, -72710.9623206809, -27881.94601320577, -28009.820343234584, -52693.745815008384, -100090.55287725365, -187500.02235174447, -187500.02235174447, -47962.283845220074, -46671.67176862619, -77952.71461638388, -48874.458536441154, -88421.24353900475, -31728.79299268639, 0.0, 0.0, 0.0, 193.0, 0.0, 1.0, 1.0, 0.0, 0.0, 1.0, 1.0, 256.0, 1.0, 1.75052822057543E9, 0.0, 2025-06-21 19:50:20.575
10.0, -44010.00368714377, -38273.29436222248, -29959.9206399823, -72721.26647487479, -27878.392085837375, -27982.662973721384, -52699.22199239994, -100093.10097612155, -187500.02235174447, -187500.02235174447, -47973.884400592375, -46688.34616998985, -77951.149994272, -48899.80541465347, -88402.80334982912, -31750.787109230416, 0.0, 0.0, 0.0, 193.0, 0.0, 1.0, 1.0, 0.0, 0.0, 1.0, 1.0, 256.0, 1.0, 1.750528220583462E9, 0.0, 2025-06-21 19:50:20.583
12.0, -43985.10384382056, -38242.89598976326, -29940.02758741708, -72682.53090173374, -27874.748751491163, -28021.510305584707, -52668.175419351515, -100059.59571118305, -187500.02235174447, -187500.02235174447, -47972.76681336961, -46682.49001294256, -77958.57077343116, -48889.74712964858, -88427.05499256313, -31741.75700447047, 0.0, 0.0, 0.0, 193.0, 0.0, 1.0, 1.0, 0.0, 0.0, 1.0, 1.0, 256.0, 1.0, 1.750528220590533E9, 0.0, 2025-06-21 19:50:20.590
14.0, -43988.34484676657, -38252.5295916235, -29932.36093906891, -72690.53282624875, -27854.386312292376, -27981.657145220895, -52670.969387408426, -100074.5713799681, -187500.02235174447, -187500.02235174447, -47946.92819677928, -46650.61642534929, -77925.6466538485, -48864.601417136364, -88394.82377705858, -31715.381946013207, 0.0, 0.0, 0.0, 193.0, 0.0, 1.0, 1.0, 0.0, 0.0, 1.0, 1.0, 256.0, 1.0, 1.750528220599528E9, 0.0, 2025-06-21 19:50:20.599
16.0, -43982.287524019186, -38249.936789266685, -29935.22196235919, -72690.82339892667, -27847.99371337816, -27989.994345902724, -52667.30370131775, -100069.5198857212, -187500.02235174447, -187500.02235174447, -47961.00979578612, -46667.82726857987, -77931.7486800848, -48888.1378040478, -88390.48753863425, -31736.70551022357, 0.0, 0.0, 0.0, 193.0, 0.0, 1.0, 1.0, 0.0, 0.0, 1.0, 1.0, 256.0, 1.0, 1.750528220607574E9, 0.0, 2025-06-21 19:50:20.607
18.0, -43991.98818111279, -38263.772519084516, -29940.273456606086, -72701.23931184284, -27869.27257409961, -28017.50934332721, -52673.1822101095, -100077.70062419184, -187500.02235174447, -187500.02235174447, -47945.989423512154, -46660.42884116517, -77933.78268883022, -48861.98626303509, -88402.73629459576, -31716.27601579142, 0.0, 0.0, 0.0, 193.0, 0.0, 1.0, 1.0, 0.0, 0.0, 1.0, 1.0, 256.0, 1.0, 1.750528220614589E9, 0.0, 2025-06-21 19:50:20.614
20.0, -44010.56248075515, -38270.81331858794, -29960.1218056824, -72722.85344873113, -27868.356152576944, -27994.64350874943, -52687.50967830535, -100093.41390054392, -187500.02235174447, -187500.02235174447, -47972.23037150269, -46689.39670197925, -77947.46195643688, -48904.85690890037, -88403.1162742515, -31753.871649965247, 0.0, 0.0, 0.0, 193.0, 0.0, 1.0, 1.0, 0.0, 0.0, 1.0, 1.0, 256.0, 1.0, 1.750528220622632E9, 0.0, 2025-06-21 19:50:20.622
22.0, -43993.46339624684, -38243.54419035246, -29953.25982013462, -72699.09354437514, -27869.69725724426, -28019.699814283827, -52661.02286112581, -100063.79783914064, -187500.02235174447, -187500.02235174447, -47970.174011012794, -46679.89721058574, -77952.8487268506, -48888.450728470176, -88421.69057389387, -31738.71716722455, 0.0, 0.0, 0.0, 193.0, 0.0, 1.0, 1.0, 0.0, 0.0, 1.0, 1.0, 256.0, 1.0, 1.750528220631634E9, 0.0, 2025-06-21 19:50:20.631
24.0, -44006.136835353, -38264.77834758501, -29951.31521836701, -72710.40352706952, -27856.263858826624, -27964.24513629021, -52680.37947182411, -100082.08156610509, -187500.02235174447, -187500.02235174447, -47966.95535981123, -46675.56097216141, -77947.41725294797, -48877.85600159836, -88407.38545744246, -31730.827001431826, 0.0, 0.0, 0.0, 193.0, 0.0, 1.0, 1.0, 0.0, 0.0, 1.0, 1.0, 256.0, 1.0, 1.750528220639694E9, 0.0, 2025-06-21 19:50:20.639
26.0, -44007.76851269824, -38269.00282728706, -29957.84192774796, -72712.81751547068, -27885.589347551984, -28019.096317183536, -52692.18119289651, -100076.78420266918, -187500.02235174447, -187500.02235174447, -47978.28769425007, -46688.39087347876, -77955.21801176286, -48902.93465887722, -88408.14541675395, -31752.128213897733, 0.0, 0.0, 0.0, 193.0, 0.0, 1.0, 1.0, 0.0, 0.0, 1.0, 1.0, 256.0, 1.0, 1.750528220646696E9, 0.0, 2025-06-21 19:50:20.646
28.0, -43992.010532857246, -38243.8794665193, -29938.194744371744, -72696.2101693404, -27867.685600243283, -28005.797029232628, -52664.28621581629, -100063.90959786292, -187500.02235174447, -187500.02235174447, -47951.91263579281, -46672.387024448755, -77949.60772390458, -48870.32346371692, -88415.27562323518, -31723.69679495058, 0.0, 0.0, 0.0, 193.0, 0.0, 1.0, 1.0, 0.0, 0.0, 1.0, 1.0, 256.0, 1.0, 1.750528220654712E9, 0.0, 2025-06-21 19:50:20.654
30.0, -44018.96673667034, -38283.19618501618, -29962.871070250403, -72728.73195752288, -27875.08402765799, -27988.228558090756, -52688.582562039206, -100095.91729592292, -187500.02235174447, -187500.02235174447, -47974.13026978139, -46692.458890969625, -77950.41238670498, -48905.236888556115, -88401.12696899498, -31753.625780776238, 0.0, 0.0, 0.0, 193.0, 0.0, 1.0, 1.0, 0.0, 0.0, 1.0, 1.0, 256.0, 1.0, 1.750528220663752E9, 0.0, 2025-06-21 19:50:20.663
32.0, -43977.727768150304, -38234.2235129146, -29927.39885179983, -72684.92253839047, -27843.948047631748, -28004.54533154313, -52647.388297008074, -100053.9183680914, -187500.02235174447, -187500.02235174447, -47965.45779293273, -46681.50653618653, -77951.395863461, -48887.98134183662, -88411.90050982243, -31739.588885258305, 0.0, 0.0, 0.0, 193.0, 0.0, 1.0, 1.0, 0.0, 0.0, 1.0, 1.0, 256.0, 1.0, 1.750528220670777E9, 0.0, 2025-06-21 19:50:20.670
34.0, -43990.15533806745, -38245.93582700918, -29938.77588972758, -72702.53571302125, -27842.495184242154, -27966.189738057823, -52658.76533493583, -100076.98536836928, -187500.02235174447, -187500.02235174447, -47929.13620819285, -46649.16356195969, -77913.50965660925, -48847.99407100607, -88366.34765462251, -31702.2838237624, 0.0, 0.0, 0.0, 193.0, 0.0, 1.0, 1.0, 0.0, 0.0, 1.0, 1.0, 256.0, 1.0, 1.750528220678824E9, 0.0, 2025-06-21 19:50:20.678
36.0, -44017.78209421421, -38285.07373155042, -29968.011971475124, -72723.68046327597, -27885.589347551984, -28021.711471284805, -52680.267713101835, -100092.29631332116, -187500.02235174447, -187500.02235174447, -47991.94461011227, -46702.38306550778, -77967.89145086902, -48921.53131026403, -88421.19883551584, -31771.86480425177, 0.0, 0.0, 0.0, 193.0, 0.0, 1.0, 1.0, 0.0, 0.0, 1.0, 1.0, 256.0, 1.0, 1.750528220686838E9, 0.0, 2025-06-21 19:50:20.686
38.0, -44007.56734699814, -38274.21078374515, -29945.88374446437, -72708.10129739062, -27868.04322815457, -28013.59778804753, -52683.32990209221, -100086.1272318515, -187500.02235174447, -187500.02235174447, -47964.54137141006, -46677.773794862485, -77957.27437225275, -48880.538210933, -88425.19979777334, -31736.99608290149, 0.0, 0.0, 0.0, 193.0, 0.0, 1.0, 1.0, 0.0, 0.0, 1.0, 1.0, 256.0, 1.0, 1.750528220695871E9, 0.0, 2025-06-21 19:50:20.695
40.0, -44008.26025107625, -38248.93096076619, -29961.30644813853, -72725.64741678804, -27875.776931736105, -27973.49875849471, -52694.81869874224, -100090.30700806463, -187500.02235174447, -187500.02235174447, -47974.15262152584, -46690.089606057365, -77954.5474594292, -48899.78306290902, -88399.62940211646, -31754.81042323237, 0.0, 0.0, 0.0, 193.0, 0.0, 1.0, 1.0, 0.0, 0.0, 1.0, 1.0, 256.0, 1.0, 1.750528220702909E9, 0.0, 2025-06-21 19:50:20.702
42.0, -43996.816157915135, -38247.12046946531, -29954.265648635108, -72704.90499793351, -27868.26674559912, -28019.54335207264, -52680.44652705747, -100069.49753397674, -187500.02235174447, -187500.02235174447, -47986.37902574289, -46696.5716119494, -77974.10523582759, -48904.16400482226, -88436.8227048901, -31756.509155810974, 0.0, 0.0, 0.0, 193.0, 0.0, 1.0, 1.0, 0.0, 0.0, 1.0, 1.0, 256.0, 1.0, 1.750528220710926E9, 0.0, 2025-06-21 19:50:20.710
44.0, -44009.57900399912, -38287.4877199516, -29948.9682851992, -72718.89718996253, -27857.046169882557, -27970.34716252651, -52678.09959388967, -100084.96494113981, -187500.02235174447, -187500.02235174447, -47961.1215545084, -46677.46087044011, -77948.15486051499, -48875.95610331966, -88400.27760270568, -31729.061213619854, 0.0, 0.0, 0.0, 193.0, 0.0, 1.0, 1.0, 0.0, 0.0, 1.0, 1.0, 256.0, 1.0, 1.750528220718913E9, 0.0, 2025-06-21 19:50:20.718
46.0, -43985.81909964313, -38269.025179031516, -29942.0168926736, -72705.57555026717, -27856.062693126525, -28002.3101570976, -52652.9762331219, -100068.35759500953, -187500.02235174447, -187500.02235174447, -47965.41308944382, -46691.698931658146, -77948.15486051499, -48904.67809494473, -88400.45641666131, -31754.832774976825, 0.0, 0.0, 0.0, 193.0, 0.0, 1.0, 1.0, 0.0, 0.0, 1.0, 1.0, 256.0, 1.0, 1.750528220726997E9, 0.0, 2025-06-21 19:50:20.726
48.0, -43968.295331990164, -38254.74241432457, -29922.772040697582, -72691.58335823815, -27837.935428373272, -28023.968997474793, -52658.56416923573, -100069.22931304328, -187500.02235174447, -187500.02235174447, -47941.27320543209, -46669.54835290294, -77937.82835457663, -48870.971664306126, -88411.18525399987, -31725.462582762553, 0.0, 0.0, 0.0, 193.0, 0.0, 1.0, 1.0, 0.0, 0.0, 1.0, 1.0, 256.0, 1.0, 1.750528220734997E9, 0.0, 2025-06-21 19:50:20.734
50.0, -43978.867707117526, -38263.41489117323, -29930.10341287892, -72703.04980314372, -27823.943236344247, -27995.403468060907, -52677.51844853383, -100079.622874215, -187500.02235174447, -187500.02235174447, -47941.07203973199, -46670.442422681146, -77923.9926247588, -48886.95316159167, -88378.64111407293, -31739.3430160693, 0.0, 0.0, 0.0, 193.0, 0.0, 1.0, 1.0, 0.0, 0.0, 1.0, 1.0, 256.0, 1.0, 1.750528220743054E9, 0.0, 2025-06-21 19:50:20.743
52.0, -43933.87364552899, -38221.03598368597, -29889.490293203628, -72651.9984188078, -27798.59635813193, -28012.144924657932, -52638.13467480358, -100038.87564407298, -187500.02235174447, -187500.02235174447, -47922.54244357854, -46651.59990210532, -77915.11898221004, -48859.39346067828, -88382.50796586371, -31713.99613785698, 0.0, 0.0, 0.0, 193.0, 0.0, 1.0, 1.0, 0.0, 0.0, 1.0, 1.0, 256.0, 1.0, 1.750528220752154E9, 0.0, 2025-06-21 19:50:20.752
54.0, -43967.75889012324, -38259.369225426824, -29928.717604722693, -72699.51822751979, -27839.03066385158, -27995.224654105266, -52665.67202397252, -100078.28176954768, -187500.02235174447, -187500.02235174447, -47913.557042307504, -46648.38125090376, -77910.26865366324, -48851.63740535229, -88377.14354719443, -31708.385849998696, 0.0, 0.0, 0.0, 193.0, 0.0, 1.0, 1.0, 0.0, 0.0, 1.0, 1.0, 256.0, 1.0, 1.750528220758168E9, 0.0, 2025-06-21 19:50:20.758
56.0, -43960.74044236427, -38249.95914101114, -29927.108279121912, -72693.97499489487, -27824.904361355828, -28023.946645730335, -52669.002433896356, -100071.35272876653, -187500.02235174447, -187500.02235174447, -47938.63569958636, -46678.35494021833, -77929.46880215035, -48889.61301918185, -88392.87917529097, -31743.634551004718, 0.0, 0.0, 0.0, 193.0, 0.0, 1.0, 1.0, 0.0, 0.0, 1.0, 1.0, 256.0, 1.0, 1.750528220767151E9, 0.0, 2025-06-21 19:50:20.767
58.0, -43943.28372994468, -38238.537399594476, -29913.898398148824, -72688.02943086975, -27822.244503765643, -28025.48891609775, -52652.95388137745, -100058.85810361602, -187500.02235174447, -187500.02235174447, -47925.448170357726, -46665.30152145643, -77928.32886318312, -48859.929902545206, -88397.70715209331, -31721.84160016079, 0.0, 0.0, 0.0, 193.0, 0.0, 1.0, 1.0, 0.0, 0.0, 1.0, 1.0, 256.0, 1.0, 1.750528220776163E9, 0.0, 2025-06-21 19:50:20.776
60.0, -43954.37019519451, -38244.30414966395, -29921.520343008084, -72702.73687872135, -27821.46219270971, -27979.91370915338, -52669.33771006319, -100070.63747294397, -187500.02235174447, -187500.02235174447, -47920.843710999936, -46664.38509993376, -77908.81579027364, -48874.458536441154, -88369.67806454636, -31731.09522236529, 0.0, 0.0, 0.0, 193.0, 0.0, 1.0, 1.0, 0.0, 0.0, 1.0, 1.0, 256.0, 1.0, 1.750528220783185E9, 0.0, 2025-06-21 19:50:20.783
62.0, -43929.04566872665, -38209.54718703594, -29897.44751422972, -72669.20926203839, -27816.65656765182, -28020.951511973326, -52646.918910374516, -100048.28572848866, -187500.02235174447, -187500.02235174447, -47929.62794657087, -46668.3637104468, -77923.90321778099, -48870.16700150574, -88388.05119848863, -31726.200190329575, 0.0, 0.0, 0.0, 193.0, 0.0, 1.0, 1.0, 0.0, 0.0, 1.0, 1.0, 256.0, 1.0, 1.750528220790208E9, 0.0, 2025-06-21 19:50:20.790
64.0, -43932.35372690603, -38229.08261168988, -29900.464999731186, -72678.9546226209, -27808.40877394781, -27985.81456968958, -52650.6292999541, -100064.22252228529, -187500.02235174447, -187500.02235174447, -47895.76505372108, -46635.59605307532, -77888.85568247506, -48840.528588358, -88355.99879693972, -31698.23815801599, 0.0, 0.0, 0.0, 193.0, 0.0, 1.0, 1.0, 0.0, 0.0, 1.0, 1.0, 256.0, 1.0, 1.750528220799248E9, 0.0, 2025-06-21 19:50:20.799
66.0, -43952.157372493435, -38240.482001362085, -29923.755517453614, -72696.50074201831, -27826.290169512056, -28005.282939110155, -52669.67298623002, -100077.20888581383, -187500.02235174447, -187500.02235174447, -47935.32764140698, -46671.068271525895, -77918.71761306735, -48888.76365289255, -88380.96569549628, -31744.48391729402, 0.0, 0.0, 0.0, 193.0, 0.0, 1.0, 1.0, 0.0, 0.0, 1.0, 1.0, 256.0, 1.0, 1.750528220807332E9, 0.0, 2025-06-21 19:50:20.807
68.0, -43937.69579383085, -38232.92711173619, -29914.412488271297, -72684.76607617928, -27827.921846857294, -28024.2148666638, -52661.08991635918, -100072.11268807802, -187500.02235174447, -187500.02235174447, -47917.28978363154, -46655.66791959619, -77919.7457933123, -48862.34389094638, -88398.89179454945, -31723.94266413959, 0.0, 0.0, 0.0, 193.0, 0.0, 1.0, 1.0, 0.0, 0.0, 1.0, 1.0, 256.0, 1.0, 1.750528220814253E9, 0.0, 2025-06-21 19:50:20.814
70.0, -43943.39548866695, -38237.062184460425, -29924.82840118747, -72698.28888157474, -27829.709986413716, -28001.192569874835, -52665.56026525024, -100076.42657475789, -187500.02235174447, -187500.02235174447, -47930.34320239344, -46668.47546916908, -77917.98000550033, -48893.21165003916, -88389.50406187822, -31751.882344708723, 0.0, 0.0, 0.0, 193.0, 0.0, 1.0, 1.0, 0.0, 0.0, 1.0, 1.0, 256.0, 1.0, 1.750528220823334E9, 0.0, 2025-06-21 19:50:20.823
72.0, -43927.12341870349, -38219.69487901865, -29904.912996877792, -72679.11108483208, -27816.589512418454, -28029.44517486634, -52671.2823118308, -100069.89986537694, -187500.02235174447, -187500.02235174447, -47912.931193462755, -46651.04110849394, -77909.15106644048, -48873.832687596405, -88390.53224212317, -31736.43728929011, 0.0, 0.0, 0.0, 193.0, 0.0, 1.0, 1.0, 0.0, 0.0, 1.0, 1.0, 256.0, 1.0, 1.750528220831313E9, 0.0, 2025-06-21 19:50:20.831
74.0, -43932.13020946148, -38232.167152424714, -29909.450401002217, -72692.79035243874, -27810.73335537116, -27987.043915634626, -52661.89457915957, -100077.87943814749, -187500.02235174447, -187500.02235174447, -47908.952582949714, -46649.878817782264, -77902.35613612607, -48871.0834230284, -88383.33498040856, -31734.55974275586, 0.0, 0.0, 0.0, 193.0, 0.0, 1.0, 1.0, 0.0, 0.0, 1.0, 1.0, 256.0, 1.0, 1.750528220839427E9, 0.0, 2025-06-21 19:50:20.839
76.0, -43928.59863383754, -38223.8746552318, -29901.73904916514, -72685.52603549077, -27807.22413149168, -28004.567683287583, -52648.95291911995, -100069.83281014358, -187500.02235174447, -187500.02235174447, -47914.09348417443, -46655.73497482955, -77897.639918046, -48878.10187078737, -88367.26407614519, -31737.599580001784, 0.0, 0.0, 0.0, 193.0, 0.0, 1.0, 1.0, 0.0, 0.0, 1.0, 1.0, 256.0, 1.0, 1.750528220846434E9, 0.0, 2025-06-21 19:50:20.846
78.0, -43920.84257851155, -38223.33821336487, -29893.044220572025, -72677.97114586487, -27822.4680212102, -28021.934988729357, -52647.52240747481, -100065.22835078578, -187500.02235174447, -187500.02235174447, -47905.9574491927, -46656.07025099638, -77907.22881641732, -48851.77151581902, -88386.62068684348, -31715.65016694667, 0.0, 0.0, 0.0, 193.0, 0.0, 1.0, 1.0, 0.0, 0.0, 1.0, 1.0, 256.0, 1.0, 1.750528220855461E9, 0.0, 2025-06-21 19:50:20.855
80.0, -43941.69675608835, -38245.108812464336, -29913.67488070427, -72698.91473041949, -27818.064727552504, -27997.325718084066, -52673.49513453188, -100087.78126094119, -187500.02235174447, -187500.02235174447, -47913.89231847433, -46664.34039644485, -77901.59617681458, -48870.09994627237, -88361.76554700918, -31731.18462934311, 0.0, 0.0, 0.0, 193.0, 0.0, 1.0, 1.0, 0.0, 0.0, 1.0, 1.0, 256.0, 1.0, 1.750528220863475E9, 0.0, 2025-06-21 19:50:20.863
82.0, -43925.849369269534, -38219.381954596276, -29908.377517268364, -72677.23353829783, -27825.46315496721, -28030.518058600195, -52657.44658201296, -100063.59667344054, -187500.02235174447, -187500.02235174447, -47919.05557144351, -46664.60861737831, -77915.61072058805, -48864.467306669634, -88389.83933804504, -31726.200190329575, 0.0, 0.0, 0.0, 193.0, 0.0, 1.0, 1.0, 0.0, 0.0, 1.0, 1.0, 256.0, 1.0, 1.750528220870564E9, 0.0, 2025-06-21 19:50:20.870
84.0, -43915.79108426465, -38208.00491666853, -29891.367839737875, -72663.06253231318, -27800.518608155086, -27976.002153873702, -52640.213387037926, -100045.64822264294, -187500.02235174447, -187500.02235174447, -47900.45892005669, -46635.7078117976, -77891.31437436515, -48837.60050983435, -88366.72763427826, -31698.014640571433, 0.0, 0.0, 0.0, 193.0, 0.0, 1.0, 1.0, 0.0, 0.0, 1.0, 1.0, 256.0, 1.0, 1.750528220878506E9, 0.0, 2025-06-21 19:50:20.878
86.0, -43939.93096827638, -38229.440239601165, -29918.4134505288, -72684.47550350137, -27829.39706199134, -28005.193532132333, -52675.775012466314, -100071.71035667782, -187500.02235174447, -187500.02235174447, -47919.077923187964, -46649.94587301563, -77900.54564482518, -48864.08732701389, -88362.39139585393, -31721.37221352723, 0.0, 0.0, 0.0, 193.0, 0.0, 1.0, 1.0, 0.0, 0.0, 1.0, 1.0, 256.0, 1.0, 1.750528220887544E9, 0.0, 2025-06-21 19:50:20.887
88.0, -43926.69873555884, -38222.533550564476, -29905.82941840046, -72677.03237259775, -27828.905323613326, -28004.902959454415, -52654.809076167236, -100060.69094666136, -187500.02235174447, -187500.02235174447, -47914.22759464116, -46646.81662879189, -77910.04513621869, -48846.89883552776, -88385.05606473162, -31708.184684298598, 0.0, 0.0, 0.0, 193.0, 0.0, 1.0, 1.0, 0.0, 0.0, 1.0, 1.0, 256.0, 1.0, 1.750528220894523E9, 0.0, 2025-06-21 19:50:20.894
90.0, -43951.68798585987, -38246.98635899858, -29931.578628012972, -72708.414221813, -27836.639027194862, -27996.856331450505, -52674.56801826573, -100089.97173189781, -187500.02235174447, -187500.02235174447, -47923.77178952358, -46660.80882082091, -77908.03347921772, -48881.85696385586, -88372.78495702565, -31740.237085847508, 0.0, 0.0, 0.0, 193.0, 0.0, 1.0, 1.0, 0.0, 0.0, 1.0, 1.0, 256.0, 1.0, 1.750528220902563E9, 0.0, 2025-06-21 19:50:20.902
92.0, -43931.526712361185, -38229.61905355681, -29920.983901141157, -72689.79521868173, -27829.330006757977, -28035.41309063591, -52650.78576216528, -100061.02622282818, -187500.02235174447, -187500.02235174447, -47934.902958262326, -46671.38119594827, -77925.4901916373, -48890.37297849333, -88407.87719582047, -31748.261362106965, 0.0, 0.0, 0.0, 193.0, 0.0, 1.0, 1.0, 0.0, 0.0, 1.0, 1.0, 256.0, 1.0, 1.750528220910602E9, 0.0, 2025-06-21 19:50:20.910
94.0, -43936.73466881927, -38233.28473964748, -29918.81578192899, -72698.40064029701, -27822.535076443564, -27992.96712791528, -52659.56999773622, -100073.34203402305, -187500.02235174447, -187500.02235174447, -47911.92536496227, -46651.57755036087, -77903.31726113764, -48864.37789969181, -88378.95403849531, -31723.249760061477, 0.0, 0.0, 0.0, 193.0, 0.0, 1.0, 1.0, 0.0, 0.0, 1.0, 1.0, 256.0, 1.0, 1.750528220919603E9, 0.0, 2025-06-21 19:50:20.919
96.0, -43949.02812826969, -38239.11854495032, -29929.902247178823, -72702.53571302125, -27831.855753881428, -28016.570570060085, -52670.47764903041, -100071.0174525997, -187500.02235174447, -187500.02235174447, -47942.994289755145, -46684.05463505443, -77926.63013060452, -48901.034760598515, -88390.64400084544, -31756.486804066517, 0.0, 0.0, 0.0, 193.0, 0.0, 1.0, 1.0, 0.0, 0.0, 1.0, 1.0, 256.0, 1.0, 1.750528220926624E9, 0.0, 2025-06-21 19:50:20.926
98.0, -43940.57916886559, -38231.273082646505, -29930.05870939001, -72692.94681464993, -27832.168678303802, -28019.766869517192, -52653.64678545556, -100059.34984199403, -187500.02235174447, -187500.02235174447, -47927.95156573672, -46658.014852764, -77922.51740962475, -48864.69082411419, -88405.19498648585, -31722.84742866128, 0.0, 0.0, 0.0, 193.0, 0.0, 1.0, 1.0, 0.0, 0.0, 1.0, 1.0, 256.0, 1.0, 1.750528220935652E9, 0.0, 2025-06-21 19:50:20.935
100.0, -43946.9717677798, -38237.688033305174, -29937.099508893432, -72709.19653286893, -27839.835326651973, -27995.11289538299, -52674.523314776816, -100084.60731322854, -187500.02235174447, -187500.02235174447, -47936.914615263304, -46674.33162621637, -77921.645691591, -48896.94439136319, -88395.98606777025, -31753.581077287326, 0.0, 0.0, 0.0, 193.0, 0.0, 1.0, 1.0, 0.0, 0.0, 1.0, 1.0, 256.0, 1.0, 1.750528220943702E9, 0.0, 2025-06-21 19:50:20.943
102.0, -43916.05930519811, -38208.206082368626, -29908.221055057176, -72670.57271845016, -27817.863561852406, -28012.010814191202, -52630.11039854412, -100037.84746382803, -187500.02235174447, -187500.02235174447, -47917.35683886491, -46645.833152035855, -77904.79247627169, -48870.79285035049, -88397.14835848194, -31728.323606052832, 0.0, 0.0, 0.0, 193.0, 0.0, 1.0, 1.0, 0.0, 0.0, 1.0, 1.0, 256.0, 1.0, 1.750528220950753E9, 0.0, 2025-06-21 19:50:20.950
104.0, -43946.50238114624, -38240.079669961895, -29924.06844187599, -72702.04397464324, -27835.722605672196, -27993.21299710429, -52673.070451387226, -100082.19332482736, -187500.02235174447, -187500.02235174447, -47916.23925164214, -46650.12468697127, -77904.56895882713, -48872.11160327335, -88392.65565784642, -31731.27403632093, 0.0, 0.0, 0.0, 193.0, 0.0, 1.0, 1.0, 0.0, 0.0, 1.0, 1.0, 256.0, 1.0, 1.750528220958757E9, 0.0, 2025-06-21 19:50:20.958
106.0, -43929.33624140456, -38226.13218142178, -29909.33864227994, -72685.36957327957, -27828.815916635504, -28001.952529186314, -52671.70699497545, -100072.00092935574, -187500.02235174447, -187500.02235174447, -47933.315984406, -46673.25874248252, -77915.81188628815, -48904.3428187779, -88396.18723347035, -31760.48776632402, 0.0, 0.0, 0.0, 193.0, 0.0, 1.0, 1.0, 0.0, 0.0, 1.0, 1.0, 256.0, 1.0, 1.75052822096677E9, 0.0, 2025-06-21 19:50:20.966
108.0, -43935.1700467074, -38234.134105936784, -29914.50189524912, -72687.13536109154, -27832.79452714855, -28026.941779487348, -52668.62245424062, -100081.79099342716, -187500.02235174447, -187500.02235174447, -47902.67174275777, -46644.08971596834, -77898.26576689075, -48855.21368446513, -88391.42631190138, -31716.27601579142, 0.0, 0.0, 0.0, 193.0, 0.0, 1.0, 1.0, 0.0, 0.0, 1.0, 1.0, 256.0, 1.0, 1.750528220975797E9, 0.0, 2025-06-21 19:50:20.975
110.0, -43960.0251865417, -38254.45184164665, -29932.9644361692, -72706.40256481202, -27841.51170748612, -27993.30240408211, -52680.91591369104, -100092.05044413215, -187500.02235174447, -187500.02235174447, -47931.036106471554, -46665.07800401187, -77910.69333680789, -48888.29426625899, -88386.9112595214, -31744.03688240491, 0.0, 0.0, 0.0, 193.0, 0.0, 1.0, 1.0, 0.0, 0.0, 1.0, 1.0, 256.0, 1.0, 1.750528220982862E9, 0.0, 2025-06-21 19:50:20.982
112.0, -43936.57820660809, -38226.154533166235, -29918.72637495117, -72681.27920404426, -27810.97922456017, -28029.467526610795, -52647.32124177471, -100055.95237683682, -187500.02235174447, -187500.02235174447, -47931.39373438284, -46665.815611578895, -77923.9926247588, -48874.70440563016, -88400.88109980596, -31731.1399258542, 0.0, 0.0, 0.0, 193.0, 0.0, 1.0, 1.0, 0.0, 0.0, 1.0, 1.0, 256.0, 1.0, 1.750528220990897E9, 0.0, 2025-06-21 19:50:20.990
114.0, -43949.162238736426, -38238.69386180567, -29927.421203544287, -72700.43464904245, -27828.324178257488, -28003.673613509374, -52656.88778840158, -100075.84542940205, -187500.02235174447, -187500.02235174447, -47913.93702196325, -46655.265588195994, -77911.83327577512, -48863.86380956934, -88389.79463455614, -31720.969882127036, 0.0, 0.0, 0.0, 193.0, 0.0, 1.0, 1.0, 0.0, 0.0, 1.0, 1.0, 256.0, 1.0, 1.750528220998924E9, 0.0, 2025-06-21 19:50:20.998
116.0, -43952.64911087145, -38237.062184460425, -29933.523229780585, -72700.88168393156, -27840.908210385827, -28011.54142755764, -52675.305625832756, -100080.2710748042, -187500.02235174447, -187500.02235174447, -47943.30721417752, -46673.459908182616, -77926.38426141551, -48904.36517052235, -88400.25525096121, -31760.778339001936, 0.0, 0.0, 0.0, 193.0, 0.0, 1.0, 1.0, 0.0, 0.0, 1.0, 1.0, 256.0, 1.0, 1.750528221006914E9, 0.0, 2025-06-21 19:50:21.006
118.0, -43933.02427923969, -38222.15357090873, -29912.356127781408, -72680.40748601049, -27834.292094027056, -28014.983596203758, -52642.11328531663, -100058.25460651572, -187500.02235174447, -187500.02235174447, -47921.02252495558, -46648.358899159306, -77914.04609847619, -48870.2340567391, -88405.4185039304, -31730.827001431826, 0.0, 0.0, 0.0, 193.0, 0.0, 1.0, 1.0, 0.0, 0.0, 1.0, 1.0, 256.0, 1.0, 1.750528221014977E9, 0.0, 2025-06-21 19:50:21.014
120.0, -43970.01641631322, -38257.80460331495, -29942.530982796074, -72721.26647487479, -27850.65357096834, -27994.93408142735, -52687.21910562743, -100101.08054889209, -187500.02235174447, -187500.02235174447, -47930.67847856027, -46664.45215516713, -77909.46399086285, -48898.240792541605, -88390.21931770079, -31753.46931856505, 0.0, 0.0, 0.0, 193.0, 0.0, 1.0, 1.0, 0.0, 0.0, 1.0, 1.0, 256.0, 1.0, 1.750528221022971E9, 0.0, 2025-06-21 19:50:21.022
122.0, -43931.07967747208, -38219.65017552974, -29909.20453181321, -72675.98184060835, -27824.054995066526, -27998.935043684847, -52642.87324462811, -100056.15354253692, -187500.02235174447, -187500.02235174447, -47935.12647570688, -46668.900152313734, -77922.02567124674, -48889.76948139304, -88405.30674520812, -31745.601504516784, 0.0, 0.0, 0.0, 193.0, 0.0, 1.0, 1.0, 0.0, 0.0, 1.0, 1.0, 256.0, 1.0, 1.750528221031034E9, 0.0, 2025-06-21 19:50:21.031
124.0, -43954.817230083616, -38244.30414966395, -29921.29682556353, -72695.5619687512, -27844.395082520856, -27999.02445066267, -52665.35909955014, -100083.3779672835, -187500.02235174447, -187500.02235174447, -47910.47250157267, -46640.37932638876, -77897.19288315688, -48859.72873684511, -88378.17172743937, -31717.728879181017, 0.0, 0.0, 0.0, 193.0, 0.0, 1.0, 1.0, 0.0, 0.0, 1.0, 1.0, 256.0, 1.0, 1.750528221039038E9, 0.0, 2025-06-21 19:50:21.039
126.0, -43961.56745690912, -38246.226399687104, -29930.63985474585, -72696.79131469624, -27849.401873278843, -28024.863067253005, -52675.082108388204, -100080.20401957084, -187500.02235174447, -187500.02235174447, -47942.927234521776, -46673.39285294925, -77923.85851429206, -48897.41377799676, -88394.98023926977, -31753.51402205396, 0.0, 0.0, 0.0, 193.0, 0.0, 1.0, 1.0, 0.0, 0.0, 1.0, 1.0, 256.0, 1.0, 1.750528221047149E9, 0.0, 2025-06-21 19:50:21.047
128.0, -43936.89113103046, -38222.175922653194, -29905.315328277986, -72671.71265741737, -27829.374710246888, -28018.470468338786, -52654.71966918942, -100064.28957751866, -187500.02235174447, -187500.02235174447, -47917.58035630946, -46647.28601542545, -77912.34736589759, -48851.391536163275, -88390.75575956772, -31713.0350128454, 0.0, 0.0, 0.0, 193.0, 0.0, 1.0, 1.0, 0.0, 0.0, 1.0, 1.0, 256.0, 1.0, 1.750528221055096E9, 0.0, 2025-06-21 19:50:21.055
130.0, -43950.615102126016, -38234.24586465906, -29919.106354606913, -72696.83601818515, -27827.40775673482, -27974.52693873965, -52670.07531763022, -100078.95232188134, -187500.02235174447, -187500.02235174447, -47920.01669645509, -46660.764117332, -77906.22298791683, -48871.86573408434, -88370.95211398031, -31731.005815387467, 0.0, 0.0, 0.0, 193.0, 0.0, 1.0, 1.0, 0.0, 0.0, 1.0, 1.0, 256.0, 1.0, 1.750528221063124E9, 0.0, 2025-06-21 19:50:21.063
132.0, -43949.89984630345, -38240.19142868417, -29924.426069787274, -72687.06830585818, -27831.140498058856, -28035.12251795799, -52670.544704263775, -100069.05049908764, -187500.02235174447, -187500.02235174447, -47927.2139581697, -46661.03233826546, -77920.6398630905, -48876.425489953224, -88402.7139428513, -31733.464507277553, 0.0, 0.0, 0.0, 193.0, 0.0, 1.0, 1.0, 0.0, 0.0, 1.0, 1.0, 256.0, 1.0, 1.750528221071149E9, 0.0, 2025-06-21 19:50:21.071
134.0, -43959.08641327458, -38255.748242825066, -29932.182125113264, -72709.50945729131, -27842.428129008786, -27982.864139421483, -52695.95863770946, -100098.01835990172, -187500.02235174447, -187500.02235174447, -47921.469559844685, -46656.29376844094, -77914.9401682544, -48872.91626607374, -88394.77907356968, -31730.22350433153, 0.0, 0.0, 0.0, 193.0, 0.0, 1.0, 1.0, 0.0, 0.0, 1.0, 1.0, 256.0, 1.0, 1.750528221078163E9, 0.0, 2025-06-21 19:50:21.078
136.0, -43979.337093751084, -38276.44595819068, -29966.961439485724, -72740.176050684, -27876.067504414026, -28027.031186465167, -52723.76420781186, -100126.71799978233, -187500.02235174447, -187500.02235174447, -47971.649226146845, -46712.53075749049, -77956.46970945236, -48939.23389187264, -88433.51464671071, -31794.663583596182, 0.0, 0.0, 0.0, 193.0, 0.0, 1.0, 1.0, 0.0, 0.0, 1.0, 1.0, 256.0, 1.0, 1.750528221087235E9, 0.0, 2025-06-21 19:50:21.087
138.0, -43943.1719712224, -38238.44799261665, -29920.87214241888, -72697.41716354099, -27840.818803408005, -28030.719224300294, -52675.931474677505, -100089.41293828642, -187500.02235174447, -187500.02235174447, -47936.13230420736, -46671.694120370645, -77931.1451829845, -48888.49543195909, -88423.85869310603, -31747.94843768459, 0.0, 0.0, 0.0, 193.0, 0.0, 1.0, 1.0, 0.0, 0.0, 1.0, 1.0, 256.0, 1.0, 1.750528221096246E9, 0.0, 2025-06-21 19:50:21.096
140.0, -43970.21758201332, -38262.99020802858, -29947.202497387232, -72729.13428892306, -27844.59624822095, -28011.92140721338, -52692.494117318885, -100115.58683104359, -187500.02235174447, -187500.02235174447, -47943.30721417752, -46683.24997225404, -77926.56307537116, -48903.80637691097, -88395.3602189255, -31763.214679147564, 0.0, 0.0, 0.0, 193.0, 0.0, 1.0, 1.0, 0.0, 0.0, 1.0, 1.0, 256.0, 1.0, 1.750528221103294E9, 0.0, 2025-06-21 19:50:21.103
142.0, -43956.40420393994, -38242.940693252174, -29935.110203636912, -72702.53571302125, -27852.21819308021, -28044.64436109595, -52667.102535617654, -100066.27888277518, -187500.02235174447, -187500.02235174447, -47946.972900268185, -46683.11586178731, -77941.56109590067, -48895.2903622735, -88416.43791394687, -31755.77154824395, 0.0, 0.0, 0.0, 193.0, 0.0, 1.0, 1.0, 0.0, 0.0, 1.0, 1.0, 256.0, 1.0, 1.750528221110301E9, 0.0, 2025-06-21 19:50:21.110
144.0, -43966.39543371146, -38254.72006258012, -29939.11116589441, -72715.99146318334, -27847.3231610445, -28012.390793846942, -52663.99564313837, -100078.43823175886, -187500.02235174447, -187500.02235174447, -47937.048725730034, -46671.22473373708, -77928.8429533056, -48874.21266725215, -88401.93163179536, -31735.00677764497, 0.0, 0.0, 0.0, 193.0, 0.0, 1.0, 1.0, 0.0, 0.0, 1.0, 1.0, 256.0, 1.0, 1.750528221119331E9, 0.0, 2025-06-21 19:50:21.119
146.0, -43962.50623017624, -38240.37024263981, -29941.703968251226, -72709.0177189133, -27838.85184989594, -28014.134229914456, -52665.26969257232, -100071.10685957753, -187500.02235174447, -187500.02235174447, -47960.65216787484, -46692.749463647546, -77941.58344764513, -48903.04641759949, -88405.44085567485, -31761.605353546784, 0.0, 0.0, 0.0, 193.0, 0.0, 1.0, 1.0, 0.0, 0.0, 1.0, 1.0, 256.0, 1.0, 1.75052822112743E9, 0.0, 2025-06-21 19:50:21.127
148.0, -43939.05925024262, -38234.17880942569, -29917.29586330603, -72688.99055588133, -27820.1657915313, -28003.897130953927, -52655.54668373426, -100066.99413859774, -187500.02235174447, -187500.02235174447, -47933.315984406, -46668.676634869174, -77928.7982498167, -48868.71413811614, -88404.74795159674, -31731.363443298753, 0.0, 0.0, 0.0, 193.0, 0.0, 1.0, 1.0, 0.0, 0.0, 1.0, 1.0, 256.0, 1.0, 1.750528221134399E9, 0.0, 2025-06-21 19:50:21.134
150.0, -43978.577134439605, -38274.97074305663, -29949.996465444146, -72730.45304184593, -27850.65357096834, -28005.238235621244, -52671.684643231, -100092.877458677, -187500.02235174447, -187500.02235174447, -47935.05942047351, -46673.795184349445, -77918.38233690051, -48892.5410977055, -88384.11729146448, -31750.56359178586, 0.0, 0.0, 0.0, 193.0, 0.0, 1.0, 1.0, 0.0, 0.0, 1.0, 1.0, 256.0, 1.0, 1.750528221142418E9, 0.0, 2025-06-21 19:50:21.142
152.0, -43946.23416021278, -38242.940693252174, -29924.001386642623, -72699.74174496434, -27829.128841057878, -28035.301331913633, -52652.931529632995, -100065.31775776361, -187500.02235174447, -187500.02235174447, -47953.276092204585, -46693.643533425755, -77945.51735466927, -48905.3933507673, -88418.89660583694, -31765.271039637453, 0.0, 0.0, 0.0, 193.0, 0.0, 1.0, 1.0, 0.0, 0.0, 1.0, 1.0, 256.0, 1.0, 1.75052822115147E9, 0.0, 2025-06-21 19:50:21.151
154.0, -43956.94064580687, -38254.49654513557, -29928.62819774487, -72711.67757650347, -27835.16381206081, -28000.365555329987, -52664.48738151639, -100083.31091205012, -187500.02235174447, -187500.02235174447, -47915.032257441555, -46656.18200971866, -77906.51356059474, -48866.27779797051, -88377.99291348373, -31728.36830954174, 0.0, 0.0, 0.0, 193.0, 0.0, 1.0, 1.0, 0.0, 0.0, 1.0, 1.0, 256.0, 1.0, 1.750528221158515E9, 0.0, 2025-06-21 19:50:21.158
156.0, -43952.000910282244, -38243.275969419, -29927.376500055376, -72701.97691940986, -27837.153117317335, -28019.54335207264, -52657.267768057325, -100068.13407756497, -187500.02235174447, -187500.02235174447, -47950.3703654254, -46690.491937457555, -77933.31330219666, -48909.48372000262, -88401.12696899498, -31768.62380130575, 0.0, 0.0, 0.0, 193.0, 0.0, 1.0, 1.0, 0.0, 0.0, 1.0, 1.0, 256.0, 1.0, 1.750528221166494E9, 0.0, 2025-06-21 19:50:21.166
158.0, -43966.82011685611, -38253.5801236129, -29943.20153512973, -72711.8116869702, -27861.158890862334, -28031.12155570049, -52657.826561668706, -100075.0184148572, -187500.02235174447, -187500.02235174447, -47931.036106471554, -46666.173239490185, -77925.98193001532, -48870.07759452792, -88412.52635866718, -31732.033995632413, 0.0, 0.0, 0.0, 193.0, 0.0, 1.0, 1.0, 0.0, 0.0, 1.0, 1.0, 256.0, 1.0, 1.750528221174585E9, 0.0, 2025-06-21 19:50:21.174
160.0, -43953.85610507204, -38238.112716449825, -29922.190895341744, -72698.04301238574, -27814.063765295003, -27981.92536615436, -52667.01312863984, -100074.7725456682, -187500.02235174447, -187500.02235174447, -47951.510304392614, -46685.4180914662, -77930.92166553995, -48894.6421616843, -88396.03077125916, -31754.0951674098, 0.0, 0.0, 0.0, 193.0, 0.0, 1.0, 1.0, 0.0, 0.0, 1.0, 1.0, 256.0, 1.0, 1.750528221183614E9, 0.0, 2025-06-21 19:50:21.183
162.0, -43963.04267204317, -38251.389652656275, -29939.55820078352, -72703.07215488817, -27850.56416399052, -28058.03305602468, -52671.39407055308, -100068.58111245408, -187500.02235174447, -187500.02235174447, -47937.9651472527, -46673.05757678242, -77928.68649109441, -48875.039681796996, -88401.99868702874, -31733.598617744283, 0.0, 0.0, 0.0, 193.0, 0.0, 1.0, 1.0, 0.0, 0.0, 1.0, 1.0, 256.0, 1.0, 1.75052822119063E9, 0.0, 2025-06-21 19:50:21.190
164.0, -43967.44596570086, -38259.54803938246, -29937.92652343828, -72714.62800677157, -27856.710893715728, -28014.02247119218, -52663.57095999372, -100079.04172885916, -187500.02235174447, -187500.02235174447, -47931.79606578303, -46665.27916971197, -77921.2880636797, -48869.09411777188, -88397.17071022639, -31726.267245562944, 0.0, 0.0, 0.0, 193.0, 0.0, 1.0, 1.0, 0.0, 0.0, 1.0, 1.0, 256.0, 1.0, 1.750528221198659E9, 0.0, 2025-06-21 19:50:21.198
166.0, -43958.39350919647, -38248.66273983273, -29924.515476765097, -72700.88168393156, -27836.102585327935, -28016.92819797137, -52670.611759497144, -100077.09712709155, -187500.02235174447, -187500.02235174447, -47960.316891708004, -46701.265478285015, -77942.32105521215, -48910.51190024756, -88404.25621321872, -31767.03682744942, 0.0, 0.0, 0.0, 193.0, 0.0, 1.0, 1.0, 0.0, 0.0, 1.0, 1.0, 256.0, 1.0, 1.750528221206794E9, 0.0, 2025-06-21 19:50:21.206
168.0, -43965.70252963335, -38259.21276321563, -29928.471735533683, -72699.22765484186, -27850.050073868046, -28041.17984070538, -52651.76923892132, -100067.4188217424, -187500.02235174447, -187500.02235174447, -47913.40058009632, -46645.408468891204, -77903.96546172684, -48847.77055356152, -88382.08328271906, -31706.821227886827, 0.0, 0.0, 0.0, 193.0, 0.0, 1.0, 1.0, 0.0, 0.0, 1.0, 1.0, 256.0, 1.0, 1.750528221214719E9, 0.0, 2025-06-21 19:50:21.214
170.0, -43986.400244998964, -38275.730702368106, -29952.052825934035, -72728.8660679896, -27857.672018727306, -28007.920444955882, -52677.20552411146, -100095.38085405598, -187500.02235174447, -187500.02235174447, -47957.90290330684, -46694.0235130815, -77935.48142140883, -48911.47302525915, -88410.11237026601, -31768.310876883374, 0.0, 0.0, 0.0, 193.0, 0.0, 1.0, 1.0, 0.0, 0.0, 1.0, 1.0, 256.0, 1.0, 1.750528221222778E9, 0.0, 2025-06-21 19:50:21.222
172.0, -43965.65782614444, -38247.343986909866, -29931.891552435347, -72695.65137572901, -27839.388291762865, -28045.337265174065, -52665.157933850045, -100069.00579559873, -187500.02235174447, -187500.02235174447, -47949.54335088055, -46682.57941992038, -77937.13545049852, -48895.55858320696, -88415.09680927954, -31756.57621104434, 0.0, 0.0, 0.0, 193.0, 0.0, 1.0, 1.0, 0.0, 0.0, 1.0, 1.0, 256.0, 1.0, 1.750528221230797E9, 0.0, 2025-06-21 19:50:21.230
174.0, -43987.85310838856, -38272.35558895535, -29955.494994580153, -72727.8602394891, -27859.169585605814, -28014.82713399257, -52682.12290789162, -100090.66463597592, -187500.02235174447, -187500.02235174447, -47945.3188711785, -46675.02453029448, -77933.13448824102, -48882.661626656256, -88408.9724312988, -31742.315798081854, 0.0, 0.0, 0.0, 193.0, 0.0, 1.0, 1.0, 0.0, 0.0, 1.0, 1.0, 256.0, 1.0, 1.75052822123985E9, 0.0, 2025-06-21 19:50:21.239
176.0, -43972.631570414494, -38257.22345795912, -29944.050901419036, -72709.8670852026, -27844.328027287487, -28019.78922126165, -52659.79351518077, -100070.43630724387, -187500.02235174447, -187500.02235174447, -47967.11182202242, -46696.52690846049, -77948.31132272618, -48911.383618281325, -88412.72752436728, -31769.584926317326, 0.0, 0.0, 0.0, 193.0, 0.0, 1.0, 1.0, 0.0, 0.0, 1.0, 1.0, 256.0, 1.0, 1.750528221245863E9, 0.0, 2025-06-21 19:50:21.245
178.0, -43984.99208509828, -38271.86385057734, -29956.54552656955, -72721.40058534153, -27867.931469432293, -28043.862050040014, -52666.65550072855, -100079.13113583699, -187500.02235174447, -187500.02235174447, -47945.60944385642, -46670.53182965897, -77936.28608420922, -48874.77146086353, -88417.60020465853, -31735.18559160061, 0.0, 0.0, 0.0, 193.0, 0.0, 1.0, 1.0, 0.0, 0.0, 1.0, 1.0, 256.0, 1.0, 1.750528221254894E9, 0.0, 2025-06-21 19:50:21.254
180.0, -43982.04165483018, -38266.4323766747, -29950.06352067751, -72723.72516676488, -27843.724530187195, -28003.11481989799, -52660.28525355879, -100078.1700108254, -187500.02235174447, -187500.02235174447, -47972.20801975823, -46699.320876517406, -77947.46195643688, -48915.40693228328, -88415.14151276846, -31774.457606608583, 0.0, 0.0, 0.0, 193.0, 0.0, 1.0, 1.0, 0.0, 0.0, 1.0, 1.0, 256.0, 1.0, 1.750528221262915E9, 0.0, 2025-06-21 19:50:21.262
182.0, -43989.99887585627, -38270.09806276537, -29963.765140028616, -72727.32379762219, -27872.871204956915, -28059.39651243645, -52668.9800821519, -100079.0193771147, -187500.02235174447, -187500.02235174447, -47959.15460099633, -46689.28494325697, -77942.18694474542, -48896.16208030726, -88417.48844593627, -31755.74919649949, 0.0, 0.0, 0.0, 193.0, 0.0, 1.0, 1.0, 0.0, 0.0, 1.0, 1.0, 256.0, 1.0, 1.750528221270983E9, 0.0, 2025-06-21 19:50:21.270
184.0, -44007.589698742595, -38293.3885804878, -29974.35986690043, -72743.46175711892, -27876.156911391845, -28033.647302823938, -52678.25605610086, -100100.16412736943, -187500.02235174447, -187500.02235174447, -47969.279941234585, -46696.41514973821, -77951.75349137229, -48907.76263567956, -88431.83826587656, -31765.38279835973, 0.0, 0.0, 0.0, 193.0, 0.0, 1.0, 1.0, 0.0, 0.0, 1.0, 1.0, 256.0, 1.0, 1.750528221280002E9, 0.0, 2025-06-21 19:50:21.280
186.0, -43996.01149511475, -38274.94839131217, -29964.480395851184, -72728.68725403395, -27852.329951802487, -28025.958302731313, -52678.926608434514, -100080.58399922658, -187500.02235174447, -187500.02235174447, -47981.34988324045, -46710.563803978424, -77958.7048838979, -48923.72178122065, -88426.4738472073, -31779.665563066672, 0.0, 0.0, 0.0, 193.0, 0.0, 1.0, 1.0, 0.0, 0.0, 1.0, 1.0, 256.0, 1.0, 1.750528221286975E9, 0.0, 2025-06-21 19:50:21.286
188.0, -43994.80450091416, -38256.88818179228, -29956.03143644708, -72714.91857944948, -27858.78960595007, -28044.130270973477, -52666.767259450826, -100071.2186182998, -187500.02235174447, -187500.02235174447, -47966.73184236668, -46688.30146650094, -77956.51441294127, -48886.61788542484, -88428.73137339728, -31747.881382451225, 0.0, 0.0, 0.0, 193.0, 0.0, 1.0, 1.0, 0.0, 0.0, 1.0, 1.0, 256.0, 1.0, 1.750528221295065E9, 0.0, 2025-06-21 19:50:21.295
190.0, -44023.79471347269, -38304.72091492664, -29982.093570481968, -72751.82130954521, -27878.459141070743, -28015.900017726424, -52693.119966163635, -100101.01349365873, -187500.02235174447, -187500.02235174447, -47979.762909384124, -46704.14885331975, -77955.5532879297, -48906.622696712344, -88413.26396623421, -31765.315743126364, 0.0, 0.0, 0.0, 193.0, 0.0, 1.0, 1.0, 0.0, 0.0, 1.0, 1.0, 256.0, 1.0, 1.75052822130205E9, 0.0, 2025-06-21 19:50:21.302
192.0, -44000.101864350065, -38282.927964082715, -29962.55814582803, -72726.02739644378, -27873.675867757305, -28053.205079222334, -52670.47764903041, -100079.1758393259, -187500.02235174447, -187500.02235174447, -47989.39651124436, -46718.52102500451, -77977.79327366273, -48918.089141617915, -88446.43395500588, -31779.732618300037, 0.0, 0.0, 0.0, 193.0, 0.0, 1.0, 1.0, 0.0, 0.0, 1.0, 1.0, 256.0, 1.0, 1.750528221311106E9, 0.0, 2025-06-21 19:50:21.311
194.0, -43984.388587997986, -38269.60632438735, -29946.375482842384, -72721.62410278608, -27845.04328311006, -28024.12545968598, -52666.61079723964, -100084.2273335728, -187500.02235174447, -187500.02235174447, -47952.650243359836, -46683.227620509584, -77941.85166857859, -48889.7918331375, -88421.84703610504, -31748.775452229438, 0.0, 0.0, 0.0, 193.0, 0.0, 1.0, 1.0, 0.0, 0.0, 1.0, 1.0, 256.0, 1.0, 1.750528221319169E9, 0.0, 2025-06-21 19:50:21.319
196.0, -44011.70241972237, -38303.066885836946, -29962.379331872387, -72738.20909717192, -27869.429036310798, -28046.20898320782, -52691.644751029584, -100104.34390358257, -187500.02235174447, -187500.02235174447, -47971.53746742457, -46703.81357715292, -77949.02657854874, -48919.87728117434, -88412.28048947817, -31781.43135087864, 0.0, 0.0, 0.0, 193.0, 0.0, 1.0, 1.0, 0.0, 0.0, 1.0, 1.0, 256.0, 1.0, 1.750528221326176E9, 0.0, 2025-06-21 19:50:21.326
198.0, -43981.75108215226, -38281.877432093315, -29938.619427516394, -72714.13626839356, -27852.151137846846, -28041.246895938744, -52662.2298553264, -100072.24679854474, -187500.02235174447, -187500.02235174447, -47943.284862433065, -46683.495841443044, -77939.46003192187, -48886.50612670257, -88425.55742568463, -31748.037844662413, 0.0, 0.0, 0.0, 193.0, 0.0, 1.0, 1.0, 0.0, 0.0, 1.0, 1.0, 256.0, 1.0, 1.750528221334159E9, 0.0, 2025-06-21 19:50:21.334
200.0, -44030.23201587582, -38321.305909312476, -29970.425959876295, -72749.58613509967, -27875.28519335809, -28028.618160321494, -52696.070396431736, -100116.45854907735, -187500.02235174447, -187500.02235174447, -47967.82707784499, -46712.64251621276, -77951.97700881684, -48914.98224913863, -88414.76153311272, -31777.00570547649, 0.0, 0.0, 0.0, 193.0, 0.0, 1.0, 1.0, 0.0, 0.0, 1.0, 1.0, 256.0, 1.0, 1.750528221343189E9, 0.0, 2025-06-21 19:50:21.343
202.0, -43992.41286425744, -38281.20687975966, -29950.44350033325, -72714.06921316018, -27858.61079199443, -28065.23031773929, -52671.95286416446, -100076.09129859105, -187500.02235174447, -187500.02235174447, -47968.96701681221, -46706.69695218765, -77960.89535485451, -48908.90257464678, -88431.10065830954, -31770.926030984647, 0.0, 0.0, 0.0, 193.0, 0.0, 1.0, 1.0, 0.0, 0.0, 1.0, 1.0, 256.0, 1.0, 1.750528221351295E9, 0.0, 2025-06-21 19:50:21.351
204.0, -44004.08047486311, -38289.074693807925, -29960.479433593686, -72731.34711162414, -27851.525289002097, -28019.252779394723, -52665.98494839489, -100079.98050212629, -187500.02235174447, -187500.02235174447, -47956.29357770605, -46688.9720188346, -77946.85845933658, -48890.90942036026, -88427.83730361908, -31749.066024907355, 0.0, 0.0, 0.0, 193.0, 0.0, 1.0, 1.0, 0.0, 0.0, 1.0, 1.0, 256.0, 1.0, 1.75052822135834E9, 0.0, 2025-06-21 19:50:21.358
206.0, -44014.295222079185, -38296.67428692273, -29970.135387198377, -72743.05942571872, -27866.545661276064, -28046.365445419007, -52684.313378848245, -100093.03392088818, -187500.02235174447, -187500.02235174447, -47978.19828727225, -46718.05163837095, -77961.87883161055, -48922.850063186896, -88420.93061458238, -31785.253499180497, 0.0, 0.0, 0.0, 193.0, 0.0, 1.0, 1.0, 0.0, 0.0, 1.0, 1.0, 256.0, 1.0, 1.750528221366342E9, 0.0, 2025-06-21 19:50:21.366
208.0, -43981.61697168553, -38278.61407740284, -29937.144212382344, -72712.61634977059, -27850.117129101414, -28051.97573327729, -52659.19001808048, -100067.26235953122, -187500.02235174447, -187500.02235174447, -47954.661900360814, -46687.67561765619, -77949.47361343785, -48889.143632548294, -88430.3183472536, -31752.061158664368, 0.0, 0.0, 0.0, 193.0, 0.0, 1.0, 1.0, 0.0, 0.0, 1.0, 1.0, 256.0, 1.0, 1.750528221375374E9, 0.0, 2025-06-21 19:50:21.375
210.0, -44013.401152300976, -38300.116455568845, -29955.472642835695, -72736.17508842649, -27853.380483791887, -27991.58131975905, -52681.43000381351, -100100.27588609171, -187500.02235174447, -187500.02235174447, -47959.78044984108, -46698.873841628294, -77940.21999123336, -48904.49928098909, -88401.4175416729, -31768.154414672186, 0.0, 0.0, 0.0, 193.0, 0.0, 1.0, 1.0, 0.0, 0.0, 1.0, 1.0, 256.0, 1.0, 1.750528221382452E9, 0.0, 2025-06-21 19:50:21.382
212.0, -43979.359445495546, -38270.36628369884, -29937.323026337985, -72708.6153875131, -27846.585553477475, -28051.729864088284, -52652.171570321516, -100070.88334213298, -187500.02235174447, -187500.02235174447, -47960.763926597116, -46700.52787071799, -77946.5455349142, -48897.592591952394, -88412.45930343382, -31763.080568680834, 0.0, 0.0, 0.0, 193.0, 0.0, 1.0, 1.0, 0.0, 0.0, 1.0, 1.0, 256.0, 1.0, 1.750528221390449E9, 0.0, 2025-06-21 19:50:21.390
214.0, -43975.13496579349, -38268.19816448667, -29932.249180346633, -72705.57555026717, -27829.4194137358, -28005.819380977082, -52652.79741916626, -100072.0679845891, -187500.02235174447, -187500.02235174447, -47923.74943777912, -46663.82630632238, -77909.53104609622, -48861.76274559054, -88389.10173047803, -31724.74732693998, 0.0, 0.0, 0.0, 193.0, 0.0, 1.0, 1.0, 0.0, 0.0, 1.0, 1.0, 256.0, 1.0, 1.750528221398504E9, 0.0, 2025-06-21 19:50:21.398
216.0, -44022.52066403874, -38305.994964360594, -29979.2772506806, -72744.33347515267, -27865.048094397556, -28058.79301533616, -52707.55919308176, -100105.28267684969, -187500.02235174447, -187500.02235174447, -47989.910601366835, -46724.623051240815, -77967.31030551318, -48932.72953423614, -88433.872274622, -31792.473112639564, 0.0, 0.0, 0.0, 193.0, 0.0, 1.0, 1.0, 0.0, 0.0, 1.0, 1.0, 256.0, 1.0, 1.75052822140753E9, 0.0, 2025-06-21 19:50:21.407
218.0, -43999.29720154968, -38287.9347548407, -29955.494994580153, -72720.46181207441, -27863.79639670806, -28054.233259467277, -52677.116117133635, -100080.94162713786, -187500.02235174447, -187500.02235174447, -47961.30036846404, -46694.33643750387, -77952.62520940605, -48888.540135448, -88434.58753044457, -31750.831812719323, 0.0, 0.0, 0.0, 193.0, 0.0, 1.0, 1.0, 0.0, 0.0, 1.0, 1.0, 256.0, 1.0, 1.750528221414553E9, 0.0, 2025-06-21 19:50:21.414
220.0, -44016.86567269155, -38299.04357183499, -29970.671829065304, -72737.02445471579, -27862.99173390767, -28018.91750322789, -52689.1860591395, -100098.59950525756, -187500.02235174447, -187500.02235174447, -47970.174011012794, -46703.03126609699, -77949.31715122666, -48909.03668511352, -88416.05793429112, -31768.310876883374, 0.0, 0.0, 0.0, 193.0, 0.0, 1.0, 1.0, 0.0, 0.0, 1.0, 1.0, 256.0, 1.0, 1.750528221422519E9, 0.0, 2025-06-21 19:50:21.422
222.0, -44001.95705913986, -38292.82978687642, -29957.1713754143, -72719.14305915154, -27869.116111888423, -28063.285715971677, -52683.128736392115, -100085.74725219575, -187500.02235174447, -187500.02235174447, -47977.84065936097, -46710.0273621115, -77968.65141018051, -48909.5954787249, -88438.20851304634, -31770.300182139898, 0.0, 0.0, 0.0, 193.0, 0.0, 1.0, 1.0, 0.0, 0.0, 1.0, 1.0, 256.0, 1.0, 1.750528221431546E9, 0.0, 2025-06-21 19:50:21.431
224.0, -43998.44783526038, -38291.57808918692, -29948.387139843362, -72723.1663731535, -27844.573896476497, -28018.649282294427, -52671.729346719905, -100086.95424639634, -187500.02235174447, -187500.02235174447, -47954.661900360814, -46689.441405468155, -77943.19277324592, -48881.36522547784, -88408.45834117632, -31742.9416469266, 0.0, 0.0, 0.0, 193.0, 0.0, 1.0, 1.0, 0.0, 0.0, 1.0, 1.0, 256.0, 1.0, 1.750528221438555E9, 0.0, 2025-06-21 19:50:21.438
226.0, -43996.14560558148, -38283.93379258321, -29950.44350033325, -72721.7135097639, -27847.546678489052, -28035.77071854719, -52667.7283844624, -100085.9707696403, -187500.02235174447, -187500.02235174447, -47966.30715922203, -46707.076931843396, -77946.61259014758, -48907.315600790454, -88409.55357665462, -31764.309914625876, 0.0, 0.0, 0.0, 193.0, 0.0, 1.0, 1.0, 0.0, 0.0, 1.0, 1.0, 256.0, 1.0, 1.750528221446651E9, 0.0, 2025-06-21 19:50:21.446
228.0, -43984.56740195363, -38279.03876054749, -29936.585418770963, -72706.1119921341, -27837.756614417627, -28034.697834813338, -52661.581654737194, -100077.83473465858, -187500.02235174447, -187500.02235174447, -47950.07979274748, -46681.70770188662, -77940.77878484473, -48871.06107128395, -88410.8723295775, -31732.74925145498, 0.0, 0.0, 0.0, 193.0, 0.0, 1.0, 1.0, 0.0, 0.0, 1.0, 1.0, 256.0, 1.0, 1.750528221454672E9, 0.0, 2025-06-21 19:50:21.454
230.0, -44002.42644577342, -38293.23211827661, -29950.30938986652, -72723.79222199824, -27849.111300600925, -28013.038994436145, -52677.29493108928, -100091.46929877631, -187500.02235174447, -187500.02235174447, -47950.07979274748, -46683.942876332156, -77930.2958166952, -48880.15823127726, -88381.2115646853, -31738.67246373564, 0.0, 0.0, 0.0, 193.0, 0.0, 1.0, 1.0, 0.0, 0.0, 1.0, 1.0, 256.0, 1.0, 1.750528221463682E9, 0.0, 2025-06-21 19:50:21.463
232.0, -43999.31955329413, -38280.42456870372, -29959.49595683765, -72716.43849807246, -27861.672980984808, -28057.094282757556, -52670.052965885756, -100072.51501947822, -187500.02235174447, -187500.02235174447, -47977.75125238315, -46708.64155395527, -77966.99738109081, -48897.14555706329, -88427.70319315234, -31755.257458121476, 0.0, 0.0, 0.0, 193.0, 0.0, 1.0, 1.0, 0.0, 0.0, 1.0, 1.0, 256.0, 1.0, 1.750528221470727E9, 0.0, 2025-06-21 19:50:21.470
234.0, -44013.98229765681, -38297.121321811836, -29969.621297075904, -72736.89034424906, -27866.456254298242, -28038.27411392619, -52697.67972203252, -100103.71805473782, -187500.02235174447, -187500.02235174447, -47973.34795872545, -46702.04778934095, -77961.2529827658, -48885.366187735344, -88417.24257674726, -31745.8920771947, 0.0, 0.0, 0.0, 193.0, 0.0, 1.0, 1.0, 0.0, 0.0, 1.0, 1.0, 256.0, 1.0, 1.750528221478694E9, 0.0, 2025-06-21 19:50:21.478
236.0, -44004.61691673004, -38277.742359369084, -29968.101378452946, -72718.58426554016, -27858.36492280542, -28029.042843466144, -52678.56898052323, -100076.53833348017, -187500.02235174447, -187500.02235174447, -47984.12149955291, -46707.09928358785, -77961.63296242154, -48905.12512983384, -88415.02975404618, -31762.789996002914, 0.0, 0.0, 0.0, 193.0, 0.0, 1.0, 1.0, 0.0, 0.0, 1.0, 1.0, 256.0, 1.0, 1.750528221486775E9, 0.0, 2025-06-21 19:50:21.486
238.0, -44015.636326746506, -38300.36232475786, -29976.37152390141, -72735.99627447085, -27876.71570500323, -28061.989314793267, -52680.55828577975, -100089.83762143107, -187500.02235174447, -187500.02235174447, -47979.002950072645, -46698.00212359454, -77965.92449735696, -48884.896801101786, -88434.40871648894, -31743.65690274917, 0.0, 0.0, 0.0, 193.0, 0.0, 1.0, 1.0, 0.0, 0.0, 1.0, 1.0, 256.0, 1.0, 1.750528221494811E9, 0.0, 2025-06-21 19:50:21.494
240.0, -44009.80252144367, -38300.29526952449, -29960.725302782692, -72732.71056803591, -27854.296905314557, -27999.560892529596, -52671.63993974208, -100087.4236330299, -187500.02235174447, -187500.02235174447, -47985.574362942505, -46717.269327315014, -77963.01877057776, -48912.30003980399, -88416.99670755824, -31770.747217029002, 0.0, 0.0, 0.0, 193.0, 0.0, 1.0, 1.0, 0.0, 0.0, 1.0, 1.0, 256.0, 1.0, 1.750528221502827E9, 0.0, 2025-06-21 19:50:21.502
242.0, -44000.97358238383, -38290.52755719752, -29955.718512024705, -72721.75821325282, -27856.688541971274, -28063.866861327515, -52668.10836411815, -100076.80655441363, -187500.02235174447, -187500.02235174447, -47973.325606980994, -46702.91950737471, -77956.6038199191, -48894.79862389548, -88418.80719885913, -31756.419748833152, 0.0, 0.0, 0.0, 193.0, 0.0, 1.0, 1.0, 0.0, 0.0, 1.0, 1.0, 256.0, 1.0, 1.750528221510873E9, 0.0, 2025-06-21 19:50:21.510
244.0, -44012.28356507821, -38301.14463581379, -29956.59023005846, -72733.80580351422, -27866.389199064877, -28021.420898606888, -52678.39016656759, -100092.07279587661, -187500.02235174447, -187500.02235174447, -47954.14781023834, -46694.04586482595, -77942.58927614562, -48882.81808886744, -88408.03365803167, -31745.936780683613, 0.0, 0.0, 0.0, 193.0, 0.0, 1.0, 1.0, 0.0, 0.0, 1.0, 1.0, 256.0, 1.0, 1.750528221518905E9, 0.0, 2025-06-21 19:50:21.518
246.0, -44021.00074541578, -38302.10576082537, -29974.672791322806, -72739.19257392795, -27874.65934451334, -28043.63853259546, -52698.506736577365, -100103.04750240417, -187500.02235174447, -187500.02235174447, -47991.89990662336, -46723.48311227359, -77968.98668634733, -48921.26308933057, -88423.85869310603, -31781.453702623097, 0.0, 0.0, 0.0, 193.0, 0.0, 1.0, 1.0, 0.0, 0.0, 1.0, 1.0, 256.0, 1.0, 1.750528221525909E9, 0.0, 2025-06-21 19:50:21.525
248.0, -44015.45751279086, -38290.79577813098, -29976.237413434676, -72731.45887034641, -27872.62533576791, -28046.857183797027, -52667.817791440226, -100079.57817072609, -187500.02235174447, -187500.02235174447, -47979.695854150756, -46703.54535621946, -77968.47259622486, -48890.52944070452, -88439.39315550246, -31753.42461507614, 0.0, 0.0, 0.0, 193.0, 0.0, 1.0, 1.0, 0.0, 0.0, 1.0, 1.0, 256.0, 1.0, 1.750528221534936E9, 0.0, 2025-06-21 19:50:21.534
250.0, -44028.4438763194, -38301.68107768072, -29973.46579712222, -72743.3723501411, -27854.45336752574, -28014.491857825742, -52685.96740793794, -100095.09028137807, -187500.02235174447, -187500.02235174447, -47992.88338337939, -46725.49476927457, -77972.71942767137, -48915.13871134981, -88424.68570765087, -31776.983353732034, 0.0, 0.0, 0.0, 193.0, 0.0, 1.0, 1.0, 0.0, 0.0, 1.0, 1.0, 256.0, 1.0, 1.750528221542974E9, 0.0, 2025-06-21 19:50:21.542
252.0, -44012.95411741187, -38291.44397872019, -29970.493015109663, -72730.85537324613, -27881.81190273904, -28062.88338457148, -52680.401823568565, -100087.89301966346, -187500.02235174447, -187500.02235174447, -47984.099147808454, -46713.55893773543, -77973.25586953829, -48905.88508914532, -88433.71581241081, -31770.031961206434, 0.0, 0.0, 0.0, 193.0, 0.0, 1.0, 1.0, 0.0, 0.0, 1.0, 1.0, 256.0, 1.0, 1.750528221550972E9, 0.0, 2025-06-21 19:50:21.550
254.0, -44021.53718728271, -38302.06105733646, -29978.718457069215, -72748.53560311027, -27878.772065493118, -28025.51126784221, -52679.37364332362, -100105.99793267227, -187500.02235174447, -187500.02235174447, -47977.1254035384, -46703.34419051936, -77961.87883161055, -48900.3418565204, -88428.79842863065, -31763.058216936377, 0.0, 0.0, 0.0, 193.0, 0.0, 1.0, 1.0, 0.0, 0.0, 1.0, 1.0, 256.0, 1.0, 1.750528221558012E9, 0.0, 2025-06-21 19:50:21.558
0.0, -43995.072721847624, -38283.710275138656, -29951.002293944635, -72720.99825394133, -27843.16573657581, -28018.895151483437, -52664.733250705394, -100072.55972296713, -187500.02235174447, -187500.02235174447, -47983.38389198588, -46711.39081852327, -77957.76611063076, -48915.719856705655, -88415.72265812429, -31776.91629849867, 0.0, 0.0, 0.0, 193.0, 0.0, 1.0, 1.0, 0.0, 0.0, 1.0, 1.0, 256.0, 1.0, 1.750528221567023E9, 0.0, 2025-06-21 19:50:21.567
2.0, -44001.10769285056, -38293.50033921008, -29956.187898658267, -72727.43555634446, -27865.092797886467, -28052.0204367662, -52678.457221800956, -100090.95520865385, -187500.02235174447, -187500.02235174447, -47966.86595283341, -46700.43846374017, -77956.06737805216, -48886.32731274692, -88422.36112622752, -31750.00479817448, 0.0, 0.0, 0.0, 193.0, 0.0, 1.0, 1.0, 0.0, 0.0, 1.0, 1.0, 256.0, 1.0, 1.750528221575182E9, 0.0, 2025-06-21 19:50:21.575
4.0, -44023.68295475042, -38306.46435099415, -29968.436654619774, -72741.29363790675, -27862.120015873912, -28022.22556140728, -52690.460108573454, -100107.24963036175, -187500.02235174447, -187500.02235174447, -47972.94562732526, -46706.920469632205, -77951.48527043883, -48909.75194093608, -88412.54871041163, -31769.96490597307, 0.0, 0.0, 0.0, 193.0, 0.0, 1.0, 1.0, 0.0, 0.0, 1.0, 1.0, 256.0, 1.0, 1.750528221582164E9, 0.0, 2025-06-21 19:50:21.582
6.0, -44026.72279199634, -38303.71508642615, -29985.044000750066, -72741.4724518624, -27886.12578941891, -28051.528698388185, -52704.653466302574, -100099.29240933567, -187500.02235174447, -187500.02235174447, -47987.675426921305, -46714.74358019156, -77971.46772998187, -48910.8471764144, -88440.93542586987, -31772.311839140875, 0.0, 0.0, 0.0, 193.0, 0.0, 1.0, 1.0, 0.0, 0.0, 1.0, 1.0, 256.0, 1.0, 1.750528221591152E9, 0.0, 2025-06-21 19:50:21.591
8.0, -44028.086248408115, -38300.742304413594, -29974.091645966968, -72740.19840242845, -27877.76623699263, -28027.142945187446, -52690.8400882292, -100105.68500824989, -187500.02235174447, -187500.02235174447, -47990.71526416722, -46713.290716801974, -77973.85936663859, -48907.51676649055, -88442.29888228166, -31769.00378096149, 0.0, 0.0, 0.0, 193.0, 0.0, 1.0, 1.0, 0.0, 0.0, 1.0, 1.0, 256.0, 1.0, 1.75052822159917E9, 0.0, 2025-06-21 19:50:21.599
10.0, -44023.07945765012, -38298.06009507896, -29975.097474467457, -72732.665864547, -27873.18412937929, -28048.891192542458, -52679.15012587907, -100085.94841789585, -187500.02235174447, -187500.02235174447, -47995.8785171364, -46712.039019112475, -77966.93032585745, -48917.84327242891, -88427.01028907423, -31777.34098164332, 0.0, 0.0, 0.0, 193.0, 0.0, 1.0, 1.0, 0.0, 0.0, 1.0, 1.0, 256.0, 1.0, 1.750528221606229E9, 0.0, 2025-06-21 19:50:21.606
12.0, -44006.74033245329, -38289.34291474139, -29953.75155851264, -72717.57843703967, -27864.310486830535, -28039.794032549147, -52669.74004146338, -100082.52860099419, -187500.02235174447, -187500.02235174447, -47975.24785700415, -46695.43167298218, -77961.96823858836, -48885.81322262445, -88432.30765251014, -31749.915391196657, 0.0, 0.0, 0.0, 193.0, 0.0, 1.0, 1.0, 0.0, 0.0, 1.0, 1.0, 256.0, 1.0, 1.750528221614309E9, 0.0, 2025-06-21 19:50:21.614
14.0, -44004.25928881876, -38295.355533999864, -29950.39879684434, -72733.6716930475, -27856.710893715728, -28019.40924160591, -52678.77014622333, -100096.81136570113, -187500.02235174447, -187500.02235174447, -47969.63756914587, -46706.4734347431, -77948.55719191518, -48906.86856590135, -88409.75474235472, -31768.62380130575, 0.0, 0.0, 0.0, 193.0, 0.0, 1.0, 1.0, 0.0, 0.0, 1.0, 1.0, 256.0, 1.0, 1.750528221623242E9, 0.0, 2025-06-21 19:50:21.623
16.0, -43994.06689334713, -38285.99015307309, -29951.359921855917, -72717.60078878413, -27857.828480938493, -28060.51409965922, -52660.93345414799, -100077.23123755828, -187500.02235174447, -187500.02235174447, -47961.7697550976, -46698.09153057236, -77946.32201746965, -48892.45169072768, -88416.1696930134, -31754.47514706554, 0.0, 0.0, 0.0, 193.0, 0.0, 1.0, 1.0, 0.0, 0.0, 1.0, 1.0, 256.0, 1.0, 1.750528221631301E9, 0.0, 2025-06-21 19:50:21.631
18.0, -44014.69755347938, -38297.27778402303, -29963.60867781743, -72735.59394307065, -27868.870242699417, -28022.963168974304, -52680.737099735394, -100102.60046751506, -187500.02235174447, -187500.02235174447, -47960.182781241274, -46688.18970777866, -77939.03534877722, -48883.980379579116, -88413.59924240103, -31744.28275159392, 0.0, 0.0, 0.0, 193.0, 0.0, 1.0, 1.0, 0.0, 0.0, 1.0, 1.0, 256.0, 1.0, 1.750528221638312E9, 0.0, 2025-06-21 19:50:21.638
20.0, -44006.248594075274, -38284.96197282815, -29955.427939346784, -72718.69602426243, -27864.75752171964, -28021.73382302926, -52670.544704263775, -100082.9756358833, -187500.02235174447, -187500.02235174447, -47987.54131645457, -46711.43552201218, -77960.89535485451, -48913.01529562656, -88414.96269881281, -31774.167033930666, 0.0, 0.0, 0.0, 193.0, 0.0, 1.0, 1.0, 0.0, 0.0, 1.0, 1.0, 256.0, 1.0, 1.750528221646313E9, 0.0, 2025-06-21 19:50:21.646
22.0, -44004.19223358539, -38290.39344673079, -29954.17624165729, -72715.81264922771, -27870.0772369, -28043.63853259546, -52684.76041373735, -100089.97173189781, -187500.02235174447, -187500.02235174447, -47960.49570566365, -46681.551239675435, -77946.52318316975, -48869.71996661663, -88420.34946922654, -31732.011643887956, 0.0, 0.0, 0.0, 193.0, 0.0, 1.0, 1.0, 0.0, 0.0, 1.0, 1.0, 256.0, 1.0, 1.750528221655317E9, 0.0, 2025-06-21 19:50:21.655
24.0, -44013.0882278786, -38292.11453105385, -29955.316180624508, -72721.914675464, -27851.83821342447, -28020.102145684024, -52694.75164350887, -100097.19134535687, -187500.02235174447, -187500.02235174447, -47973.30325523654, -46698.44915848364, -77949.00422680429, -48891.82584188293, -88398.57887012708, -31752.99993193149, 0.0, 0.0, 0.0, 193.0, 0.0, 1.0, 1.0, 0.0, 0.0, 1.0, 1.0, 256.0, 1.0, 1.750528221662396E9, 0.0, 2025-06-21 19:50:21.662
26.0, -44010.27190807723, -38294.14853979928, -29962.2228696612, -72719.29952136273, -27867.059751398534, -28060.961134548324, -52676.959654922444, -100085.81430742911, -187500.02235174447, -187500.02235174447, -47982.02043557411, -46704.93116437569, -77964.158709545, -48893.278705272525, -88425.80329487364, -31753.201097631587, 0.0, 0.0, 0.0, 193.0, 0.0, 1.0, 1.0, 0.0, 0.0, 1.0, 1.0, 256.0, 1.0, 1.750528221670445E9, 0.0, 2025-06-21 19:50:21.670
28.0, -44033.56242579966, -38312.29815629699, -29985.826311806002, -72749.96611475541, -27875.955745691746, -28034.98840749126, -52699.0878819332, -100116.9279357109, -187500.02235174447, -187500.02235174447, -47976.477202949194, -46702.76304516352, -77960.2024507764, -48895.11154831786, -88428.79842863065, -31752.91052495367, 0.0, 0.0, 0.0, 193.0, 0.0, 1.0, 1.0, 0.0, 0.0, 1.0, 1.0, 256.0, 1.0, 1.750528221678448E9, 0.0, 2025-06-21 19:50:21.678
30.0, -44015.502216279776, -38300.608193946864, -29969.196613931254, -72733.4705273474, -27866.679771742794, -28037.134174958966, -52688.224934127924, -100101.48288029229, -187500.02235174447, -187500.02235174447, -48003.321648040015, -46725.36065880783, -77973.18881430493, -48928.88503418983, -88432.7770391437, -31784.15826370219, 0.0, 0.0, 0.0, 193.0, 0.0, 1.0, 1.0, 0.0, 0.0, 1.0, 1.0, 256.0, 1.0, 1.750528221687495E9, 0.0, 2025-06-21 19:50:21.687
32.0, -43998.649000960475, -38294.6402781773, -29947.135442153867, -72717.31021610621, -27857.672018727306, -28051.528698388185, -52668.55539900725, -100083.3779672835, -187500.02235174447, -187500.02235174447, -47957.813496329014, -46686.28980949996, -77945.31618896917, -48878.12422253183, -88420.86355934902, -31739.030091646924, 0.0, 0.0, 0.0, 193.0, 0.0, 1.0, 1.0, 0.0, 0.0, 1.0, 1.0, 256.0, 1.0, 1.750528221694533E9, 0.0, 2025-06-21 19:50:21.694
34.0, -44020.64311750449, -38300.742304413594, -29961.664076049816, -72733.98461746986, -27863.192899607766, -28018.716337527792, -52686.257980615854, -100101.54993552566, -187500.02235174447, -187500.02235174447, -47971.15748776883, -46697.488033472066, -77943.61745639057, -48895.2903622735, -88396.63426835946, -31755.659789521673, 0.0, 0.0, 0.0, 193.0, 0.0, 1.0, 1.0, 0.0, 0.0, 1.0, 1.0, 256.0, 1.0, 1.75052822170357E9, 0.0, 2025-06-21 19:50:21.703
36.0, -44000.0348091167, -38278.97170531413, -29947.448366576242, -72704.48031478886, -27855.056864626036, -28041.11278547201, -52669.695337974474, -100072.11268807802, -187500.02235174447, -187500.02235174447, -47976.29838899355, -46705.042923097964, -77960.69418915441, -48891.445862227185, -88418.89660583694, -31753.357559842774, 0.0, 0.0, 0.0, 193.0, 0.0, 1.0, 1.0, 0.0, 0.0, 1.0, 1.0, 256.0, 1.0, 1.750528221710573E9, 0.0, 2025-06-21 19:50:21.710
38.0, -44026.678088507426, -38310.755885929575, -29973.30933491103, -72735.95157098194, -27887.265728386134, -28029.82515452208, -52688.04612017228, -100100.72292098081, -187500.02235174447, -187500.02235174447, -47965.90482782183, -46690.20136477964, -77950.77001461625, -48873.45270794067, -88408.7712655987, -31735.543219511896, 0.0, 0.0, 0.0, 193.0, 0.0, 1.0, 1.0, 0.0, 0.0, 1.0, 1.0, 256.0, 1.0, 1.750528221718568E9, 0.0, 2025-06-21 19:50:21.718
40.0, -44008.483768520804, -38284.738455383595, -29951.82930848948, -72715.07504166068, -27865.51748103112, -28015.40827934841, -52691.84591672968, -100090.374063298, -187500.02235174447, -187500.02235174447, -47995.61029620294, -46720.7785511945, -77969.94781135891, -48915.94337415021, -88427.74789664125, -31775.351676386796, 0.0, 0.0, 0.0, 193.0, 0.0, 1.0, 1.0, 0.0, 0.0, 1.0, 1.0, 256.0, 1.0, 1.750528221726586E9, 0.0, 2025-06-21 19:50:21.726
42.0, -44013.98229765681, -38301.14463581379, -29961.59702081645, -72725.46860283239, -27866.925640931804, -28054.188555978366, -52678.41251831204, -100090.50817376473, -187500.02235174447, -187500.02235174447, -47935.305289662516, -46663.28986445545, -77926.22779920434, -48850.542169873974, -88397.64009685995, -31714.398469257176, 0.0, 0.0, 0.0, 193.0, 0.0, 1.0, 1.0, 0.0, 0.0, 1.0, 1.0, 256.0, 1.0, 1.750528221734552E9, 0.0, 2025-06-21 19:50:21.734
44.0, -44026.119294896045, -38312.63343246382, -29964.860375506923, -72740.64543731755, -27865.36101881993, -28023.097279441034, -52697.299742376774, -100111.2282408748, -187500.02235174447, -187500.02235174447, -48004.90862189634, -46735.597757768366, -77979.1567300745, -48926.895728933305, -88429.98307108678, -31787.555728859395, 0.0, 0.0, 0.0, 193.0, 0.0, 1.0, 1.0, 0.0, 0.0, 1.0, 1.0, 256.0, 1.0, 1.750528221743608E9, 0.0, 2025-06-21 19:50:21.743
46.0, -44009.690762721395, -38300.38467650231, -29962.55814582803, -72723.43459408697, -27868.914946188324, -28073.723980632305, -52677.16082062254, -100089.61410398652, -187500.02235174447, -187500.02235174447, -47974.75611862614, -46703.45594924164, -77957.40848271949, -48897.65964718576, -88422.96462332782, -31757.582039544828, 0.0, 0.0, 0.0, 193.0, 0.0, 1.0, 1.0, 0.0, 0.0, 1.0, 1.0, 256.0, 1.0, 1.750528221750749E9, 0.0, 2025-06-21 19:50:21.750
48.0, -44010.89775692198, -38302.709257925664, -29958.93716322627, -72732.04001570225, -27860.08600712848, -28028.4169946214, -52686.81677422724, -100107.69666525087, -187500.02235174447, -187500.02235174447, -47965.7707173551, -46698.404454994736, -77949.18304075993, -48896.29619077399, -88427.85965536353, -31757.537336055917, 0.0, 0.0, 0.0, 193.0, 0.0, 1.0, 1.0, 0.0, 0.0, 1.0, 1.0, 256.0, 1.0, 1.75052822175867E9, 0.0, 2025-06-21 19:50:21.758
50.0, -44008.0367336317, -38290.125225797325, -29955.11501492441, -72721.95937895292, -27864.154024619347, -28043.1691459619, -52696.04804468728, -100100.81232795863, -187500.02235174447, -187500.02235174447, -47972.40918545833, -46703.16537656372, -77947.10432852559, -48904.812205411465, -88407.9666027983, -31765.60631580428, 0.0, 0.0, 0.0, 193.0, 0.0, 1.0, 1.0, 0.0, 0.0, 1.0, 1.0, 256.0, 1.0, 1.750528221766693E9, 0.0, 2025-06-21 19:50:21.766
52.0, -44003.76755044074, -38284.29142049449, -29953.081006178978, -72707.94483517943, -27875.821635225017, -28041.60452385003, -52679.37364332362, -100081.90275214944, -187500.02235174447, -187500.02235174447, -47958.796973085045, -46680.52305943049, -77945.78557560273, -48872.223361995624, -88424.4174867174, -31735.722033467537, 0.0, 0.0, 0.0, 193.0, 0.0, 1.0, 1.0, 0.0, 0.0, 1.0, 1.0, 256.0, 1.0, 1.75052822177478E9, 0.0, 2025-06-21 19:50:21.774
54.0, -44033.51772231075, -38314.86860690935, -29973.130520955387, -72738.27615240529, -27886.23754814119, -28028.819326021592, -52711.76132103936, -100117.41967408892, -187500.02235174447, -187500.02235174447, -47982.26630476312, -46704.95351612014, -77953.76514837326, -48900.76653966505, -88415.02975404618, -31762.231202391533, 0.0, 0.0, 0.0, 193.0, 0.0, 1.0, 1.0, 0.0, 0.0, 1.0, 1.0, 256.0, 1.0, 1.75052822178275E9, 0.0, 2025-06-21 19:50:21.782
56.0, -44001.37591378402, -38282.05624604896, -29953.25982013462, -72711.85639045911, -27868.89259444387, -28063.486881671775, -52679.79832646827, -100083.75794693924, -187500.02235174447, -187500.02235174447, -47975.94076108227, -46702.07014108541, -77958.63782866452, -48892.496394216585, -88427.03264081868, -31757.313818611365, 0.0, 0.0, 0.0, 193.0, 0.0, 1.0, 1.0, 0.0, 0.0, 1.0, 1.0, 256.0, 1.0, 1.750528221790855E9, 0.0, 2025-06-21 19:50:21.790
58.0, -44018.31853608114, -38299.31179276846, -29961.59702081645, -72733.55993432521, -27868.13263513239, -28027.947607987837, -52688.82843122822, -100101.48288029229, -187500.02235174447, -187500.02235174447, -47962.52971440908, -46690.268420013, -77944.37741570204, -48880.67232139973, -88413.19691100085, -31745.534449283416, 0.0, 0.0, 0.0, 193.0, 0.0, 1.0, 1.0, 0.0, 0.0, 1.0, 1.0, 256.0, 1.0, 1.750528221798778E9, 0.0, 2025-06-21 19:50:21.798
60.0, -44007.299126064674, -38293.47798746562, -29960.591192315962, -72731.39181511305, -27861.47181528471, -28019.319834628088, -52670.544704263775, -100083.75794693924, -187500.02235174447, -187500.02235174447, -47982.10984255193, -46712.731923190586, -77952.49109893931, -48910.62365896984, -88410.93938481086, -31773.71999904156, 0.0, 0.0, 0.0, 193.0, 0.0, 1.0, 1.0, 0.0, 0.0, 1.0, 1.0, 256.0, 1.0, 1.750528221805842E9, 0.0, 2025-06-21 19:50:21.805
62.0, -44008.081437120614, -38288.56060368545, -29962.73695978367, -72729.1119371786, -27877.27449861461, -28061.586983393074, -52683.62047477013, -100092.40807204343, -187500.02235174447, -187500.02235174447, -47969.63756914587, -46698.33739976137, -77954.72627338485, -48888.96481859265, -88433.8275711331, -31754.51985055445, 0.0, 0.0, 0.0, 193.0, 0.0, 1.0, 1.0, 0.0, 0.0, 1.0, 1.0, 256.0, 1.0, 1.750528221814829E9, 0.0, 2025-06-21 19:50:21.814
64.0, -44059.57985634564, -38337.957958931685, -30008.40157370586, -72781.2809087373, -27904.722440805726, -28046.723073330293, -52757.73885938393, -100152.91424428395, -187500.02235174447, -187500.02235174447, -47991.989313601174, -46716.84464417036, -77961.14122404352, -48922.47008353115, -88428.55255944164, -31783.822987535357, 0.0, 0.0, 0.0, 193.0, 0.0, 1.0, 1.0, 0.0, 0.0, 1.0, 1.0, 256.0, 1.0, 1.750528221822919E9, 0.0, 2025-06-21 19:50:21.822
66.0, -44036.35639385658, -38304.63150794882, -30000.578463146507, -72752.46951013441, -27904.968309994736, -28074.260422499232, -52738.33754519672, -100125.95804047085, -187500.02235174447, -187500.02235174447, -48032.87065420993, -46751.668662031734, -78009.62215776708, -48949.38158385534, -88486.33181885861, -31811.62855763776, 0.0, 0.0, 0.0, 193.0, 0.0, 1.0, 1.0, 0.0, 0.0, 1.0, 1.0, 256.0, 1.0, 1.750528221830921E9, 0.0, 2025-06-21 19:50:21.830
68.0, -44026.812198974156, -38297.121321811836, -29977.64557333536, -72744.80286178623, -27888.696240031273, -28032.775584790183, -52734.56010038377, -100131.94830798487, -187500.02235174447, -187500.02235174447, -47988.74831065516, -46703.59005970837, -77967.84674738011, -48908.097911846395, -88448.55737072913, -31771.95421122959, 0.0, 0.0, 0.0, 193.0, 0.0, 1.0, 1.0, 0.0, 0.0, 1.0, 1.0, 256.0, 1.0, 1.750528221838979E9, 0.0, 2025-06-21 19:50:21.838
70.0, -44014.20581510136, -38282.659743149256, -29969.77775928709, -72732.37529186909, -27874.79345498007, -28034.340206902052, -52706.79923377028, -100109.35069434055, -187500.02235174447, -187500.02235174447, -47996.79493865907, -46713.6259929688, -77964.73985490082, -48919.45259802969, -88428.32904199709, -31782.772455545957, 0.0, 0.0, 0.0, 193.0, 0.0, 1.0, 1.0, 0.0, 0.0, 1.0, 1.0, 256.0, 1.0, 1.750528221846972E9, 0.0, 2025-06-21 19:50:21.846
72.0, -44011.56830925564, -38288.873528107826, -29976.93031751279, -72735.88451574856, -27884.71762951823, -28056.535489146172, -52689.543687050784, -100104.38860707148, -187500.02235174447, -187500.02235174447, -47976.410147715826, -46694.38114099278, -77961.14122404352, -48888.92011510374, -88444.377594516, -31752.932876698123, 0.0, 0.0, 0.0, 193.0, 0.0, 1.0, 1.0, 0.0, 0.0, 1.0, 1.0, 256.0, 1.0, 1.750528221855008E9, 0.0, 2025-06-21 19:50:21.855
74.0, -44036.401097345486, -38310.6441272073, -29985.35692517244, -72763.19834747295, -27886.975155708213, -28028.39464287694, -52711.53780359481, -100128.10380793856, -187500.02235174447, -187500.02235174447, -47992.905735123844, -46718.05163837095, -77962.9517153444, -48924.951127165696, -88434.16284729991, -31786.1028654698, 0.0, 0.0, 0.0, 193.0, 0.0, 1.0, 1.0, 0.0, 0.0, 1.0, 1.0, 256.0, 1.0, 1.750528221862037E9, 0.0, 2025-06-21 19:50:21.862
76.0, -43998.40313177146, -38277.02710354651, -29956.187898658267, -72730.18482091246, -27871.08306540049, -28048.287695442166, -52688.20258238347, -100087.13306035199, -187500.02235174447, -187500.02235174447, -47993.039845590574, -46722.8796151733, -77974.46286373888, -48917.06096137297, -88442.56710321511, -31781.788978789926, 0.0, 0.0, 0.0, 193.0, 0.0, 1.0, 1.0, 0.0, 0.0, 1.0, 1.0, 256.0, 1.0, 1.75052822187105E9, 0.0, 2025-06-21 19:50:21.871
78.0, -44017.64798374748, -38305.927909127226, -29969.084855208977, -72742.54533559625, -27872.51357704563, -28024.796012019637, -52687.442623071984, -100105.30502859414, -187500.02235174447, -187500.02235174447, -47970.956322068734, -46701.28783002947, -77954.32394198465, -48894.70921691766, -88424.70805939533, -31758.967847701057, 0.0, 0.0, 0.0, 193.0, 0.0, 1.0, 1.0, 0.0, 0.0, 1.0, 1.0, 256.0, 1.0, 1.75052822187914E9, 0.0, 2025-06-21 19:50:21.879
80.0, -44017.98325991431, -38292.44980722068, -29971.476491865695, -72733.44817560294, -27882.303641117054, -28037.424747636887, -52685.185096882, -100090.99991214275, -187500.02235174447, -187500.02235174447, -48001.019418361124, -46719.795074438465, -77968.04791308021, -48924.61585099887, -88431.79356238765, -31785.275850924954, 0.0, 0.0, 0.0, 193.0, 0.0, 1.0, 1.0, 0.0, 0.0, 1.0, 1.0, 256.0, 1.0, 1.750528221886141E9, 0.0, 2025-06-21 19:50:21.886
82.0, -44023.07945765012, -38297.23308053411, -29973.64461107786, -72737.82911751617, -27886.215196396734, -28068.203099751845, -52705.65929480306, -100104.18744137138, -187500.02235174447, -187500.02235174447, -47977.63949366087, -46696.83983288286, -77965.67862816795, -48881.27581850002, -88440.06370783612, -31746.450870806086, 0.0, 0.0, 0.0, 193.0, 0.0, 1.0, 1.0, 0.0, 0.0, 1.0, 1.0, 256.0, 1.0, 1.75052822189413E9, 0.0, 2025-06-21 19:50:21.894
84.0, -44041.45259159239, -38310.51001674056, -29992.733000842694, -72755.50934738033, -27904.253054172168, -28026.830020765072, -52720.165576954554, -100123.45464509186, -187500.02235174447, -187500.02235174447, -48004.46158700724, -46722.25376632855, -77973.07705558266, -48915.60809798338, -88430.13953329796, -31779.1514729442, 0.0, 0.0, 0.0, 193.0, 0.0, 1.0, 1.0, 0.0, 0.0, 1.0, 1.0, 256.0, 1.0, 1.750528221903164E9, 0.0, 2025-06-21 19:50:21.903
86.0, -44013.244690089785, -38286.75011238457, -29971.297677910054, -72723.2110766424, -27893.077181944514, -28062.101073515547, -52702.53005057932, -100099.76179596923, -187500.02235174447, -187500.02235174447, -48002.40522651735, -46715.950574392155, -77980.16255857499, -48907.941449635204, -88450.23375156328, -31770.18842341762, 0.0, 0.0, 0.0, 193.0, 0.0, 1.0, 1.0, 0.0, 0.0, 1.0, 1.0, 256.0, 1.0, 1.75052822191117E9, 0.0, 2025-06-21 19:50:21.911
88.0, -44035.417620589455, -38316.47793251013, -29983.211157704733, -72755.59875435814, -27903.157818693857, -28042.9679802618, -52712.409521628564, -100116.21267988834, -187500.02235174447, -187500.02235174447, -47968.229409245185, -46687.7203211451, -77948.46778493735, -48881.11935628884, -88425.93740534037, -31740.57236201434, 0.0, 0.0, 0.0, 193.0, 0.0, 1.0, 1.0, 0.0, 0.0, 1.0, 1.0, 256.0, 1.0, 1.750528221918214E9, 0.0, 2025-06-21 19:50:21.918
90.0, -44032.22132113235, -38313.23692956411, -29978.69610532476, -72748.66971357701, -27897.391068624387, -28049.60644836503, -52700.85366974517, -100108.81425247363, -187500.02235174447, -187500.02235174447, -48025.71809598424, -46761.190505169696, -77999.54152101775, -48955.08127869145, -88458.77211794522, -31814.936615817147, 0.0, 0.0, 0.0, 193.0, 0.0, 1.0, 1.0, 0.0, 0.0, 1.0, 1.0, 256.0, 1.0, 1.750528221926239E9, 0.0, 2025-06-21 19:50:21.926
92.0, -44004.63926847449, -38288.62765891882, -29949.97411369969, -72715.52207654978, -27863.37171356341, -28037.670616825893, -52658.452410513455, -100075.73367067978, -187500.02235174447, -187500.02235174447, -47969.32464472349, -46692.9729810921, -77958.43666296444, -48872.11160327335, -88423.50106519474, -31734.0903561223, 0.0, 0.0, 0.0, 193.0, 0.0, 1.0, 1.0, 0.0, 0.0, 1.0, 1.0, 256.0, 1.0, 1.750528221935254E9, 0.0, 2025-06-21 19:50:21.935
94.0, -44028.2427106193, -38301.30109802498, -29962.73695978367, -72738.43261461647, -27874.36877183542, -28007.83103797806, -52685.207448626454, -100103.2263163598, -187500.02235174447, -187500.02235174447, -47975.62783665989, -46701.44429224066, -77947.43960469242, -48892.228173283125, -88395.20375671433, -31753.737539498514, 0.0, 0.0, 0.0, 193.0, 0.0, 1.0, 1.0, 0.0, 0.0, 1.0, 1.0, 256.0, 1.0, 1.750528221942249E9, 0.0, 2025-06-21 19:50:21.942
96.0, -44013.71407672335, -38295.24377527759, -29969.397779631352, -72725.15567841002, -27881.968364950226, -28074.327477732597, -52681.921742191524, -100078.95232188134, -187500.02235174447, -187500.02235174447, -47993.620990946416, -46717.403437781744, -77976.20629980639, -48893.77044365054, -88428.08317280808, -31757.939667456114, 0.0, 0.0, 0.0, 193.0, 0.0, 1.0, 1.0, 0.0, 0.0, 1.0, 1.0, 256.0, 1.0, 1.750528221950332E9, 0.0, 2025-06-21 19:50:21.950
98.0, -44023.124161139036, -38302.28457478101, -29971.007105232133, -72739.50549835032, -27880.202577138258, -28025.9135992424, -52690.70597776246, -100102.73457798178, -187500.02235174447, -187500.02235174447, -47974.21967675921, -46700.28200152898, -77960.76124438777, -48878.2359812541, -88423.23284426128, -31741.488783537006, 0.0, 0.0, 0.0, 193.0, 0.0, 1.0, 1.0, 0.0, 0.0, 1.0, 1.0, 256.0, 1.0, 1.750528221958394E9, 0.0, 2025-06-21 19:50:21.958
100.0, -44009.199024343376, -38285.56546992844, -29958.668942292803, -72722.89815222003, -27865.51748103112, -28027.21000042081, -52671.103497875156, -100080.96397888231, -187500.02235174447, -187500.02235174447, -47989.08358682199, -46720.01859188302, -77963.44345372242, -48906.95797287917, -88410.2688324772, -31769.875498995247, 0.0, 0.0, 0.0, 193.0, 0.0, 1.0, 1.0, 0.0, 0.0, 1.0, 1.0, 256.0, 1.0, 1.750528221967375E9, 0.0, 2025-06-21 19:50:21.967
102.0, -44026.83455071862, -38306.57610971643, -29987.547396129063, -72743.86408851911, -27907.225836184723, -28080.2283382688, -52686.77207073833, -100103.71805473782, -187500.02235174447, -187500.02235174447, -47968.14000226736, -46687.67561765619, -77956.78263387474, -48868.043585782485, -88431.19006528736, -31729.84352467579, 0.0, 0.0, 0.0, 193.0, 0.0, 1.0, 1.0, 0.0, 0.0, 1.0, 1.0, 256.0, 1.0, 1.750528221974457E9, 0.0, 2025-06-21 19:50:21.974
104.0, -44037.451629334886, -38318.95897614467, -29982.428846648796, -72753.18476595698, -27891.71372553274, -28001.170218130377, -52702.485347090405, -100122.85114799156, -187500.02235174447, -187500.02235174447, -48012.128235355405, -46735.08366764589, -77978.5532329742, -48934.31650809247, -88437.58266420159, -31794.462417896084, 0.0, 0.0, 0.0, 193.0, 0.0, 1.0, 1.0, 0.0, 0.0, 1.0, 1.0, 256.0, 1.0, 1.750528221982421E9, 0.0, 2025-06-21 19:50:21.982
106.0, -43990.71413167884, -38269.852193576364, -29946.867221220404, -72704.52501827777, -27861.829443195995, -28039.995198249246, -52658.742983191376, -100074.95135962384, -187500.02235174447, -187500.02235174447, -47976.007816315636, -46698.18093755018, -77954.65921815149, -48893.07753957243, -88422.74110588327, -31752.262324364463, 0.0, 0.0, 0.0, 193.0, 0.0, 1.0, 1.0, 0.0, 0.0, 1.0, 1.0, 256.0, 1.0, 1.750528221990475E9, 0.0, 2025-06-21 19:50:21.990
108.0, -44033.96475719986, -38312.29815629699, -29978.427884391294, -72746.30042866473, -27904.90125476137, -28034.094337713046, -52685.31920734873, -100108.6801420069, -187500.02235174447, -187500.02235174447, -47962.216789986705, -46680.992446064054, -77939.79530808871, -48875.12908877481, -88413.48748367876, -31734.447984033584, 0.0, 0.0, 0.0, 193.0, 0.0, 1.0, 1.0, 0.0, 0.0, 1.0, 1.0, 256.0, 1.0, 1.750528221998442E9, 0.0, 2025-06-21 19:50:21.998
110.0, -44041.40788810347, -38315.717973198654, -29988.106189740443, -72753.52004212381, -27904.141295449892, -28044.0185122512, -52710.28610590531, -100117.84435723357, -187500.02235174447, -187500.02235174447, -48020.33132557051, -46734.055487400954, -77981.3024975422, -48940.28442386203, -88435.70511766734, -31801.81614182188, 0.0, 0.0, 0.0, 193.0, 0.0, 1.0, 1.0, 0.0, 0.0, 1.0, 1.0, 256.0, 1.0, 1.750528222006506E9, 0.0, 2025-06-21 19:50:22.006
112.0, -44029.91909145345, -38302.48574048111, -29974.337515155974, -72732.28588489126, -27894.395934867378, -28063.59864039405, -52703.133547679616, -100108.12134839552, -187500.02235174447, -187500.02235174447, -47989.32945601099, -46704.30531553094, -77978.21795680738, -48892.04935932748, -88452.11129809753, -31754.072815665346, 0.0, 0.0, 0.0, 193.0, 0.0, 1.0, 1.0, 0.0, 0.0, 1.0, 1.0, 256.0, 1.0, 1.750528222014497E9, 0.0, 2025-06-21 19:50:22.014
114.0, -44064.34077791462, -38332.25826409558, -29998.14212300088, -72765.3217631962, -27908.81281004105, -28006.668747266383, -52726.35701016868, -100132.97648822982, -187500.02235174447, -187500.02235174447, -48008.082569608996, -46723.505464018046, -77977.21212830688, -48923.67707773174, -88424.8198181176, -31785.56642360287, 0.0, 0.0, 0.0, 193.0, 0.0, 1.0, 1.0, 0.0, 0.0, 1.0, 1.0, 256.0, 1.0, 1.750528222023566E9, 0.0, 2025-06-21 19:50:22.023
116.0, -44007.27677432022, -38284.02319956102, -29966.64851506335, -72718.45015507343, -27894.284176145098, -28073.03107655419, -52679.686567745994, -100081.99215912726, -187500.02235174447, -187500.02235174447, -48012.82113943352, -46718.05163837095, -77986.57750923366, -48916.79274043951, -88450.70313819686, -31775.86576650927, 0.0, 0.0, 0.0, 193.0, 0.0, 1.0, 1.0, 0.0, 0.0, 1.0, 1.0, 256.0, 1.0, 1.750528222030536E9, 0.0, 2025-06-21 19:50:22.030
118.0, -44058.73049005634, -38329.911330927775, -30003.305375970052, -72767.40047543055, -27919.541647379596, -28029.489878355253, -52709.01205647136, -100130.67425855092, -187500.02235174447, -187500.02235174447, -47979.897019850854, -46689.6202194238, -77955.91091584098, -48895.223307040134, -88437.20268454585, -31752.217620875555, 0.0, 0.0, 0.0, 193.0, 0.0, 1.0, 1.0, 0.0, 0.0, 1.0, 1.0, 256.0, 1.0, 1.75052822203858E9, 0.0, 2025-06-21 19:50:22.038
120.0, -44034.83647523361, -38308.69952543968, -29974.762198300625, -72745.0710827197, -27884.583519051495, -28017.64345379394, -52719.42796938753, -100123.54405206967, -187500.02235174447, -187500.02235174447, -48024.153473872364, -46740.984528182096, -77989.08090461265, -48954.298967635514, -88437.98499560179, -31813.77432510547, 0.0, 0.0, 0.0, 193.0, 0.0, 1.0, 1.0, 0.0, 0.0, 1.0, 1.0, 256.0, 1.0, 1.750528222046566E9, 0.0, 2025-06-21 19:50:22.046
122.0, -44016.86567269155, -38298.10479856787, -29959.294791137552, -72722.02643418628, -27886.32695511901, -28056.51313740172, -52682.145259636076, -100094.73265346678, -187500.02235174447, -187500.02235174447, -47962.52971440908, -46679.65134139673, -77947.48430818133, -48872.156306762256, -88420.64004190447, -31732.1904578436, 0.0, 0.0, 0.0, 193.0, 0.0, 1.0, 1.0, 0.0, 0.0, 1.0, 1.0, 256.0, 1.0, 1.750528222054609E9, 0.0, 2025-06-21 19:50:22.054
124.0, -44078.91411529948, -38352.553648060995, -30010.055602795557, -72779.20219650296, -27921.039214258104, -28023.477259096773, -52727.56400436926, -100152.71307858385, -187500.02235174447, -187500.02235174447, -48021.851244193465, -46739.06227815894, -77985.68343945545, -48941.78199074054, -88432.28530076568, -31803.403115678208, 0.0, 0.0, 0.0, 193.0, 0.0, 1.0, 1.0, 0.0, 0.0, 1.0, 1.0, 256.0, 1.0, 1.7505282220626E9, 0.0, 2025-06-21 19:50:22.062
126.0, -44017.42446630293, -38290.415798475246, -29969.64364882036, -72722.94285570894, -27885.656402785353, -28072.65109689845, -52691.24241962939, -100097.45956629033, -187500.02235174447, -187500.02235174447, -48012.59762198897, -46724.08660937388, -77985.54932898871, -48920.816054441464, -88441.44951599235, -31785.34290615832, 0.0, 0.0, 0.0, 193.0, 0.0, 1.0, 1.0, 0.0, 0.0, 1.0, 1.0, 256.0, 1.0, 1.750528222070623E9, 0.0, 2025-06-21 19:50:22.070
128.0, -44077.28243795424, -38344.81994447946, -30003.819466092526, -72764.83002481819, -27922.246208458688, -28027.008834720713, -52718.086864720215, -100128.17086317192, -187500.02235174447, -187500.02235174447, -47976.23133376019, -46691.967152591606, -77957.22966876384, -48884.69563540169, -88429.44662921985, -31747.70256849558, 0.0, 0.0, 0.0, 193.0, 0.0, 1.0, 1.0, 0.0, 0.0, 1.0, 1.0, 256.0, 1.0, 1.750528222079642E9, 0.0, 2025-06-21 19:50:22.079
130.0, -44076.38836817603, -38340.12607814385, -29994.968175288224, -72756.26930669181, -27907.695222818285, -28027.031186465167, -52735.65533586209, -100133.82585451912, -187500.02235174447, -187500.02235174447, -48054.08245969802, -46764.878543004816, -78016.37238459259, -48968.60408408691, -88456.22401907732, -31832.59449393684, 0.0, 0.0, 0.0, 193.0, 0.0, 1.0, 1.0, 0.0, 0.0, 1.0, 1.0, 256.0, 1.0, 1.750528222085719E9, 0.0, 2025-06-21 19:50:22.085
132.0, -44016.84332094709, -38299.60236544638, -29947.515421809607, -72711.67757650347, -27870.725437489207, -28074.573346921607, -52684.939227692994, -100094.48678427777, -187500.02235174447, -187500.02235174447, -47977.21481051622, -46684.81459436591, -77965.0080758343, -48875.442013197186, -88434.56517870011, -31737.130193368223, 0.0, 0.0, 0.0, 193.0, 0.0, 1.0, 1.0, 0.0, 0.0, 1.0, 1.0, 256.0, 1.0, 1.750528222095731E9, 0.0, 2025-06-21 19:50:22.095
134.0, -44075.22607746435, -38353.31360737248, -29985.80396006155, -72766.9757922859, -27901.28027215961, -27991.335450570044, -52725.75351306838, -100140.39726738898, -187500.02235174447, -187500.02235174447, -47988.34597925496, -46711.3237632899, -77959.04016006472, -48906.91326939026, -88393.52737588018, -31771.685990296126, 0.0, 0.0, 0.0, 193.0, 0.0, 1.0, 1.0, 0.0, 0.0, 1.0, 1.0, 256.0, 1.0, 1.750528222104777E9, 0.0, 2025-06-21 19:50:22.104
136.0, -44029.04737341969, -38315.89678715429, -29971.297677910054, -72739.48314660587, -27883.108303917445, -28080.85418711355, -52683.978102681416, -100097.95130466836, -187500.02235174447, -187500.02235174447, -48011.63649697739, -46730.18863561018, -77990.64552672453, -48928.48270278963, -88443.34941427106, -31791.847263794814, 0.0, 0.0, 0.0, 193.0, 0.0, 1.0, 1.0, 0.0, 0.0, 1.0, 1.0, 256.0, 1.0, 1.750528222110765E9, 0.0, 2025-06-21 19:50:22.110
138.0, -44083.943257801926, -38359.281523142046, -29984.395800160863, -72765.7240945964, -27909.349251907977, -28035.144869702446, -52713.41535012906, -100119.1854619009, -187500.02235174447, -187500.02235174447, -47977.43832796077, -46702.96421086362, -77965.07513106766, -48900.85594664287, -88442.90237938195, -31760.42071109065, 0.0, 0.0, 0.0, 193.0, 0.0, 1.0, 1.0, 0.0, 0.0, 1.0, 1.0, 256.0, 1.0, 1.750528222117796E9, 0.0, 2025-06-21 19:50:22.117
140.0, -44085.887859569535, -38351.19019164922, -30006.211102749243, -72773.05546677775, -27913.685490332307, -28043.504422128728, -52707.96152448196, -100130.07076145062, -187500.02235174447, -187500.02235174447, -48036.670450767335, -46759.75999352455, -78002.29078558573, -48958.6575578043, -88430.94419609835, -31823.34087173234, 0.0, 0.0, 0.0, 193.0, 0.0, 1.0, 1.0, 0.0, 0.0, 1.0, 1.0, 256.0, 1.0, 1.750528222126788E9, 0.0, 2025-06-21 19:50:22.126
142.0, -44048.94042598491, -38318.86956916685, -29959.987695215666, -72717.73489925086, -27888.47272258672, -28074.103960288045, -52686.52620154932, -100094.48678427777, -187500.02235174447, -187500.02235174447, -47983.92033385281, -46692.68240841418, -77971.62419219306, -48882.639274911795, -88448.84794340706, -31741.37702481473, 0.0, 0.0, 0.0, 193.0, 0.0, 1.0, 1.0, 0.0, 0.0, 1.0, 1.0, 256.0, 1.0, 1.750528222134842E9, 0.0, 2025-06-21 19:50:22.134
144.0, -44120.37660126408, -38377.16291870629, -30020.225646522722, -72786.91354834003, -27919.742813079694, -28009.68623276785, -52726.80404505778, -100147.8403982926, -187500.02235174447, -187500.02235174447, -48017.582061002504, -46734.39076356778, -77989.03620112374, -48927.96861266716, -88418.13664652547, -31793.52364462896, 0.0, 0.0, 0.0, 193.0, 0.0, 1.0, 1.0, 0.0, 0.0, 1.0, 1.0, 256.0, 1.0, 1.75052822214193E9, 0.0, 2025-06-21 19:50:22.141
146.0, -44031.41665833195, -38300.541138713495, -29940.988712428658, -72701.52988452076, -27866.769178720617, -28051.03696001017, -52665.26969257232, -100065.13894380796, -187500.02235174447, -187500.02235174447, -48022.38768606039, -46724.1760163517, -77993.21597733689, -48920.83840618592, -88451.95483588634, -31780.313763655875, 0.0, 0.0, 0.0, 193.0, 0.0, 1.0, 1.0, 0.0, 0.0, 1.0, 1.0, 256.0, 1.0, 1.750528222150912E9, 0.0, 2025-06-21 19:50:22.150
148.0, -44081.88689731203, -38351.48076432714, -29973.622259333406, -72749.31791416621, -27889.702068531762, -28011.988462446745, -52711.56015533926, -100125.64511604847, -187500.02235174447, -187500.02235174447, -47951.28678694806, -46667.93902730215, -77937.35896794307, -48857.068879254926, -88399.20471897181, -31719.85229490427, 0.0, 0.0, 0.0, 193.0, 0.0, 1.0, 1.0, 0.0, 0.0, 1.0, 1.0, 256.0, 1.0, 1.750528222158984E9, 0.0, 2025-06-21 19:50:22.158
150.0, -44080.00935077779, -38349.603217792894, -29986.966250773225, -72758.88446079308, -27890.752600521162, -28025.175991675376, -52700.65250404507, -100111.04942691915, -187500.02235174447, -187500.02235174447, -48031.50719779816, -46752.87565623232, -77997.95454716141, -48953.42724960176, -88425.98210882928, -31817.01532805149, 0.0, 0.0, 0.0, 193.0, 0.0, 1.0, 1.0, 0.0, 0.0, 1.0, 1.0, 256.0, 1.0, 1.750528222166004E9, 0.0, 2025-06-21 19:50:22.166
152.0, -44066.106565726586, -38337.466220553666, -29975.723323312202, -72741.29363790675, -27892.31722263303, -28084.07283831511, -52704.96639072495, -100108.2778106067, -187500.02235174447, -187500.02235174447, -47977.68419714978, -46699.47733872859, -77969.74664565882, -48887.0872720584, -88446.65747245043, -31746.42851906163, 0.0, 0.0, 0.0, 193.0, 0.0, 1.0, 1.0, 0.0, 0.0, 1.0, 1.0, 256.0, 1.0, 1.750528222174013E9, 0.0, 2025-06-21 19:50:22.174
154.0, -44124.98106062187, -38380.71684607468, -30016.537608687595, -72788.96990882992, -27920.72628983573, -28000.522017541174, -52732.66020210507, -100139.16792144394, -187500.02235174447, -187500.02235174447, -48027.0368489071, -46737.78822872499, -77993.21597733689, -48944.33008960845, -88432.6205769325, -31808.119333758277, 0.0, 0.0, 0.0, 193.0, 0.0, 1.0, 1.0, 0.0, 0.0, 1.0, 1.0, 256.0, 1.0, 1.750528222183045E9, 0.0, 2025-06-21 19:50:22.183
156.0, -44069.54873437271, -38330.00073790559, -29971.901175010345, -72731.34711162414, -27883.04124868408, -28075.735637633283, -52692.38235859661, -100086.3731010405, -187500.02235174447, -187500.02235174447, -48028.86969195243, -46737.25178685806, -78005.46473329839, -48939.07742966145, -88462.79543194718, -31800.922072043668, 0.0, 0.0, 0.0, 193.0, 0.0, 1.0, 1.0, 0.0, 0.0, 1.0, 1.0, 256.0, 1.0, 1.750528222191082E9, 0.0, 2025-06-21 19:50:22.191
158.0, -44110.38537149255, -38370.99383723662, -29992.93416654279, -72761.18669047198, -27916.032423500114, -28032.73088130127, -52712.074245461736, -100128.34967712757, -187500.02235174447, -187500.02235174447, -47979.24881926165, -46689.731978146076, -77964.87396536756, -48883.82391736793, -88434.36401300001, -31745.2438766055, 0.0, 0.0, 0.0, 193.0, 0.0, 1.0, 1.0, 0.0, 0.0, 1.0, 1.0, 256.0, 1.0, 1.750528222198146E9, 0.0, 2025-06-21 19:50:22.198
160.0, -44100.505900443306, -38351.570171304964, -29992.040096764576, -72756.29165843627, -27895.021783712124, -28009.395660089933, -52724.12183572315, -100112.50229030875, -187500.02235174447, -187500.02235174447, -48055.200046920785, -46765.57144708293, -78019.18870439395, -48971.867438777386, -88456.93927489988, -31835.187296293654, 0.0, 0.0, 0.0, 193.0, 0.0, 1.0, 1.0, 0.0, 0.0, 1.0, 1.0, 256.0, 1.0, 1.750528222206147E9, 0.0, 2025-06-21 19:50:22.206
162.0, -44069.86165879508, -38334.62754900784, -29961.753483027638, -72727.07792843318, -27881.118998660924, -28068.136044518476, -52693.99168419739, -100085.30021730665, -187500.02235174447, -187500.02235174447, -47967.82707784499, -46679.20430650763, -77958.99545657581, -48874.391481207786, -88438.58849270207, -31735.65497823417, 0.0, 0.0, 0.0, 193.0, 0.0, 1.0, 1.0, 0.0, 0.0, 1.0, 1.0, 256.0, 1.0, 1.750528222215139E9, 0.0, 2025-06-21 19:50:22.215
164.0, -44130.18901707995, -38395.60310788192, -30002.90304456986, -72782.08557153768, -27897.882807002403, -27988.809703446594, -52727.85457704718, -100131.56832832913, -187500.02235174447, -187500.02235174447, -48025.136950628395, -46736.223606613115, -77987.94096564544, -48936.261109860076, -88425.60212917354, -31799.312746442887, 0.0, 0.0, 0.0, 193.0, 0.0, 1.0, 1.0, 0.0, 0.0, 1.0, 1.0, 256.0, 1.0, 1.750528222222171E9, 0.0, 2025-06-21 19:50:22.222
166.0, -44058.283455167235, -38325.03865063652, -29947.895401465346, -72715.27620736077, -27876.492187558677, -28073.142835276467, -52672.24343684238, -100063.70843216282, -187500.02235174447, -187500.02235174447, -47989.552973455546, -46705.40055100925, -77969.0537415807, -48909.68488570272, -88427.61378617452, -31770.970734473558, 0.0, 0.0, 0.0, 193.0, 0.0, 1.0, 1.0, 0.0, 0.0, 1.0, 1.0, 256.0, 1.0, 1.750528222230178E9, 0.0, 2025-06-21 19:50:22.230
168.0, -44120.0636768417, -38385.611878110394, -29996.398686933364, -72768.04867601975, -27905.415344883844, -27997.39277331743, -52717.930402509024, -100119.34192411209, -187500.02235174447, -187500.02235174447, -47994.4256537468, -46705.735827176075, -77974.08288408314, -48893.94925760618, -88442.00830960373, -31755.078644165835, 0.0, 0.0, 0.0, 193.0, 0.0, 1.0, 1.0, 0.0, 0.0, 1.0, 1.0, 256.0, 1.0, 1.750528222239203E9, 0.0, 2025-06-21 19:50:22.239
170.0, -44125.91983388899, -38380.3592181634, -29999.84085557948, -72765.83585331868, -27908.254016429666, -28042.61035235052, -52720.322039165745, -100115.38566534349, -187500.02235174447, -187500.02235174447, -48045.74525901619, -46760.16232492475, -78010.35976533411, -48953.807229257494, -88430.0724780646, -31819.42931645266, 0.0, 0.0, 0.0, 193.0, 0.0, 1.0, 1.0, 0.0, 0.0, 1.0, 1.0, 256.0, 1.0, 1.75052822224724E9, 0.0, 2025-06-21 19:50:22.247
172.0, -44089.88882182704, -38355.54878181801, -29977.578518101993, -72730.90007673504, -27897.011088968648, -28073.83573935458, -52688.26963761683, -100079.75698468174, -187500.02235174447, -187500.02235174447, -47996.750235170155, -46697.80095789444, -77982.77771267625, -48881.454632455665, -88457.98980688928, -31740.57236201434, 0.0, 0.0, 0.0, 193.0, 0.0, 1.0, 1.0, 0.0, 0.0, 1.0, 1.0, 256.0, 1.0, 1.750528222254215E9, 0.0, 2025-06-21 19:50:22.254
174.0, -44152.31724409071, -38400.565195151, -30014.771820875627, -72783.02434480481, -27907.985795496203, -28000.410258818898, -52743.83607433273, -100140.9337092559, -187500.02235174447, -187500.02235174447, -48034.12235189943, -46744.51610380603, -77999.69798322892, -48927.85685394488, -88426.85382686304, -31793.166016717678, 0.0, 0.0, 0.0, 193.0, 0.0, 1.0, 1.0, 0.0, 0.0, 1.0, 1.0, 256.0, 1.0, 1.750528222262256E9, 0.0, 2025-06-21 19:50:22.262
176.0, -44094.91796432948, -38357.53808707453, -29983.32291642701, -72736.93504773796, -27896.98873722419, -28100.903701889958, -52703.737044779904, -100092.76569995472, -187500.02235174447, -187500.02235174447, -48036.89396821189, -46744.44904857267, -78012.14790489053, -48929.06384814547, -88456.02285337722, -31790.617917849773, 0.0, 0.0, 0.0, 193.0, 0.0, 1.0, 1.0, 0.0, 0.0, 1.0, 1.0, 256.0, 1.0, 1.750528222271294E9, 0.0, 2025-06-21 19:50:22.271
178.0, -44120.73422917536, -38379.15222396281, -29993.26944270962, -72759.55501312674, -27897.167551179835, -28015.944721215335, -52714.53293735182, -100119.36427585654, -187500.02235174447, -187500.02235174447, -47988.435386232784, -46697.488033472066, -77969.92545961446, -48885.030911568516, -88437.8732368795, -31743.56749577135, 0.0, 0.0, 0.0, 193.0, 0.0, 1.0, 1.0, 0.0, 0.0, 1.0, 1.0, 256.0, 1.0, 1.750528222278305E9, 0.0, 2025-06-21 19:50:22.278
180.0, -44110.47477847037, -38366.72465404566, -29978.427884391294, -72749.45202463293, -27884.203539395756, -28008.92627345637, -52715.494062363396, -100116.43619733289, -187500.02235174447, -187500.02235174447, -48038.59270079049, -46748.49471431908, -77998.89332042853, -48952.30966237899, -88424.59630067305, -31814.668394883684, 0.0, 0.0, 0.0, 193.0, 0.0, 1.0, 1.0, 0.0, 0.0, 1.0, 1.0, 256.0, 1.0, 1.750528222286348E9, 0.0, 2025-06-21 19:50:22.286
182.0, -44067.11239422708, -38334.73930773012, -29949.54943055504, -72710.82821021417, -27868.579670021496, -28057.206041479832, -52683.17343988102, -100079.26524630371, -187500.02235174447, -187500.02235174447, -47966.01658654411, -46668.408413935715, -77950.39003496052, -48868.021234038024, -88432.46411472131, -31724.970844384534, 0.0, 0.0, 0.0, 193.0, 0.0, 1.0, 1.0, 0.0, 0.0, 1.0, 1.0, 256.0, 1.0, 1.75052822229437E9, 0.0, 2025-06-21 19:50:22.294
184.0, -44157.39109008206, -38415.16088428031, -30018.437506966296, -72792.74735364287, -27922.402670669875, -27997.59393901753, -52748.52994066834, -100155.1941222184, -187500.02235174447, -187500.02235174447, -48016.10684586845, -46733.854321700856, -77981.79423592023, -48936.03759241552, -88427.30086175214, -31799.29039469843, 0.0, 0.0, 0.0, 193.0, 0.0, 1.0, 1.0, 0.0, 0.0, 1.0, 1.0, 256.0, 1.0, 1.750528222303397E9, 0.0, 2025-06-21 19:50:22.303
186.0, -44065.92775177095, -38323.07169712445, -29952.74573001215, -72702.5580647657, -27875.508710802642, -28065.252669483743, -52680.80415496876, -100073.94553112335, -187500.02235174447, -187500.02235174447, -48029.49554079718, -46729.87571118781, -78001.4637710409, -48931.366077824365, -88459.30855981214, -31790.52851087195, 0.0, 0.0, 0.0, 193.0, 0.0, 1.0, 1.0, 0.0, 0.0, 1.0, 1.0, 256.0, 1.0, 1.750528222310352E9, 0.0, 2025-06-21 19:50:22.310
188.0, -44139.64380498455, -38389.4116746678, -30000.35494570195, -72763.69008585098, -27905.370641394933, -28021.309139884608, -52732.59314687171, -100130.31663063963, -187500.02235174447, -187500.02235174447, -47962.283845220074, -46670.442422681146, -77947.01492154777, -48864.55671364746, -88420.57298667109, -31723.94266413959, 0.0, 0.0, 0.0, 193.0, 0.0, 1.0, 1.0, 0.0, 0.0, 1.0, 1.0, 256.0, 1.0, 1.750528222318433E9, 0.0, 2025-06-21 19:50:22.318
190.0, -44130.1666653355, -38385.99185776614, -29992.956518287247, -72757.11867298112, -27905.52710360612, -28025.846544009037, -52722.981896755926, -100122.24765089127, -187500.02235174447, -187500.02235174447, -48059.20100917829, -46765.19146742719, -78019.25575962733, -48964.26784566258, -88442.50004798175, -31828.97351133508, 0.0, 0.0, 0.0, 193.0, 0.0, 1.0, 1.0, 0.0, 0.0, 1.0, 1.0, 256.0, 1.0, 1.750528222326485E9, 0.0, 2025-06-21 19:50:22.326
192.0, -44110.47477847037, -38377.90052627332, -29983.9264135273, -72739.39373962805, -27890.640841798886, -28081.65884991394, -52703.02178895733, -100100.56645876962, -187500.02235174447, -187500.02235174447, -47990.044711833565, -46692.324780502895, -77976.13924457303, -48882.88514410081, -88451.73131844179, -31742.695777737594, 0.0, 0.0, 0.0, 193.0, 0.0, 1.0, 1.0, 0.0, 0.0, 1.0, 1.0, 256.0, 1.0, 1.750528222334479E9, 0.0, 2025-06-21 19:50:22.334
194.0, -44164.543648307765, -38420.39119248286, -30005.339384715488, -72784.05252504976, -27903.694260560784, -27994.91172968289, -52733.21899571646, -100149.24855819329, -187500.02235174447, -187500.02235174447, -48028.80263671907, -46744.82902822841, -77993.21597733689, -48942.22902562965, -88432.35235599904, -31807.359374446798, 0.0, 0.0, 0.0, 193.0, 0.0, 1.0, 1.0, 0.0, 0.0, 1.0, 1.0, 256.0, 1.0, 1.750528222342449E9, 0.0, 2025-06-21 19:50:22.342
196.0, -44108.73134240286, -38374.32424716047, -29962.826366761492, -72724.2616086318, -27875.106379402445, -28072.092303287067, -52698.305570877266, -100096.8784209345, -187500.02235174447, -187500.02235174447, -48021.65007849337, -46731.887368188785, -77996.76990470527, -48933.42243831426, -88448.78088817369, -31795.177673718656, 0.0, 0.0, 0.0, 193.0, 0.0, 1.0, 1.0, 0.0, 0.0, 1.0, 1.0, 256.0, 1.0, 1.750528222350515E9, 0.0, 2025-06-21 19:50:22.350
198.0, -44166.287084375275, -38422.469904717196, -29982.384143159885, -72752.80478630123, -27889.65736504285, -28016.727032271272, -52710.48727160541, -100116.10092116606, -187500.02235174447, -187500.02235174447, -47978.1759355278, -46688.882611856774, -77960.2024507764, -48880.538210933, -88425.49037045127, -31740.259437591965, 0.0, 0.0, 0.0, 193.0, 0.0, 1.0, 1.0, 0.0, 0.0, 1.0, 1.0, 256.0, 1.0, 1.750528222359541E9, 0.0, 2025-06-21 19:50:22.359
200.0, -44211.92934655301, -38452.64475973186, -30005.451143437764, -72766.84168181916, -27897.18990292429, -28040.50928837172, -52724.41240840106, -100120.66067703495, -187500.02235174447, -187500.02235174447, -48053.36720387545, -46761.74929878108, -78012.63964326854, -48961.67504330576, -88437.31444326811, -31825.553694433416, 0.0, 0.0, 0.0, 193.0, 0.0, 1.0, 1.0, 0.0, 0.0, 1.0, 1.0, 256.0, 1.0, 1.75052822236652E9, 0.0, 2025-06-21 19:50:22.366
202.0, -44207.816625573236, -38450.20841958623, -29982.0265152486, -72733.09054769165, -27888.1821499088, -28061.94461130436, -52686.79442248278, -100084.58496148407, -187500.02235174447, -187500.02235174447, -48009.468377765224, -46703.61241145282, -77991.47254126937, -48884.315655745944, -88458.39213828948, -31742.360501570765, 0.0, 0.0, 0.0, 193.0, 0.0, 1.0, 1.0, 0.0, 0.0, 1.0, 1.0, 256.0, 1.0, 1.750528222374615E9, 0.0, 2025-06-21 19:50:22.374
204.0, -44302.275097641366, -38523.76801058865, -30017.85636161046, -72787.42763846251, -27902.75548729366, -28003.561854787094, -52732.906071294085, -100139.65965982195, -187500.02235174447, -187500.02235174447, -48040.67141302484, -46750.886350975794, -78008.54927403323, -48930.56141502398, -88426.20562627383, -31795.647060352214, 0.0, 0.0, 0.0, 193.0, 0.0, 1.0, 1.0, 0.0, 0.0, 1.0, 1.0, 256.0, 1.0, 1.750528222382615E9, 0.0, 2025-06-21 19:50:22.382
206.0, -44284.5501642883, -38503.58438534551, -29998.54445440107, -72745.58517284217, -27897.61458606894, -28109.464420016342, -52703.535879079805, -100102.64517100397, -187500.02235174447, -187500.02235174447, -48068.23111393823, -46763.85036275988, -78038.83588777017, -48945.62649078685, -88472.22786810731, -31806.442952924128, 0.0, 0.0, 0.0, 193.0, 0.0, 1.0, 1.0, 0.0, 0.0, 1.0, 1.0, 256.0, 1.0, 1.750528222390651E9, 0.0, 2025-06-21 19:50:22.390
208.0, -44349.75020286444, -38559.95548486179, -30010.592044662484, -72775.1341790121, -27911.80794379806, -28045.560782618617, -52718.980934498424, -100132.86472950754, -187500.02235174447, -187500.02235174447, -48021.426561048815, -46716.33055404789, -77997.5075122723, -48896.02796984053, -88448.62442596251, -31753.804594731882, 0.0, 0.0, 0.0, 193.0, 0.0, 1.0, 1.0, 0.0, 0.0, 1.0, 1.0, 256.0, 1.0, 1.750528222398682E9, 0.0, 2025-06-21 19:50:22.398
210.0, -44353.639406399656, -38552.422946980354, -29992.397724675862, -72759.73382708238, -27869.965478177724, -28030.160430688913, -52720.63496358812, -100122.47116833582, -187500.02235174447, -187500.02235174447, -48089.398215937406, -46788.12435723834, -78043.61916108361, -48973.16383995579, -88446.03162360568, -31834.896723615733, 0.0, 0.0, 0.0, 193.0, 0.0, 1.0, 1.0, 0.0, 0.0, 1.0, 1.0, 256.0, 1.0, 1.750528222406673E9, 0.0, 2025-06-21 19:50:22.406
212.0, -44325.453856641514, -38522.650423365885, -29957.01491320311, -72718.58426554016, -27861.71768447372, -28060.06706477011, -52687.06264341625, -100085.9260661514, -187500.02235174447, -187500.02235174447, -47990.111767066934, -46682.244143753545, -77973.01000034928, -48859.281701956, -88417.15316976943, -31718.153562325668, 0.0, 0.0, 0.0, 193.0, 0.0, 1.0, 1.0, 0.0, 0.0, 1.0, 1.0, 256.0, 1.0, 1.750528222413755E9, 0.0, 2025-06-21 19:50:22.413
214.0, -44444.7898202884, -38627.12247694999, -30032.295588528585, -72807.56656021674, -27915.741850822196, -27990.39667730292, -52757.090658794725, -100160.80441007667, -187500.02235174447, -187500.02235174447, -48065.86182902597, -46766.912551750254, -78025.17897190798, -48946.185284398234, -88434.90045486695, -31809.77336284797, 0.0, 0.0, 0.0, 193.0, 0.0, 1.0, 1.0, 0.0, 0.0, 1.0, 1.0, 256.0, 1.0, 1.750528222421757E9, 0.0, 2025-06-21 19:50:22.421
216.0, -44400.51101452244, -38587.11285437499, -30000.332593957497, -72749.0720449772, -27899.805057025562, -28106.782210681704, -52710.26375416086, -100103.80746171564, -187500.02235174447, -187500.02235174447, -48083.586762379025, -46778.91543852275, -78055.48793738938, -48954.12015367987, -88476.69821699837, -31815.093078028334, 0.0, 0.0, 0.0, 193.0, 0.0, 1.0, 1.0, 0.0, 0.0, 1.0, 1.0, 256.0, 1.0, 1.750528222430816E9, 0.0, 2025-06-21 19:50:22.430
218.0, -44455.96569251605, -38640.68998583436, -30033.90491412937, -72794.04375482128, -27910.690356575295, -28058.9718292918, -52728.59218461421, -100133.64704056348, -187500.02235174447, -187500.02235174447, -48040.29143336909, -46730.143932121275, -78018.54050380475, -48904.85690890037, -88461.94606565787, -31764.62283904825, 0.0, 0.0, 0.0, 193.0, 0.0, 1.0, 1.0, 0.0, 0.0, 1.0, 1.0, 256.0, 1.0, 1.750528222438865E9, 0.0, 2025-06-21 19:50:22.438
220.0, -44458.916122784154, -38637.33722416606, -30022.572579690528, -72777.54816741326, -27881.878957972403, -28037.134174958966, -52727.13932122461, -100124.2369561478, -187500.02235174447, -187500.02235174447, -48116.577937195056, -46807.16804351426, -78068.58605964018, -48983.40093891632, -88462.95189415835, -31848.508935989015, 0.0, 0.0, 0.0, 193.0, 0.0, 1.0, 1.0, 0.0, 0.0, 1.0, 1.0, 256.0, 1.0, 1.750528222445863E9, 0.0, 2025-06-21 19:50:22.445
222.0, -44436.206750417565, -38625.28963390466, -29995.862245066437, -72750.9719432559, -27889.769123765127, -28103.1835798244, -52703.692341291, -100105.19326987187, -187500.02235174447, -187500.02235174447, -48045.18646540481, -46728.735772220585, -78026.07304168619, -48895.60328669588, -88465.58940000409, -31755.436272077117, 0.0, 0.0, 0.0, 193.0, 0.0, 1.0, 1.0, 0.0, 0.0, 1.0, 1.0, 256.0, 1.0, 1.750528222453892E9, 0.0, 2025-06-21 19:50:22.453
224.0, -44507.799387907915, -38693.775378915714, -30028.495791971185, -72798.3352897567, -27897.078144202012, -28010.513247312698, -52736.1470742401, -100149.04739249319, -187500.02235174447, -187500.02235174447, -48082.80445132309, -46777.52963036652, -78038.59001858116, -48948.12988616585, -88437.8285333906, -31813.0590692829, 0.0, 0.0, 0.0, 193.0, 0.0, 1.0, 1.0, 0.0, 0.0, 1.0, 1.0, 256.0, 1.0, 1.750528222462917E9, 0.0, 2025-06-21 19:50:22.462
226.0, -44457.597369861294, -38661.275942477696, -29999.41617243483, -72749.80965254422, -27901.52614134862, -28090.28662327369, -52692.67293127453, -100094.68794997787, -187500.02235174447, -187500.02235174447, -48090.40404443789, -46775.87560127683, -78053.65509434404, -48946.542912309524, -88472.40668206295, -31804.744220345525, 0.0, 0.0, 0.0, 193.0, 0.0, 1.0, 1.0, 0.0, 0.0, 1.0, 1.0, 256.0, 1.0, 1.750528222470983E9, 0.0, 2025-06-21 19:50:22.470
228.0, -44500.22214653756, -38692.63543994849, -30005.49584692667, -72771.89317606606, -27881.700144016762, -28041.805689550125, -52718.28803042031, -100121.95707821335, -187500.02235174447, -187500.02235174447, -48035.30699435556, -46722.8796151733, -78005.50943678731, -48876.87252484233, -88428.73137339728, -31736.683158479114, 0.0, 0.0, 0.0, 193.0, 0.0, 1.0, 1.0, 0.0, 0.0, 1.0, 1.0, 256.0, 1.0, 1.750528222477973E9, 0.0, 2025-06-21 19:50:22.477
230.0, -44504.290164028425, -38699.94446038538, -30013.587178419493, -72769.5238911538, -27892.76425752214, -28037.380044147976, -52717.23749843091, -100123.0299619472, -187500.02235174447, -187500.02235174447, -48112.733437148745, -46802.02714228954, -78060.8300043142, -48968.80524978701, -88448.46796375132, -31832.169810792187, 0.0, 0.0, 0.0, 193.0, 0.0, 1.0, 1.0, 0.0, 0.0, 1.0, 1.0, 256.0, 1.0, 1.750528222485994E9, 0.0, 2025-06-21 19:50:22.485
232.0, -44483.19011726262, -38693.32834402661, -30008.245111494674, -72757.36454217012, -27891.199635410267, -28108.771515938228, -52698.55144006627, -100102.60046751506, -187500.02235174447, -187500.02235174447, -48052.2943201416, -46732.513217033535, -78031.99625396685, -48896.74322566309, -88474.37363557502, -31754.028112176435, 0.0, 0.0, 0.0, 193.0, 0.0, 1.0, 1.0, 0.0, 0.0, 1.0, 1.0, 256.0, 1.0, 1.750528222495021E9, 0.0, 2025-06-21 19:50:22.495
234.0, -44541.61757726879, -38746.90547548598, -30036.967103119747, -72806.91835962754, -27914.311339177053, -28023.723128285783, -52740.237443475424, -100139.59260458859, -187500.02235174447, -187500.02235174447, -48098.338913719526, -46790.31482819496, -78054.70562633344, -48953.248435646114, -88451.21722831932, -31819.161095519197, 0.0, 0.0, 0.0, 193.0, 0.0, 1.0, 1.0, 0.0, 0.0, 1.0, 1.0, 256.0, 1.0, 1.750528222502073E9, 0.0, 2025-06-21 19:50:22.502
236.0, -44496.1541290467, -38710.785056446206, -30004.9817568042, -72757.11867298112, -27886.975155708213, -28101.12721933451, -52686.30268410477, -100097.5266215237, -187500.02235174447, -187500.02235174447, -48094.38265495094, -46781.955275768676, -78062.48403340389, -48947.28051987655, -88470.3279698286, -31809.169865747677, 0.0, 0.0, 0.0, 193.0, 0.0, 1.0, 1.0, 0.0, 0.0, 1.0, 1.0, 256.0, 1.0, 1.750528222510082E9, 0.0, 2025-06-21 19:50:22.510
238.0, -44546.602016282326, -38766.66441758447, -30036.18479206381, -72801.933920614, -27915.294815933088, -28059.84354732556, -52725.77586481284, -100140.37491564453, -187500.02235174447, -187500.02235174447, -48070.80156455059, -46753.59091205489, -78043.14977445004, -48912.210632826165, -88465.45528953735, -31771.19425191811, 0.0, 0.0, 0.0, 193.0, 0.0, 1.0, 1.0, 0.0, 0.0, 1.0, 1.0, 256.0, 1.0, 1.750528222518153E9, 0.0, 2025-06-21 19:50:22.518
240.0, -44530.48640853005, -38754.16979243395, -30028.451088482274, -72796.25657752235, -27905.750621050673, -28034.340206902052, -52731.67672534904, -100137.55859584315, -187500.02235174447, -187500.02235174447, -48129.6090042125, -46822.903671610795, -78079.42665570101, -48987.75952908511, -88462.03547263569, -31851.079386601377, 0.0, 0.0, 0.0, 193.0, 0.0, 1.0, 1.0, 0.0, 0.0, 1.0, 1.0, 256.0, 1.0, 1.750528222526149E9, 0.0, 2025-06-21 19:50:22.526
242.0, -44506.0559518404, -38737.696556770396, -30002.36660270293, -72760.2255654604, -27889.41149585384, -28094.332289020098, -52722.15488221108, -100124.95221197036, -187500.02235174447, -187500.02235174447, -48068.16405870486, -46753.277987632515, -78048.2683239303, -48910.37778978083, -88478.97809493281, -31766.567440815863, 0.0, 0.0, 0.0, 193.0, 0.0, 1.0, 1.0, 0.0, 0.0, 1.0, 1.0, 256.0, 1.0, 1.750528222534169E9, 0.0, 2025-06-21 19:50:22.534
244.0, -44580.44255738766, -38807.05401981521, -30056.94956266279, -72829.42656629403, -27918.42406015683, -28036.128346458478, -52768.31123451129, -100187.38063423404, -187500.02235174447, -187500.02235174447, -48108.821881869066, -46802.47417717864, -78065.3227049497, -48963.664348562284, -88460.00146389025, -31825.933674089156, 0.0, 0.0, 0.0, 193.0, 0.0, 1.0, 1.0, 0.0, 0.0, 1.0, 1.0, 256.0, 1.0, 1.750528222543203E9, 0.0, 2025-06-21 19:50:22.543
246.0, -44499.70805641509, -38736.2436933808, -29989.69316359677, -72747.66388507652, -27881.253109127654, -28089.75018140676, -52704.20643141347, -100103.53924078218, -187500.02235174447, -187500.02235174447, -48101.02112305417, -46789.73368283912, -78067.51317590632, -48945.33591810893, -88470.30561808415, -31808.096982013823, 0.0, 0.0, 0.0, 193.0, 0.0, 1.0, 1.0, 0.0, 0.0, 1.0, 1.0, 256.0, 1.0, 1.750528222551222E9, 0.0, 2025-06-21 19:50:22.551
248.0, -44558.403737354725, -38791.07252252967, -30029.36751000494, -72795.11663855513, -27903.962481494247, -28046.83483205257, -52729.128626481135, -100141.60426158957, -187500.02235174447, -187500.02235174447, -48060.586817334515, -46749.701708519664, -78035.88545750207, -48895.580934951424, -88454.21236207633, -31759.03490293442, 0.0, 0.0, 0.0, 193.0, 0.0, 1.0, 1.0, 0.0, 0.0, 1.0, 1.0, 256.0, 1.0, 1.750528222558301E9, 0.0, 2025-06-21 19:50:22.558
250.0, -44547.38432733826, -38781.9530107919, -30020.27035001163, -72783.60549016065, -27890.774952265616, -28031.233314422767, -52713.50475710687, -100118.87253747851, -187500.02235174447, -187500.02235174447, -48132.47002750278, -46823.99890708911, -78084.41109471454, -48978.23768594715, -88457.25219932225, -31846.20670631012, 0.0, 0.0, 0.0, 193.0, 0.0, 1.0, 1.0, 0.0, 0.0, 1.0, 1.0, 256.0, 1.0, 1.750528222566284E9, 0.0, 2025-06-21 19:50:22.566
252.0, -44524.362030549295, -38771.35828392008, -30006.0322887936, -72760.71730383842, -27884.382353351397, -28093.214701797333, -52684.06750965924, -100092.69864472136, -187500.02235174447, -187500.02235174447, -48065.32538715904, -46746.86303697384, -78045.65316982903, -48889.72477790413, -88460.13557435699, -31749.37894932973, 0.0, 0.0, 0.0, 193.0, 0.0, 1.0, 1.0, 0.0, 0.0, 1.0, 1.0, 256.0, 1.0, 1.750528222574354E9, 0.0, 2025-06-21 19:50:22.574
254.0, -44592.33368543789, -38835.0160521288, -30045.99720787969, -72821.24582782338, -27902.57667333802, -28019.766869517192, -52725.86527179066, -100149.38266866001, -187500.02235174447, -187500.02235174447, -48107.45842545729, -46802.78710160102, -78062.70755084844, -48946.542912309524, -88441.04718459216, -31810.689784370636, 0.0, 0.0, 0.0, 193.0, 0.0, 1.0, 1.0, 0.0, 0.0, 1.0, 1.0, 256.0, 1.0, 1.750528222582336E9, 0.0, 2025-06-21 19:50:22.582
0.0, -44518.52822524646, -38767.67024608496, -29993.515311898627, -72751.46368163392, -27884.315298118032, -28100.031983856203, -52672.37754730911, -100087.66950221891, -187500.02235174447, -187500.02235174447, -48114.409817982894, -46800.037837033015, -78075.82802484371, -48951.862627489885, -88471.64672275147, -31812.187351249144, 0.0, 0.0, 0.0, 193.0, 0.0, 1.0, 1.0, 0.0, 0.0, 1.0, 1.0, 256.0, 1.0, 1.750528222590368E9, 0.0, 2025-06-21 19:50:22.590
2.0, -44549.798315739434, -38804.528272691765, -30006.836951593992, -72773.36839120011, -27887.04221094158, -28034.720186557795, -52706.821585514735, -100117.39732234446, -187500.02235174447, -187500.02235174447, -48050.32736662953, -46738.034097913995, -78023.88257072956, -48890.0377023265, -88443.21530380432, -31747.657865006673, 0.0, 0.0, 0.0, 193.0, 0.0, 1.0, 1.0, 0.0, 0.0, 1.0, 1.0, 256.0, 1.0, 1.750528222598405E9, 0.0, 2025-06-21 19:50:22.598
4.0, -44547.9654726941, -38796.81692085468, -30012.849570852468, -72772.675487122, -27884.158835906845, -28038.564686604106, -52709.90612624957, -100115.20685138785, -187500.02235174447, -187500.02235174447, -48104.105663789, -46797.22151723165, -78054.54916412225, -48957.2046944147, -88436.24155953426, -31819.898703086223, 0.0, 0.0, 0.0, 193.0, 0.0, 1.0, 1.0, 0.0, 0.0, 1.0, 1.0, 256.0, 1.0, 1.750528222606424E9, 0.0, 2025-06-21 19:50:22.606
6.0, -44518.14824559072, -38772.9005542875, -29994.744657843672, -72747.95445775443, -27881.27546087211, -28089.37020175102, -52689.47663181742, -100094.03974938867, -187500.02235174447, -187500.02235174447, -48047.26517763915, -46733.58610076739, -78028.33056787617, -48883.131013289814, -88459.5767807456, -31741.287617836908, 0.0, 0.0, 0.0, 193.0, 0.0, 1.0, 1.0, 0.0, 0.0, 1.0, 1.0, 256.0, 1.0, 1.75052822261345E9, 0.0, 2025-06-21 19:50:22.613
8.0, -44596.580516884394, -38847.242456345855, -30050.914591659857, -72820.35175804517, -27903.04605997158, -28010.714413012793, -52745.73597261143, -100154.52356988474, -187500.02235174447, -187500.02235174447, -48104.195070766815, -46801.20012774469, -78064.09335900466, -48950.14154316683, -88448.89264689597, -31816.747107118026, 0.0, 0.0, 0.0, 193.0, 0.0, 1.0, 1.0, 0.0, 0.0, 1.0, 1.0, 256.0, 1.0, 1.750528222622514E9, 0.0, 2025-06-21 19:50:22.622
10.0, -44518.81879792438, -38783.71879860387, -30009.720326628725, -72763.55597538424, -27888.539777820086, -28094.578158209108, -52679.01601541234, -100087.73655745227, -187500.02235174447, -187500.02235174447, -48103.23394575524, -46794.98634278612, -78071.93882130847, -48946.67702277625, -88469.18803086139, -31810.108639014798, 0.0, 0.0, 0.0, 193.0, 0.0, 1.0, 1.0, 0.0, 0.0, 1.0, 1.0, 256.0, 1.0, 1.750528222630516E9, 0.0, 2025-06-21 19:50:22.630
