%OpenBCI Raw EXG Data
%Number of channels = 16
%Sample Rate = 125 Hz
%Board = OpenBCI_GUI$BoardCytonSerialDaisy
Sample Index, EXG Channel 0, EXG Channel 1, EXG Channel 2, EXG Channel 3, EXG Channel 4, EXG Channel 5, EXG Channel 6, EXG Channel 7, EXG Channel 8, EXG Channel 9, EXG Channel 10, EXG Channel 11, EXG Channel 12, EXG Channel 13, EXG Channel 14, EXG Channel 15, Accel Channel 0, Accel Channel 1, Accel Channel 2, Not Used, Digital Channel 0 (D11), Digital Channel 1 (D12), Digital Channel 2 (D13), Digital Channel 3 (D17), Not Used, Digital Channel 4 (D18), Analog Channel 0, Analog Channel 1, Analog Channel 2, Timestamp, Marker Channel, Timestamp (Formatted)
0.0, -44591.618429615315, -38734.23203637982, -30521.105888021695, -73478.02948689813, -28390.157626886088, -28416.53268534335, -53143.44056170471, -100938.71217235473, 0.0, 0.0, 0.0, 0.0, 0.0, 0.0, 0.0, 0.0, 0.0, 0.0, 0.0, 193.0, 0.0, 0.5, 0.5, 0.0, 0.0, 0.5, 0.5, 128.0, 0.5, 1.75052846165164E9, 0.0, 2025-06-21 19:54:21.651
96.0, -44611.69029613618, -38759.10952795858, -30533.064071305285, -73502.28112963213, -28382.71449598247, -28359.356923026673, -53160.18201830173, -100963.90258835585, -187500.02235174447, -187500.02235174447, -48755.10022104981, -47365.24639907436, -78635.13572634885, -49449.88184569858, -89069.17590727519, -32276.05310393013, 0.0, 0.0, 0.0, 193.0, 0.0, 1.0, 1.0, 0.0, 0.0, 1.0, 1.0, 256.0, 1.0, 1.750528461651751E9, 0.0, 2025-06-21 19:54:21.651
0.0, -21983.007727027863, -19058.05844760638, -14936.441473536668, -36388.55056626208, -13875.337109009875, -14390.343653004606, -26336.099366676735, -50252.018898966184, -93750.01117587223, -93750.01117587223, -24370.91164242168, -23675.325354972527, -39317.45610445215, -24715.66494890034, -44541.88579820225, -16129.197612905218, 0.0, 0.0, 0.0, 193.0, 0.0, 1.0, 1.0, 0.0, 0.0, 1.0, 1.0, 256.0, 1.0, 1.750528461748246E9, 0.0, 2025-06-21 19:54:21.748
2.0, -43928.173950692886, -38070.76520571294, -29853.280467186032, -72752.24599268986, -27749.981313941636, -28759.36374179885, -52596.873354539086, -100424.86791907166, -187500.02235174447, -187500.02235174447, -48126.77033266668, -46652.49397188354, -77930.31816843965, -48813.55003280044, -88574.48709899034, -31668.622096612704, 0.0, 0.0, 0.0, 193.0, 0.0, 1.0, 1.0, 0.0, 0.0, 1.0, 1.0, 256.0, 1.0, 1.750528461754339E9, 0.0, 2025-06-21 19:54:21.754
4.0, -43936.06411648561, -38081.29287735139, -29858.063740499467, -72755.95638226943, -27753.937572710227, -28777.625117018833, -52578.611979319096, -100435.48499768795, -187500.02235174447, -187500.02235174447, -48109.872413858466, -46641.54161710043, -77927.3453864271, -48774.6132939593, -88580.0079798708, -31630.914703716604, 0.0, 0.0, 0.0, 193.0, 0.0, 1.0, 1.0, 0.0, 0.0, 1.0, 1.0, 256.0, 1.0, 1.750528461761248E9, 0.0, 2025-06-21 19:54:21.761
6.0, -43961.656863886936, -38099.95658397157, -29882.96358382268, -72778.68810638048, -27748.39434008531, -28770.092579137396, -52613.011314035815, -100438.32366923377, -187500.02235174447, -187500.02235174447, -48112.37580923746, -46653.49980038402, -77925.93722652641, -48801.79301521695, -88568.38507275404, -31657.870907529705, 0.0, 0.0, 0.0, 193.0, 0.0, 1.0, 1.0, 0.0, 0.0, 1.0, 1.0, 256.0, 1.0, 1.750528461769312E9, 0.0, 2025-06-21 19:54:21.769
8.0, -43929.291537915655, -38078.34244708329, -29849.681836328728, -72744.84756527515, -27725.349691551888, -28779.793236231, -52576.98030197386, -100426.209023739, -187500.02235174447, -187500.02235174447, -48128.044382100634, -46659.62417836478, -77942.92455231244, -48803.312933839916, -88590.60270674262, -31661.111910475724, 0.0, 0.0, 0.0, 193.0, 0.0, 1.0, 1.0, 0.0, 0.0, 1.0, 1.0, 256.0, 1.0, 1.750528461776294E9, 0.0, 2025-06-21 19:54:21.776
10.0, -43968.34003547908, -38112.51826435546, -29884.707019890193, -72787.74056288488, -27776.892814265826, -28767.835052947412, -52622.75667461833, -100462.53060847886, -187500.02235174447, -187500.02235174447, -48099.12122477547, -46639.32879439936, -77922.4950578803, -48780.80472717342, -88571.73783442234, -31639.989511965457, 0.0, 0.0, 0.0, 193.0, 0.0, 1.0, 1.0, 0.0, 0.0, 1.0, 1.0, 256.0, 1.0, 1.750528461784339E9, 0.0, 2025-06-21 19:54:21.784
12.0, -43958.21469524082, -38107.69028755311, -29880.370781465863, -72777.12348426861, -27761.44775884721, -28799.641585307312, -52626.489415942364, -100476.72396620798, -187500.02235174447, -187500.02235174447, -48160.94614993884, -46696.59396369386, -77968.94198285842, -48847.23411169459, -88607.59003252865, -31706.508303464452, 0.0, 0.0, 0.0, 193.0, 0.0, 1.0, 1.0, 0.0, 0.0, 1.0, 1.0, 256.0, 1.0, 1.750528461792379E9, 0.0, 2025-06-21 19:54:21.792
14.0, -43908.325601616576, -38058.27058056243, -29830.57109481944, -72724.32866386518, -27708.563531465952, -28787.21401539016, -52602.95302903093, -100417.55889863479, -187500.02235174447, -187500.02235174447, -48076.00952100867, -46606.29291609442, -77895.51650232275, -48751.54629368142, -88563.3559302516, -31609.68054648406, 0.0, 0.0, 0.0, 193.0, 0.0, 1.0, 1.0, 0.0, 0.0, 1.0, 1.0, 256.0, 1.0, 1.750528461801405E9, 0.0, 2025-06-21 19:54:21.801
16.0, -43964.49553543276, -38111.91476725516, -29897.96160435219, -72790.1321995416, -27719.158258337768, -28744.097500335873, -52646.494227229865, -100482.08838487726, -187500.02235174447, -187500.02235174447, -48117.27084127317, -46641.005175233506, -77920.5951596016, -48799.870765193795, -88571.87194488906, -31654.384035394676, 0.0, 0.0, 0.0, 193.0, 0.0, 1.0, 1.0, 0.0, 0.0, 1.0, 1.0, 256.0, 1.0, 1.750528461807499E9, 0.0, 2025-06-21 19:54:21.807
18.0, -43957.32062546261, -38099.4424938491, -29875.475749430152, -72766.21583297441, -27784.69357308073, -28802.681422553233, -52610.46321516791, -100427.7065906175, -187500.02235174447, -187500.02235174447, -48155.380565569474, -46685.28398099947, -77967.17619504646, -48833.934823743686, -88629.96412872842, -31686.41408519913, 0.0, 0.0, 0.0, 193.0, 0.0, 1.0, 1.0, 0.0, 0.0, 1.0, 1.0, 256.0, 1.0, 1.750528461816475E9, 0.0, 2025-06-21 19:54:21.816
20.0, -43960.98631155328, -38095.642697291696, -29867.58558363743, -72772.58608014419, -27759.704322779697, -28749.908953894254, -52624.16483451901, -100457.43441074305, -187500.02235174447, -187500.02235174447, -48108.59836442451, -46641.45221012261, -77927.0995172381, -48791.44415753415, -88587.94284915243, -31645.35393063473, 0.0, 0.0, 0.0, 193.0, 0.0, 1.0, 1.0, 0.0, 0.0, 1.0, 1.0, 256.0, 1.0, 1.750528461824502E9, 0.0, 2025-06-21 19:54:21.824
22.0, -43958.68408187438, -38102.72820028403, -29882.717714633673, -72786.42180996202, -27755.703360522195, -28776.999268174088, -52634.960727090926, -100459.93780612205, -187500.02235174447, -187500.02235174447, -48136.40393452692, -46670.151850003225, -77942.38811044552, -48819.316782869915, -88584.03129387276, -31673.159500737132, 0.0, 0.0, 0.0, 193.0, 0.0, 1.0, 1.0, 0.0, 0.0, 1.0, 1.0, 256.0, 1.0, 1.750528461831533E9, 0.0, 2025-06-21 19:54:21.831
24.0, -43949.139886991965, -38087.10433090977, -29872.48061567314, -72767.7804550863, -27720.29819730499, -28771.299573337983, -52597.38744466155, -100432.24399474192, -187500.02235174447, -187500.02235174447, -48130.279556546164, -46662.37344293278, -77951.5523256722, -48804.5199280405, -88616.75424775532, -31659.234363941476, 0.0, 0.0, 0.0, 193.0, 0.0, 1.0, 1.0, 0.0, 0.0, 1.0, 1.0, 256.0, 1.0, 1.750528461840563E9, 0.0, 2025-06-21 19:54:21.840
26.0, -43970.46345120233, -38113.97112774505, -29896.06170607349, -72798.22353103443, -27768.3544478839, -28787.25871887907, -52655.39022152308, -100475.87459991868, -187500.02235174447, -187500.02235174447, -48132.179454824865, -46656.65139635222, -77935.07909000863, -48812.18657638867, -88580.49971824882, -31667.057474500834, 0.0, 0.0, 0.0, 193.0, 0.0, 1.0, 1.0, 0.0, 0.0, 1.0, 1.0, 256.0, 1.0, 1.750528461848588E9, 0.0, 2025-06-21 19:54:21.848
28.0, -43941.58499736607, -38079.61649651724, -29871.653601128295, -72758.01274275933, -27743.58871502742, -28797.294652139506, -52597.09687198364, -100430.99229705242, -187500.02235174447, -187500.02235174447, -48141.8130566851, -46666.173239490185, -77954.25688675129, -48817.41688459121, -88608.19352962894, -31671.46076815853, 0.0, 0.0, 0.0, 193.0, 0.0, 1.0, 1.0, 0.0, 0.0, 1.0, 1.0, 256.0, 1.0, 1.750528461856619E9, 0.0, 2025-06-21 19:54:21.856
30.0, -43972.83273611459, -38111.69124981061, -29898.721563663672, -72799.16230430154, -27768.712075795185, -28781.26845136505, -52670.29883507477, -100480.25554183192, -187500.02235174447, -187500.02235174447, -48135.95689963781, -46669.458945925115, -77956.82733736365, -48814.66762002321, -88618.34122161166, -31667.146881478657, 0.0, 0.0, 0.0, 193.0, 0.0, 1.0, 1.0, 0.0, 0.0, 1.0, 1.0, 256.0, 1.0, 1.750528461863633E9, 0.0, 2025-06-21 19:54:21.863
32.0, -43959.46639293032, -38097.49789208149, -29888.216243769675, -72786.08653379518, -27746.58384878443, -28739.02365434452, -52639.14050330407, -100458.21672179899, -187500.02235174447, -187500.02235174447, -48136.69450720483, -46671.02356803699, -77949.47361343785, -48819.160320658724, -88586.04295087373, -31671.63958211417, 0.0, 0.0, 0.0, 193.0, 0.0, 1.0, 1.0, 0.0, 0.0, 1.0, 1.0, 256.0, 1.0, 1.750528461872665E9, 0.0, 2025-06-21 19:54:21.872
34.0, -43967.46831744532, -38109.344316642804, -29897.179293296256, -72789.75221988586, -27743.387549327323, -28756.6368289753, -52632.010296822824, -100456.87561713168, -187500.02235174447, -187500.02235174447, -48141.36602179599, -46684.546373432444, -77968.96433460288, -48812.879480466785, -88632.44517236295, -31665.470500644507, 0.0, 0.0, 0.0, 193.0, 0.0, 1.0, 1.0, 0.0, 0.0, 1.0, 1.0, 256.0, 1.0, 1.750528461880639E9, 0.0, 2025-06-21 19:54:21.880
36.0, -43970.530506435694, -38105.5445200854, -29900.509703220097, -72801.46453398044, -27769.986125229138, -28783.637736277313, -52647.835331897186, -100476.3663382967, -187500.02235174447, -187500.02235174447, -48142.729478207766, -46674.28692272746, -77956.35795073009, -48827.74339052956, -88603.0079249153, -31681.31788746332, 0.0, 0.0, 0.0, 193.0, 0.0, 1.0, 1.0, 0.0, 0.0, 1.0, 1.0, 256.0, 1.0, 1.750528461887726E9, 0.0, 2025-06-21 19:54:21.887
38.0, -43951.19624748186, -38091.75349375648, -29897.02283108507, -72783.40432446056, -27748.841374974418, -28802.301442897493, -52648.7741051643, -100475.24875107393, -187500.02235174447, -187500.02235174447, -48158.95684468232, -46684.65813215472, -77973.01000034928, -48840.416829635724, -88636.89316950955, -31692.784332368894, 0.0, 0.0, 0.0, 193.0, 0.0, 1.0, 1.0, 0.0, 0.0, 1.0, 1.0, 256.0, 1.0, 1.750528461895698E9, 0.0, 2025-06-21 19:54:21.895
40.0, -43933.73953506226, -38084.42212157513, -29864.456339413686, -72767.64634461956, -27692.738496391597, -28722.50571519205, -52623.673096141, -100453.18757929654, -187500.02235174447, -187500.02235174447, -48118.96957385178, -46644.71556481309, -77935.83904932012, -48796.96503841461, -88594.58131725567, -31651.388901637663, 0.0, 0.0, 0.0, 193.0, 0.0, 1.0, 1.0, 0.0, 0.0, 1.0, 1.0, 256.0, 1.0, 1.750528461904832E9, 0.0, 2025-06-21 19:54:21.904
42.0, -43946.3235671906, -38090.85942397826, -29886.11517979088, -72792.8814641096, -27766.231032160646, -28762.98472440061, -52648.170608064014, -100473.37120453968, -187500.02235174447, -187500.02235174447, -48139.779047939664, -46679.36076871881, -77953.89925884, -48835.18652143318, -88594.69307597794, -31689.677439889605, 0.0, 0.0, 0.0, 193.0, 0.0, 1.0, 1.0, 0.0, 0.0, 1.0, 1.0, 256.0, 1.0, 1.750528461912759E9, 0.0, 2025-06-21 19:54:21.912
44.0, -43949.02812826969, -38095.32977286932, -29891.34548799342, -72790.95921408644, -27753.848165732405, -28799.775695774046, -52625.50593918633, -100452.85230312972, -187500.02235174447, -187500.02235174447, -48119.10368431851, -46660.38413767626, -77951.95465707239, -48809.169090887204, -88618.81060824521, -31665.045817499857, 0.0, 0.0, 0.0, 193.0, 0.0, 1.0, 1.0, 0.0, 0.0, 1.0, 1.0, 256.0, 1.0, 1.750528461919818E9, 0.0, 2025-06-21 19:54:21.919
46.0, -44010.76364645525, -38149.1527735177, -29936.473660048683, -72835.05920589676, -27783.196006202223, -28777.200433874183, -52680.62534101312, -100506.20591714453, -187500.02235174447, -187500.02235174447, -48173.127850666984, -46705.467606242615, -77988.43270402345, -48855.97364377662, -88627.72895428288, -31710.285748277398, 0.0, 0.0, 0.0, 193.0, 0.0, 1.0, 1.0, 0.0, 0.0, 1.0, 1.0, 256.0, 1.0, 1.750528461927928E9, 0.0, 2025-06-21 19:54:21.927
48.0, -43957.36532895152, -38101.96824097255, -29888.328002491955, -72779.91745232552, -27756.753892511595, -28784.755323500078, -52629.79747412175, -100450.41596298409, -187500.02235174447, -187500.02235174447, -48176.94999896884, -46706.31697253192, -77995.78642794925, -48849.06695473992, -88638.63660557706, -31703.691983663084, 0.0, 0.0, 0.0, 193.0, 0.0, 1.0, 1.0, 0.0, 0.0, 1.0, 1.0, 256.0, 1.0, 1.750528461936892E9, 0.0, 2025-06-21 19:54:21.936
50.0, -43959.3769859525, -38096.894394981195, -29886.517511191072, -72789.9310338415, -27747.00853192908, -28767.9915151586, -52650.98692786538, -100478.82503018678, -187500.02235174447, -187500.02235174447, -48116.9579168508, -46650.03527999345, -77939.10240401058, -48795.86980293629, -88593.64254398854, -31651.523012104397, 0.0, 0.0, 0.0, 193.0, 0.0, 1.0, 1.0, 0.0, 0.0, 1.0, 1.0, 256.0, 1.0, 1.750528461943866E9, 0.0, 2025-06-21 19:54:21.943
52.0, -43988.97069561132, -38115.02165973445, -29924.98486339866, -72818.22834232192, -27763.772340270563, -28750.713616694644, -52632.88201485658, -100484.77059421189, -187500.02235174447, -187500.02235174447, -48181.21918215981, -46711.3237632899, -77991.00315463581, -48870.4352224392, -88634.166256686, -31724.56851298434, 0.0, 0.0, 0.0, 193.0, 0.0, 1.0, 1.0, 0.0, 0.0, 1.0, 1.0, 256.0, 1.0, 1.750528461951896E9, 0.0, 2025-06-21 19:54:21.951
54.0, -43953.16320099392, -38092.73697051251, -29872.05593252849, -72778.5316441693, -27746.33797959542, -28787.12460841234, -52641.867416127614, -100459.46841948849, -187500.02235174447, -187500.02235174447, -48132.5594344806, -46665.52503890098, -77954.61451466256, -48814.73467525657, -88625.58318681517, -31670.253773957942, 0.0, 0.0, 0.0, 193.0, 0.0, 1.0, 1.0, 0.0, 0.0, 1.0, 1.0, 256.0, 1.0, 1.750528461959997E9, 0.0, 2025-06-21 19:54:21.959
56.0, -43989.26126828924, -38123.4482673941, -29902.856636387904, -72811.88044689661, -27752.194136642713, -28740.945904367676, -52660.531122747794, -100494.04656816085, -187500.02235174447, -187500.02235174447, -48147.7139172213, -46683.40643446522, -77960.22480252085, -48840.908568013736, -88600.07984639167, -31698.75224813846, 0.0, 0.0, 0.0, 193.0, 0.0, 1.0, 1.0, 0.0, 0.0, 1.0, 1.0, 256.0, 1.0, 1.750528461968958E9, 0.0, 2025-06-21 19:54:21.968
58.0, -43936.488799630264, -38068.59708650078, -29875.85572908589, -72778.06225753573, -27751.791805242516, -28789.158617157773, -52623.94131707446, -100465.97277712497, -187500.02235174447, -187500.02235174447, -48154.06181264661, -46691.02837932448, -77972.02652359326, -48845.53537911599, -88630.18764617297, -31700.763905139436, 0.0, 0.0, 0.0, 193.0, 0.0, 1.0, 1.0, 0.0, 0.0, 1.0, 1.0, 256.0, 1.0, 1.75052846197597E9, 0.0, 2025-06-21 19:54:21.975
60.0, -43960.98631155328, -38111.35597364378, -29869.038447027022, -72779.78334185878, -27740.81709871496, -28725.702014649156, -52627.42818920949, -100465.30222479132, -187500.02235174447, -187500.02235174447, -48104.26212600018, -46647.66599508119, -77929.98289227282, -48801.23422160557, -88593.79900619973, -31658.094424974257, 0.0, 0.0, 0.0, 193.0, 0.0, 1.0, 1.0, 0.0, 0.0, 1.0, 1.0, 256.0, 1.0, 1.750528461984052E9, 0.0, 2025-06-21 19:54:21.984
62.0, -43951.35270969304, -38100.11304618276, -29879.92374657676, -72783.89606283857, -27739.610104514373, -28783.7941984885, -52630.37861947759, -100483.78711745587, -187500.02235174447, -187500.02235174447, -48137.02978337166, -46681.10420478633, -77951.41821520546, -48832.61607082082, -88595.11775912259, -31689.2304050005, 0.0, 0.0, 0.0, 193.0, 0.0, 1.0, 1.0, 0.0, 0.0, 1.0, 1.0, 256.0, 1.0, 1.750528461993031E9, 0.0, 2025-06-21 19:54:21.993
64.0, -43931.325546661086, -38091.038237933906, -29854.509813131073, -72759.64442010455, -27722.063985116958, -28772.953602427675, -52596.80629930572, -100422.0068957814, -187500.02235174447, -187500.02235174447, -48118.94722210732, -46663.98276853356, -77947.70782562588, -48798.529660526474, -88610.18283488546, -31654.83107028378, 0.0, 0.0, 0.0, 193.0, 0.0, 1.0, 1.0, 0.0, 0.0, 1.0, 1.0, 256.0, 1.0, 1.750528462000091E9, 0.0, 2025-06-21 19:54:22.000
66.0, -43953.72199460531, -38119.626119092245, -29879.29789773201, -72793.19438853198, -27693.364345236343, -28788.868044479856, -52646.0248405963, -100496.5723152843, -187500.02235174447, -187500.02235174447, -48118.76840815168, -46668.766041847, -77938.23068597683, -48807.69387575315, -88573.95065712341, -31665.336390177774, 0.0, 0.0, 0.0, 193.0, 0.0, 1.0, 1.0, 0.0, 0.0, 1.0, 1.0, 256.0, 1.0, 1.750528462008113E9, 0.0, 2025-06-21 19:54:22.008
68.0, -43913.153578418925, -38077.06839764934, -29847.67017932775, -72751.32957116718, -27703.66849943024, -28770.85253844888, -52609.591497134155, -100422.43157892604, -187500.02235174447, -187500.02235174447, -48117.561413951094, -46667.491992413044, -77944.66798837997, -48811.404265332734, -88596.32475332318, -31666.968067523012, 0.0, 0.0, 0.0, 193.0, 0.0, 1.0, 1.0, 0.0, 0.0, 1.0, 1.0, 256.0, 1.0, 1.750528462016134E9, 0.0, 2025-06-21 19:54:22.016
70.0, -43939.081601987076, -38104.181063673626, -29871.251269728098, -72788.92520534102, -27736.570267268453, -28755.139262096796, -52655.25611105635, -100471.04662311633, -187500.02235174447, -187500.02235174447, -48094.09208227302, -46654.639739351245, -77926.71953758235, -48789.07487262188, -88584.50068050632, -31644.191639923054, 0.0, 0.0, 0.0, 193.0, 0.0, 1.0, 1.0, 0.0, 0.0, 1.0, 1.0, 256.0, 1.0, 1.750528462025188E9, 0.0, 2025-06-21 19:54:22.025
72.0, -43918.02625871018, -38087.2384413765, -29860.410673667277, -72777.2799464798, -27706.551874464974, -28792.6454892928, -52666.29787281727, -100478.40034704213, -187500.02235174447, -187500.02235174447, -48128.402010011916, -46687.74267288955, -77948.78070935974, -48835.99118423357, -88595.56479401169, -31691.778503868405, 0.0, 0.0, 0.0, 193.0, 0.0, 1.0, 1.0, 0.0, 0.0, 1.0, 1.0, 256.0, 1.0, 1.750528462032204E9, 0.0, 2025-06-21 19:54:22.032
74.0, -43894.17694737637, -38069.87113593473, -29857.303781187988, -72767.06519926371, -27690.637432412797, -28787.169311901253, -52625.41653220851, -100463.29056779035, -187500.02235174447, -187500.02235174447, -48091.61103863848, -46655.86908529629, -77930.45227890638, -48798.32849482638, -88604.34902958263, -31656.775672051393, 0.0, 0.0, 0.0, 193.0, 0.0, 1.0, 1.0, 0.0, 0.0, 1.0, 1.0, 256.0, 1.0, 1.75052846204025E9, 0.0, 2025-06-21 19:54:22.040
76.0, -43917.132188931966, -38090.36768560025, -29868.05497027099, -72787.40528671804, -27720.3429007939, -28758.290858064993, -52634.15606429053, -100476.09811736323, -187500.02235174447, -187500.02235174447, -48094.15913750639, -46658.79716381993, -77922.11507822455, -48812.96888744461, -88580.54442173772, -31668.21976521251, 0.0, 0.0, 0.0, 193.0, 0.0, 1.0, 1.0, 0.0, 0.0, 1.0, 1.0, 256.0, 1.0, 1.750528462048223E9, 0.0, 2025-06-21 19:54:22.048
78.0, -43868.964179630784, -38043.071394332816, -29823.910274971757, -72738.67848380547, -27679.215690996134, -28771.344276826894, -52598.72854932887, -100429.29356447382, -187500.02235174447, -187500.02235174447, -48096.729588118746, -46663.84865806683, -77931.56986612915, -48810.510195554525, -88591.36266605409, -31668.46563440152, 0.0, 0.0, 0.0, 193.0, 0.0, 1.0, 1.0, 0.0, 0.0, 1.0, 1.0, 256.0, 1.0, 1.75052846205634E9, 0.0, 2025-06-21 19:54:22.056
80.0, -43884.766862960685, -38059.29876080737, -29838.841240267902, -72759.30914393773, -27689.542196934486, -28759.07316912093, -52614.061846025215, -100448.76193389439, -187500.02235174447, -187500.02235174447, -48065.52655285914, -46634.32200364137, -77904.79247627169, -48779.597732972834, -88571.8048896557, -31637.68728228656, 0.0, 0.0, 0.0, 193.0, 0.0, 1.0, 1.0, 0.0, 0.0, 1.0, 1.0, 256.0, 1.0, 1.750528462064335E9, 0.0, 2025-06-21 19:54:22.064
82.0, -43896.18860437735, -38065.62430448822, -29859.18132772223, -72774.50833016734, -27715.179647824723, -28741.236477045593, -52615.0676745257, -100454.84160838624, -187500.02235174447, -187500.02235174447, -48088.21357348128, -46651.80106780542, -77915.29779616569, -48811.068989165906, -88570.21791579938, -31667.21393671202, 0.0, 0.0, 0.0, 193.0, 0.0, 1.0, 1.0, 0.0, 0.0, 1.0, 1.0, 256.0, 1.0, 1.750528462072333E9, 0.0, 2025-06-21 19:54:22.072
84.0, -43887.44907229532, -38060.684568963596, -29849.167746206254, -72758.72799858189, -27690.592728923886, -28809.297538912004, -52604.74116858735, -100450.10303856172, -187500.02235174447, -187500.02235174447, -48102.54104167713, -46667.648454624235, -77942.96925580136, -48808.3197245979, -88609.0652476627, -31666.16340472262, 0.0, 0.0, 0.0, 193.0, 0.0, 1.0, 1.0, 0.0, 0.0, 1.0, 1.0, 256.0, 1.0, 1.750528462080388E9, 0.0, 2025-06-21 19:54:22.080
86.0, -43875.91557215638, -38052.19090607058, -29841.70226355818, -72757.9233357815, -27668.777426335506, -28729.74768039557, -52595.040511493746, -100438.07780004476, -187500.02235174447, -187500.02235174447, -48061.95027374629, -46621.04506743492, -77887.42517082991, -48780.04476786194, -88542.0547177857, -31636.949674719537, 0.0, 0.0, 0.0, 193.0, 0.0, 1.0, 1.0, 0.0, 0.0, 1.0, 1.0, 256.0, 1.0, 1.750528462087411E9, 0.0, 2025-06-21 19:54:22.087
88.0, -43888.477252540266, -38060.10342360776, -29850.397092151296, -72766.68521960799, -27727.763679953063, -28791.55025381449, -52627.11526478711, -100463.62584395717, -187500.02235174447, -187500.02235174447, -48102.22811725475, -46668.766041847, -77935.81669757566, -48825.865843995314, -88604.50549179381, -31682.16725375262, 0.0, 0.0, 0.0, 193.0, 0.0, 1.0, 1.0, 0.0, 0.0, 1.0, 1.0, 256.0, 1.0, 1.750528462096493E9, 0.0, 2025-06-21 19:54:22.096
90.0, -43877.48019426825, -38053.57671422681, -29840.159993190766, -72762.39368467256, -27696.135961548804, -28736.92259036572, -52596.158098716514, -100442.63755591364, -187500.02235174447, -187500.02235174447, -48070.578047106035, -46641.921596756176, -77911.31918565264, -48795.13219536927, -88581.14791883802, -31653.937000505568, 0.0, 0.0, 0.0, 193.0, 0.0, 1.0, 1.0, 0.0, 0.0, 1.0, 1.0, 256.0, 1.0, 1.750528462104499E9, 0.0, 2025-06-21 19:54:22.104
92.0, -43892.947601431326, -38064.86434517674, -29856.744987576603, -72776.36352495712, -27684.08837128739, -28737.816660143933, -52626.13178803108, -100460.1613235666, -187500.02235174447, -187500.02235174447, -48103.83744285553, -46668.22959998007, -77930.5416858842, -48834.73948654407, -88591.94381140993, -31689.096294533767, 0.0, 0.0, 0.0, 193.0, 0.0, 1.0, 1.0, 0.0, 0.0, 1.0, 1.0, 256.0, 1.0, 1.750528462112444E9, 0.0, 2025-06-21 19:54:22.112
94.0, -43856.022519591155, -38034.3765657397, -29825.385490105808, -72735.79510877075, -27667.61513562383, -28789.292727624506, -52593.81116554871, -100421.87278531466, -187500.02235174447, -187500.02235174447, -48061.61499757946, -46627.46001809359, -77903.31726113764, -48774.74740442603, -88573.83889840114, -31634.11100317371, 0.0, 0.0, 0.0, 193.0, 0.0, 1.0, 1.0, 0.0, 0.0, 1.0, 1.0, 256.0, 1.0, 1.750528462119536E9, 0.0, 2025-06-21 19:54:22.119
96.0, -43888.56665951809, -38067.47949927801, -29838.61772282335, -72765.81350157423, -27696.404182482267, -28754.625171974323, -52613.167776247, -100453.4110967411, -187500.02235174447, -187500.02235174447, -48071.11448897296, -46637.2053786761, -77903.11609543754, -48790.37127380029, -88554.81756386967, -31647.186773680067, 0.0, 0.0, 0.0, 193.0, 0.0, 1.0, 1.0, 0.0, 0.0, 1.0, 1.0, 256.0, 1.0, 1.750528462128548E9, 0.0, 2025-06-21 19:54:22.128
98.0, -43862.90685688339, -38037.19288554107, -29825.921931972734, -72738.07498670519, -27680.512092174544, -28758.983762143107, -52587.17269744548, -100422.40922718159, -187500.02235174447, -187500.02235174447, -48078.8481925545, -46649.543541615436, -77914.82840953213, -48787.51025051001, -88568.87681113205, -31645.957427735026, 0.0, 0.0, 0.0, 193.0, 0.0, 1.0, 1.0, 0.0, 0.0, 1.0, 1.0, 256.0, 1.0, 1.750528462136609E9, 0.0, 2025-06-21 19:54:22.136
100.0, -43872.316941299076, -38046.222990301016, -29837.209562922668, -72750.63666708907, -27685.451827699166, -28743.628113702314, -52590.48075562486, -100443.33045999176, -187500.02235174447, -187500.02235174447, -48059.22336092274, -46621.58150930185, -77892.34255461009, -48759.79408738543, -88556.94097959292, -31613.815619208293, 0.0, 0.0, 0.0, 193.0, 0.0, 1.0, 1.0, 0.0, 0.0, 1.0, 1.0, 256.0, 1.0, 1.750528462143649E9, 0.0, 2025-06-21 19:54:22.143
102.0, -43867.69013019683, -38040.63505418719, -29838.05892921197, -72748.69206532146, -27670.14088274728, -28728.093651305873, -52590.03372073576, -100434.32270697627, -187500.02235174447, -187500.02235174447, -48084.12320424595, -46643.441515379134, -77905.57478732763, -48795.959209914115, -88553.83408711363, -31648.326712647286, 0.0, 0.0, 0.0, 193.0, 0.0, 1.0, 1.0, 0.0, 0.0, 1.0, 1.0, 256.0, 1.0, 1.750528462152607E9, 0.0, 2025-06-21 19:54:22.152
104.0, -43866.170211573866, -38042.91493212163, -29832.91802798725, -72749.45202463293, -27706.887150631806, -28763.36470405635, -52608.40685467802, -100447.93491934954, -187500.02235174447, -187500.02235174447, -48062.17379119084, -46630.94689022862, -77902.31143263716, -48771.75227066902, -88577.48223274735, -31625.617340280696, 0.0, 0.0, 0.0, 193.0, 0.0, 1.0, 1.0, 0.0, 0.0, 1.0, 1.0, 256.0, 1.0, 1.750528462160695E9, 0.0, 2025-06-21 19:54:22.160
106.0, -43901.44126432434, -38072.0392551469, -29869.10550226039, -72786.80178961776, -27702.550912207476, -28740.11888982283, -52615.98409604837, -100455.46745723099, -187500.02235174447, -187500.02235174447, -48098.94241081982, -46666.933198801664, -77927.05481374917, -48812.253631622036, -88572.408386756, -31666.74455007846, 0.0, 0.0, 0.0, 193.0, 0.0, 1.0, 1.0, 0.0, 0.0, 1.0, 1.0, 256.0, 1.0, 1.750528462167715E9, 0.0, 2025-06-21 19:54:22.167
108.0, -43882.06230188159, -38053.844935160276, -29853.548688119496, -72755.08466423568, -27692.313813246947, -28774.093541394897, -52594.325255671174, -100443.57632918077, -187500.02235174447, -187500.02235174447, -48102.63044865495, -46659.15479173122, -77932.28512195172, -48806.64334376375, -88589.77569219777, -31660.039026741866, 0.0, 0.0, 0.0, 193.0, 0.0, 1.0, 1.0, 0.0, 0.0, 1.0, 1.0, 256.0, 1.0, 1.750528462175711E9, 0.0, 2025-06-21 19:54:22.175
110.0, -43864.85145865101, -38040.29977802036, -29830.280522141522, -72743.5735158412, -27652.013617994027, -28717.320110478417, -52579.34958688612, -100413.64734335511, -187500.02235174447, -187500.02235174447, -48074.064919241064, -46633.83026526336, -77909.6875083074, -48774.009796859005, -88563.84766862962, -31628.634825782163, 0.0, 0.0, 0.0, 193.0, 0.0, 1.0, 1.0, 0.0, 0.0, 1.0, 1.0, 256.0, 1.0, 1.750528462184779E9, 0.0, 2025-06-21 19:54:22.184
112.0, -43908.79498825014, -38082.857499463265, -29879.230842498644, -72790.55688268624, -27713.77148792404, -28744.96921836963, -52616.565241404205, -100457.97085260999, -187500.02235174447, -187500.02235174447, -48108.86658535798, -46670.174201747686, -77932.32982544063, -48814.15352990074, -88569.21208729889, -31667.951544279047, 0.0, 0.0, 0.0, 193.0, 0.0, 1.0, 1.0, 0.0, 0.0, 1.0, 1.0, 256.0, 1.0, 1.750528462192779E9, 0.0, 2025-06-21 19:54:22.192
114.0, -43882.531688515155, -38059.11994685173, -29849.19009795071, -72760.94082128297, -27701.992118596092, -28778.630945519322, -52587.57502884568, -100432.62397439766, -187500.02235174447, -187500.02235174447, -48086.023102524654, -46653.11982072829, -77928.30651143867, -48788.046692376935, -88588.85927067511, -31642.64936955564, 0.0, 0.0, 0.0, 193.0, 0.0, 1.0, 1.0, 0.0, 0.0, 1.0, 1.0, 256.0, 1.0, 1.750528462199803E9, 0.0, 2025-06-21 19:54:22.199
116.0, -43907.09625567153, -38085.27148786443, -29868.032618526533, -72785.01365006133, -27686.837635855394, -28757.46384352015, -52608.384502933564, -100455.62391944218, -187500.02235174447, -187500.02235174447, -48109.22421326926, -46669.86127732531, -77937.31426445417, -48817.774512502496, -88578.37630252556, -31671.773692580904, 0.0, 0.0, 0.0, 193.0, 0.0, 1.0, 1.0, 0.0, 0.0, 1.0, 1.0, 256.0, 1.0, 1.750528462207835E9, 0.0, 2025-06-21 19:54:22.207
118.0, -43876.13908960093, -38047.34057752378, -29845.18913569321, -72753.20711770143, -27677.29344097298, -28738.464860733136, -52573.49342983883, -100407.32179967426, -187500.02235174447, -187500.02235174447, -48101.401102709904, -46661.09939349883, -77935.19084873091, -48807.44800656415, -88584.83595667315, -31661.156613964635, 0.0, 0.0, 0.0, 193.0, 0.0, 1.0, 1.0, 0.0, 0.0, 1.0, 1.0, 256.0, 1.0, 1.750528462216841E9, 0.0, 2025-06-21 19:54:22.216
120.0, -43895.47334855478, -38066.51837426643, -29860.18715622272, -72781.9291093265, -27698.72876390562, -28743.806927657955, -52614.195956491945, -100452.11469556269, -187500.02235174447, -187500.02235174447, -48081.70921584478, -46649.20826544861, -77919.92460726794, -48791.488861023056, -88580.99145662683, -31647.142070191156, 0.0, 0.0, 0.0, 193.0, 0.0, 1.0, 1.0, 0.0, 0.0, 1.0, 1.0, 256.0, 1.0, 1.750528462223945E9, 0.0, 2025-06-21 19:54:22.223
122.0, -43896.434473566354, -38064.484365521, -29870.267792972067, -72781.79499885977, -27704.830790141918, -28723.623302414813, -52607.781005833276, -100455.3109950198, -187500.02235174447, -187500.02235174447, -48115.95208835031, -46677.72909137358, -77939.9964737888, -48834.67243131071, -88584.09834910612, -31690.213881756532, 0.0, 0.0, 0.0, 193.0, 0.0, 1.0, 1.0, 0.0, 0.0, 1.0, 1.0, 256.0, 1.0, 1.75052846223191E9, 0.0, 2025-06-21 19:54:22.231
124.0, -43894.55692703211, -38061.936266653094, -29861.841185312416, -72776.69880112396, -27702.327394762924, -28753.887564407298, -52598.03564525076, -100445.29741350382, -187500.02235174447, -187500.02235174447, -48086.939524047324, -46655.24323645154, -77928.48532539431, -48795.98156165857, -88594.02252364428, -31652.864116771714, 0.0, 0.0, 0.0, 193.0, 0.0, 1.0, 1.0, 0.0, 0.0, 1.0, 1.0, 256.0, 1.0, 1.750528462240937E9, 0.0, 2025-06-21 19:54:22.240
126.0, -43929.04566872665, -38100.895357238696, -29889.467941459174, -72807.94653987247, -27713.52561873503, -28784.80002698899, -52653.3785645221, -100484.65883548962, -187500.02235174447, -187500.02235174447, -48122.590556453535, -46687.34034148936, -77954.05572105119, -48845.96006226064, -88603.74553248234, -31701.769733639925, 0.0, 0.0, 0.0, 193.0, 0.0, 1.0, 1.0, 0.0, 0.0, 1.0, 1.0, 256.0, 1.0, 1.750528462248963E9, 0.0, 2025-06-21 19:54:22.248
128.0, -43898.26731661169, -38065.9819323995, -29877.777979109047, -72779.51512092532, -27696.87356911583, -28774.093541394897, -52598.84030805115, -100438.16720702258, -187500.02235174447, -187500.02235174447, -48113.76161739369, -46676.54444891745, -77948.892468082, -48834.51596909952, -88610.00402092982, -31688.448093944564, 0.0, 0.0, 0.0, 193.0, 0.0, 1.0, 1.0, 0.0, 0.0, 1.0, 1.0, 256.0, 1.0, 1.750528462256017E9, 0.0, 2025-06-21 19:54:22.256
130.0, -43887.94081067334, -38063.21031608705, -29854.934496275724, -72778.95632731395, -27696.471237715632, -28737.30257002146, -52606.12697674358, -100451.26532927339, -187500.02235174447, -187500.02235174447, -48086.26897171366, -46649.76705905999, -77921.75745031326, -48801.59184951685, -88593.32961956617, -31655.03223598388, 0.0, 0.0, 0.0, 193.0, 0.0, 1.0, 1.0, 0.0, 0.0, 1.0, 1.0, 256.0, 1.0, 1.750528462264029E9, 0.0, 2025-06-21 19:54:22.264
132.0, -43903.765845747694, -38072.30747608036, -29869.86546157187, -72789.26048150784, -27725.170877596247, -28743.382244513305, -52615.112378014615, -100450.32655600627, -187500.02235174447, -187500.02235174447, -48112.93460284884, -46680.52305943049, -77942.72338661234, -48842.786114547984, -88591.98851489884, -31697.54525393787, 0.0, 0.0, 0.0, 193.0, 0.0, 1.0, 1.0, 0.0, 0.0, 1.0, 1.0, 256.0, 1.0, 1.750528462273063E9, 0.0, 2025-06-21 19:54:22.273
134.0, -43894.91455494339, -38067.881830678205, -29869.083150515933, -72783.96311807193, -27705.05430758647, -28737.190811299184, -52591.754805058816, -100431.52873891935, -187500.02235174447, -187500.02235174447, -48089.42056768186, -46656.98667251905, -77931.48045915132, -48804.9222594407, -88604.10316039363, -31660.93309652008, 0.0, 0.0, 0.0, 193.0, 0.0, 1.0, 1.0, 0.0, 0.0, 1.0, 1.0, 256.0, 1.0, 1.750528462280059E9, 0.0, 2025-06-21 19:54:22.280
136.0, -43893.215822364786, -38066.22780158852, -29854.018074753058, -72776.60939414614, -27661.51310938753, -28739.44833748917, -52619.24745073885, -100457.74733516543, -187500.02235174447, -187500.02235174447, -48103.166890521876, -46674.845716338845, -77935.19084873091, -48831.699649298156, -88587.3617037966, -31686.03410554339, 0.0, 0.0, 0.0, 193.0, 0.0, 1.0, 1.0, 0.0, 0.0, 1.0, 1.0, 256.0, 1.0, 1.750528462288084E9, 0.0, 2025-06-21 19:54:22.288
138.0, -43894.35576133201, -38064.6855312211, -29863.71873184666, -72775.44710343446, -27696.761810393553, -28763.40940754526, -52609.74795934534, -100454.61809094169, -187500.02235174447, -187500.02235174447, -48095.45553868479, -46655.891437040744, -77928.41827016095, -48820.54612881495, -88590.49094802034, -31674.634715871183, 0.0, 0.0, 0.0, 193.0, 0.0, 1.0, 1.0, 0.0, 0.0, 1.0, 1.0, 256.0, 1.0, 1.75052846229614E9, 0.0, 2025-06-21 19:54:22.296
140.0, -43911.03016269567, -38080.97995292902, -29877.710923875682, -72795.8765978666, -27714.173819324235, -28767.835052947412, -52609.07740701168, -100466.03983235835, -187500.02235174447, -187500.02235174447, -48086.112509502476, -46654.79620156243, -77926.42896490442, -48810.644306021255, -88594.42485504448, -31665.761073322425, 0.0, 0.0, 0.0, 193.0, 0.0, 1.0, 1.0, 0.0, 0.0, 1.0, 1.0, 256.0, 1.0, 1.750528462305107E9, 0.0, 2025-06-21 19:54:22.305
142.0, -43904.056418425615, -38078.364798827744, -29876.973316308657, -72792.38972573158, -27690.570377179432, -28725.366738482327, -52623.18135776298, -100466.0174806139, -187500.02235174447, -187500.02235174447, -48123.99871635422, -46689.173184534695, -77952.28993323923, -48857.7841350775, -88609.78050348526, -31711.42568724462, 0.0, 0.0, 0.0, 193.0, 0.0, 1.0, 1.0, 0.0, 0.0, 1.0, 1.0, 256.0, 1.0, 1.750528462311201E9, 0.0, 2025-06-21 19:54:22.311
144.0, -43865.20908656229, -38041.28325477639, -29840.316455401953, -72751.24016418937, -27667.458673412642, -28752.010017873054, -52571.906455982506, -100412.17212822106, -187500.02235174447, -187500.02235174447, -48077.86471579847, -46642.94977700112, -77916.48243862182, -48788.5160790105, -88584.88066016206, -31646.113889946213, 0.0, 0.0, 0.0, 193.0, 0.0, 1.0, 1.0, 0.0, 0.0, 1.0, 1.0, 256.0, 1.0, 1.750528462320283E9, 0.0, 2025-06-21 19:54:22.320
146.0, -43926.139941947455, -38098.32490662634, -29881.980107066647, -72809.60056896217, -27720.879342660828, -28738.35310201086, -52633.50786370133, -100476.99218714144, -187500.02235174447, -187500.02235174447, -48095.96962880727, -46664.698024356134, -77927.23362770482, -48817.81921599141, -88574.64356120152, -31673.047742014856, 0.0, 0.0, 0.0, 193.0, 0.0, 1.0, 1.0, 0.0, 0.0, 1.0, 1.0, 256.0, 1.0, 1.750528462328271E9, 0.0, 2025-06-21 19:54:22.328
148.0, -43883.91749667138, -38058.42704277361, -29855.67210384275, -72769.680353365, -27673.158368248747, -28763.722331967634, -52603.444767408946, -100438.0107448114, -187500.02235174447, -187500.02235174447, -48111.414684225885, -46681.01479780851, -77950.07711053814, -48832.39255337627, -88601.55506152571, -31687.397561955164, 0.0, 0.0, 0.0, 193.0, 0.0, 1.0, 1.0, 0.0, 0.0, 1.0, 1.0, 256.0, 1.0, 1.750528462336305E9, 0.0, 2025-06-21 19:54:22.336
150.0, -43892.6123252645, -38068.70884522305, -29858.75664457758, -72779.55982441423, -27695.130133048315, -28694.990717767563, -52599.77908131827, -100444.96213733699, -187500.02235174447, -187500.02235174447, -48076.76948032016, -46645.00613749101, -77916.5941973441, -48792.248820334535, -88576.47640424686, -31647.16442193561, 0.0, 0.0, 0.0, 193.0, 0.0, 1.0, 1.0, 0.0, 0.0, 1.0, 1.0, 256.0, 1.0, 1.750528462344436E9, 0.0, 2025-06-21 19:54:22.344
152.0, -43913.980592963766, -38091.14999665618, -29890.987860082136, -72802.24684503638, -27695.19718828168, -28759.855480176866, -52617.88399432707, -100468.78909692635, -187500.02235174447, -187500.02235174447, -48125.16100706589, -46691.49776595805, -77955.5979914186, -48848.75403031755, -88596.14593936753, -31701.121533050722, 0.0, 0.0, 0.0, 193.0, 0.0, 1.0, 1.0, 0.0, 0.0, 1.0, 1.0, 256.0, 1.0, 1.750528462352349E9, 0.0, 2025-06-21 19:54:22.352
154.0, -43887.136147872945, -38061.84685967527, -29860.63419111183, -72769.79211208726, -27673.314830459934, -28761.263640077552, -52595.040511493746, -100440.53649193484, -187500.02235174447, -187500.02235174447, -48095.410835195886, -46658.8642190533, -77936.48724990932, -48807.4703583086, -88599.63281150255, -31663.1235674767, 0.0, 0.0, 0.0, 193.0, 0.0, 1.0, 1.0, 0.0, 0.0, 1.0, 1.0, 256.0, 1.0, 1.750528462360366E9, 0.0, 2025-06-21 19:54:22.360
156.0, -43916.282822642665, -38088.82541523283, -29876.19100525272, -72801.57629270271, -27710.418726255743, -28713.721479621112, -52626.08708454217, -100472.27596906137, -187500.02235174447, -187500.02235174447, -48105.893803345425, -46668.967207547095, -77935.32495919763, -48828.257480652035, -88580.29855254872, -31683.329544464297, 0.0, 0.0, 0.0, 193.0, 0.0, 1.0, 1.0, 0.0, 0.0, 1.0, 1.0, 256.0, 1.0, 1.750528462367371E9, 0.0, 2025-06-21 19:54:22.367
158.0, -43872.853383166, -38046.75943216794, -29847.826641538937, -72759.175033471, -27670.006772280547, -28747.15968932625, -52589.027892235266, -100433.78626510935, -187500.02235174447, -187500.02235174447, -48090.24758222671, -46659.266550453496, -77926.5407236267, -48812.63361127778, -88578.46570950339, -31668.93502103508, 0.0, 0.0, 0.0, 193.0, 0.0, 1.0, 1.0, 0.0, 0.0, 1.0, 1.0, 256.0, 1.0, 1.750528462376372E9, 0.0, 2025-06-21 19:54:22.376
160.0, -43911.72306677378, -38093.116950168245, -29878.940269820723, -72797.1282955561, -27700.226330784124, -28741.348235767873, -52627.24937525384, -100477.34981505273, -187500.02235174447, -187500.02235174447, -48093.04155028362, -46658.841867308845, -77931.21223821786, -48812.253631622036, -88595.67655273397, -31666.722198334006, 0.0, 0.0, 0.0, 193.0, 0.0, 1.0, 1.0, 0.0, 0.0, 1.0, 1.0, 256.0, 1.0, 1.750528462384499E9, 0.0, 2025-06-21 19:54:22.384
162.0, -43897.79792997813, -38077.87306044973, -29864.188118480222, -72781.86205409313, -27682.2331764976, -28732.58635194139, -52621.59438390665, -100462.88823639015, -187500.02235174447, -187500.02235174447, -48119.55071920761, -46689.64257116825, -77947.61841864805, -48842.69670757016, -88584.92536365097, -31697.589957426782, 0.0, 0.0, 0.0, 193.0, 0.0, 1.0, 1.0, 0.0, 0.0, 1.0, 1.0, 256.0, 1.0, 1.750528462392486E9, 0.0, 2025-06-21 19:54:22.392
164.0, -43864.069147595066, -38040.03155708689, -29833.43211810972, -72741.49480360685, -27681.830845097407, -28761.97889590012, -52563.569255300674, -100414.63082011114, -187500.02235174447, -187500.02235174447, -48073.237904696216, -46635.7078117976, -77913.39789788699, -48781.98936962955, -88571.64842744451, -31637.843744497746, 0.0, 0.0, 0.0, 193.0, 0.0, 1.0, 1.0, 0.0, 0.0, 1.0, 1.0, 256.0, 1.0, 1.750528462399502E9, 0.0, 2025-06-21 19:54:22.399
166.0, -43927.01165998121, -38099.10721768227, -29887.232767013644, -72805.55490321576, -27706.685984931708, -28702.612662626823, -52641.68860217198, -100481.2166668435, -187500.02235174447, -187500.02235174447, -48105.22325101176, -46666.6649778682, -77933.22389521885, -48819.96498345912, -88576.56581122469, -31671.594878625263, 0.0, 0.0, 0.0, 193.0, 0.0, 1.0, 1.0, 0.0, 0.0, 1.0, 1.0, 256.0, 1.0, 1.750528462408481E9, 0.0, 2025-06-21 19:54:22.408
168.0, -43890.9582961748, -38064.41731028764, -29859.00251376659, -72773.21192898892, -27682.65785964225, -28736.87788687681, -52607.84806106664, -100442.32463149127, -187500.02235174447, -187500.02235174447, -48118.52253896267, -46681.75240537553, -77951.90995358348, -48831.36437313132, -88594.15663411102, -31686.928175321602, 0.0, 0.0, 0.0, 193.0, 0.0, 1.0, 1.0, 0.0, 0.0, 1.0, 1.0, 256.0, 1.0, 1.750528462416543E9, 0.0, 2025-06-21 19:54:22.416
170.0, -43908.057380683116, -38088.40073208818, -29876.705095375193, -72794.5801966882, -27661.826033809906, -28736.31909326543, -52621.817901351205, -100477.66273947511, -187500.02235174447, -187500.02235174447, -48077.75295707619, -46645.49787586903, -77915.8342380326, -48792.09235812335, -88570.73200592185, -31648.572581836295, 0.0, 0.0, 0.0, 193.0, 0.0, 1.0, 1.0, 0.0, 0.0, 1.0, 1.0, 256.0, 1.0, 1.750528462423503E9, 0.0, 2025-06-21 19:54:22.423
172.0, -43901.93300270236, -38074.743816225986, -29867.138548748324, -72786.55592042874, -27717.526580992533, -28735.536782209492, -52605.32231394319, -100457.8143903988, -187500.02235174447, -187500.02235174447, -48130.68188794636, -46698.00212359454, -77960.51537519877, -48858.946425789174, -88596.52591902328, -31714.24200704599, 0.0, 0.0, 0.0, 193.0, 0.0, 1.0, 1.0, 0.0, 0.0, 1.0, 1.0, 256.0, 1.0, 1.750528462432595E9, 0.0, 2025-06-21 19:54:22.432
174.0, -43884.16336586039, -38065.780766699405, -29862.936420790724, -72775.84943483466, -27683.95426082066, -28755.40748303026, -52596.40396790552, -100437.206082011, -187500.02235174447, -187500.02235174447, -48094.963800306774, -46656.80785856341, -77933.49211615231, -48798.2167361041, -88584.79125318423, -31653.892297016657, 0.0, 0.0, 0.0, 193.0, 0.0, 1.0, 1.0, 0.0, 0.0, 1.0, 1.0, 256.0, 1.0, 1.750528462440587E9, 0.0, 2025-06-21 19:54:22.440
176.0, -43904.39169459244, -38083.10336865227, -29859.67306610025, -72784.8795395946, -27688.849292856372, -28708.78174409649, -52610.88789831256, -100464.02817535737, -187500.02235174447, -187500.02235174447, -48106.05026555661, -46666.75438484602, -77934.83322081962, -48821.820178248905, -88567.78157565375, -31676.40050368315, 0.0, 0.0, 0.0, 193.0, 0.0, 1.0, 1.0, 0.0, 0.0, 1.0, 1.0, 256.0, 1.0, 1.750528462447633E9, 0.0, 2025-06-21 19:54:22.447
178.0, -43913.19828190783, -38092.87108097924, -29877.934441320234, -72793.39555423208, -27690.346859734876, -28742.041139845987, -52616.140558259554, -100454.17105605258, -187500.02235174447, -187500.02235174447, -48117.226137784266, -46680.83598385286, -77949.07128203765, -48827.45281785164, -88591.45207303192, -31682.32371596381, 0.0, 0.0, 0.0, 193.0, 0.0, 1.0, 1.0, 0.0, 0.0, 1.0, 1.0, 256.0, 1.0, 1.750528462455718E9, 0.0, 2025-06-21 19:54:22.455
180.0, -43902.40238933592, -38087.50666230997, -29860.902412045292, -72781.41501920403, -27681.540272419486, -28746.10915733685, -52618.37573270509, -100452.85230312972, -187500.02235174447, -187500.02235174447, -48096.5507741631, -46660.1159167428, -77934.92262779745, -48802.597678017344, -88577.34812228061, -31658.9214395191, 0.0, 0.0, 0.0, 193.0, 0.0, 1.0, 1.0, 0.0, 0.0, 1.0, 1.0, 256.0, 1.0, 1.750528462464691E9, 0.0, 2025-06-21 19:54:22.464
182.0, -43898.535537545155, -38074.22972610351, -29855.739159076114, -72773.86012957814, -27687.57524342242, -28723.690357648178, -52600.494337140844, -100442.16816928008, -187500.02235174447, -187500.02235174447, -48115.95208835031, -46678.958437318615, -77943.97508430184, -48832.77253303201, -88573.74949142331, -31687.375210210706, 0.0, 0.0, 0.0, 193.0, 0.0, 1.0, 1.0, 0.0, 0.0, 1.0, 1.0, 256.0, 1.0, 1.750528462472743E9, 0.0, 2025-06-21 19:54:22.472
184.0, -43892.14293863093, -38072.95567666956, -29851.96171426317, -72766.14877774105, -27677.33814446189, -28754.40165452977, -52605.70229359893, -100445.87855885967, -187500.02235174447, -187500.02235174447, -48081.5974571225, -46647.48718112554, -77924.05967999216, -48790.39362554475, -88575.89525889102, -31646.560924835318, 0.0, 0.0, 0.0, 193.0, 0.0, 1.0, 1.0, 0.0, 0.0, 1.0, 1.0, 256.0, 1.0, 1.750528462479698E9, 0.0, 2025-06-21 19:54:22.479
186.0, -43908.97380220578, -38091.28410712291, -29866.266830714565, -72791.94269084248, -27686.56941492193, -28694.16370322272, -52607.132805244066, -100454.48398047495, -187500.02235174447, -187500.02235174447, -48095.16496600687, -46661.85935281031, -77926.76424107126, -48810.84547172135, -88557.81269762668, -31665.626962855695, 0.0, 0.0, 0.0, 193.0, 0.0, 1.0, 1.0, 0.0, 0.0, 1.0, 1.0, 256.0, 1.0, 1.750528462487779E9, 0.0, 2025-06-21 19:54:22.487
188.0, -43900.346028846034, -38079.25886860596, -29865.886851058825, -72776.69880112396, -27672.75603684855, -28749.39486377178, -52609.65855236752, -100452.6064339407, -187500.02235174447, -187500.02235174447, -48123.55168146511, -46688.122652545295, -77956.33559898564, -48830.73852428657, -88590.87092767608, -31684.760056109437, 0.0, 0.0, 0.0, 193.0, 0.0, 1.0, 1.0, 0.0, 0.0, 1.0, 1.0, 256.0, 1.0, 1.750528462496835E9, 0.0, 2025-06-21 19:54:22.496
190.0, -43903.631735280964, -38083.10336865227, -29861.841185312416, -72784.63367040559, -27692.179702780213, -28751.54063123949, -52620.7226658729, -100465.43633525805, -187500.02235174447, -187500.02235174447, -48078.758785576676, -46646.50370436951, -77919.20935144536, -48790.95241915613, -88567.44629948692, -31644.079881200778, 0.0, 0.0, 0.0, 193.0, 0.0, 1.0, 1.0, 0.0, 0.0, 1.0, 1.0, 256.0, 1.0, 1.750528462503876E9, 0.0, 2025-06-21 19:54:22.503
192.0, -43899.228441623265, -38080.55526978437, -29863.383455679832, -72781.32561222621, -27682.032010797502, -28725.478497204604, -52615.89468907055, -100452.02528858487, -187500.02235174447, -187500.02235174447, -48115.19212903883, -46678.62316115179, -77943.01395929027, -48839.25453892405, -88571.24609604431, -31691.957317824046, 0.0, 0.0, 0.0, 193.0, 0.0, 1.0, 1.0, 0.0, 0.0, 1.0, 1.0, 256.0, 1.0, 1.75052846251183E9, 0.0, 2025-06-21 19:54:22.511
194.0, -43888.23138335125, -38062.94209515359, -29859.270734700054, -72767.0204957748, -27680.95912706365, -28716.11311627783, -52590.36899690259, -100442.74931463592, -187500.02235174447, -187500.02235174447, -48089.532326404136, -46657.45605915262, -77933.15683998547, -48805.45870130762, -88589.99920964232, -31658.720273819006, 0.0, 0.0, 0.0, 193.0, 0.0, 1.0, 1.0, 0.0, 0.0, 1.0, 1.0, 256.0, 1.0, 1.750528462519837E9, 0.0, 2025-06-21 19:54:22.519
196.0, -43925.00000298023, -38100.604784560775, -29892.73129614965, -72812.34983353017, -27694.638394670295, -28717.141296522776, -52638.313488759224, -100467.4703440035, -187500.02235174447, -187500.02235174447, -48095.61200089598, -46658.57364637538, -77927.52420038274, -48819.0709136809, -88573.77184316776, -31667.280991945387, 0.0, 0.0, 0.0, 193.0, 0.0, 1.0, 1.0, 0.0, 0.0, 1.0, 1.0, 256.0, 1.0, 1.75052846252891E9, 0.0, 2025-06-21 19:54:22.528
198.0, -43917.623927309985, -38093.049894934884, -29892.150150793812, -72802.71623166994, -27702.05917382946, -28715.9790058111, -52627.74111363186, -100463.961120124, -187500.02235174447, -187500.02235174447, -48141.09780086253, -46707.94864987715, -77977.92738412946, -48860.5333996455, -88617.96124195591, -31714.37611751272, 0.0, 0.0, 0.0, 193.0, 0.0, 1.0, 1.0, 0.0, 0.0, 1.0, 1.0, 256.0, 1.0, 1.750528462535946E9, 0.0, 2025-06-21 19:54:22.535
200.0, -43905.55398530412, -38079.39297907269, -29873.061761028977, -72784.20898726094, -27688.469313200632, -28732.809869385943, -52618.599250149644, -100463.58114046826, -187500.02235174447, -187500.02235174447, -48111.59349818152, -46676.164469261705, -77949.60772390458, -48825.61997480631, -88603.14203538204, -31675.998172282958, 0.0, 0.0, 0.0, 193.0, 0.0, 1.0, 1.0, 0.0, 0.0, 1.0, 1.0, 256.0, 1.0, 1.750528462543985E9, 0.0, 2025-06-21 19:54:22.543
202.0, -43888.49960428472, -38063.67970272061, -29848.206621194677, -72766.30523995224, -27673.448940926664, -28679.72447630459, -52597.67801733947, -100435.84262559922, -187500.02235174447, -187500.02235174447, -48098.62948639745, -46660.80882082091, -77926.92070328245, -48820.5237770705, -88559.19850578292, -31670.2761257024, 0.0, 0.0, 0.0, 193.0, 0.0, 1.0, 1.0, 0.0, 0.0, 1.0, 1.0, 256.0, 1.0, 1.750528462553016E9, 0.0, 2025-06-21 19:54:22.553
204.0, -43883.89514492692, -38060.885734663694, -29849.70418807318, -72760.51613813832, -27672.778388593008, -28748.187869571197, -52592.20183994792, -100436.49082618843, -187500.02235174447, -187500.02235174447, -48084.23496296823, -46653.99153876204, -77931.43575566242, -48795.51217502501, -88579.49388974832, -31647.276180657886, 0.0, 0.0, 0.0, 193.0, 0.0, 1.0, 1.0, 0.0, 0.0, 1.0, 1.0, 256.0, 1.0, 1.750528462560033E9, 0.0, 2025-06-21 19:54:22.560
206.0, -43921.334316889566, -38094.05572343537, -29873.844072084914, -72794.08845831019, -27700.226330784124, -28736.721424665622, -52616.47583442639, -100464.20698931301, -187500.02235174447, -187500.02235174447, -48093.22036423926, -46652.762192817, -77923.61264510306, -48799.35667507132, -88551.59891266811, -31649.377244636686, 0.0, 0.0, 0.0, 193.0, 0.0, 1.0, 1.0, 0.0, 0.0, 1.0, 1.0, 256.0, 1.0, 1.750528462567995E9, 0.0, 2025-06-21 19:54:22.567
208.0, -43923.72595354628, -38096.98380195902, -29876.168653508266, -72788.0311355628, -27690.011583568048, -28702.500903904547, -52628.34461073216, -100465.72690793597, -187500.02235174447, -187500.02235174447, -48124.64691694343, -46686.06629205541, -77961.96823858836, -48824.70355328364, -88584.23245957286, -31676.42285542761, 0.0, 0.0, 0.0, 193.0, 0.0, 1.0, 1.0, 0.0, 0.0, 1.0, 1.0, 256.0, 1.0, 1.750528462576084E9, 0.0, 2025-06-21 19:54:22.576
210.0, -43919.434418610865, -38097.58729905931, -29876.928612819745, -72790.26631000833, -27687.23996725559, -28733.793346141978, -52613.03366578027, -100457.16618980959, -187500.02235174447, -187500.02235174447, -48118.254318029205, -46683.62995190978, -77958.61547692007, -48812.879480466785, -88592.16732885448, -31663.749416321447, 0.0, 0.0, 0.0, 193.0, 0.0, 1.0, 1.0, 0.0, 0.0, 1.0, 1.0, 256.0, 1.0, 1.750528462585125E9, 0.0, 2025-06-21 19:54:22.585
212.0, -43893.75226423172, -38071.033426646405, -29850.91118227377, -72762.70660909494, -27665.156443733747, -28717.811848856432, -52596.67218883899, -100444.24688151442, -187500.02235174447, -187500.02235174447, -48116.66734417288, -46669.92833255867, -77942.45516567888, -48820.7249427706, -88560.18198253894, -31669.717332091015, 0.0, 0.0, 0.0, 193.0, 0.0, 1.0, 1.0, 0.0, 0.0, 1.0, 1.0, 256.0, 1.0, 1.750528462592109E9, 0.0, 2025-06-21 19:54:22.592
214.0, -43898.82611022307, -38081.76226398495, -29855.739159076114, -72768.85333882015, -27689.408086467756, -28751.764148684044, -52610.03853202326, -100447.59964318272, -187500.02235174447, -187500.02235174447, -48084.36907343496, -46648.38125090376, -77929.33469168362, -48784.626875475275, -88568.49683147631, -31636.860267741715, 0.0, 0.0, 0.0, 193.0, 0.0, 1.0, 1.0, 0.0, 0.0, 1.0, 1.0, 256.0, 1.0, 1.750528462600097E9, 0.0, 2025-06-21 19:54:22.600
216.0, -43935.70648857433, -38112.47356086654, -29889.37853448135, -72804.2361502929, -27709.99404311109, -28697.337650935373, -52643.99083185087, -100487.81043145782, -187500.02235174447, -187500.02235174447, -48113.51574820468, -46675.00217855003, -77946.85845933658, -48818.0203816915, -88565.99343609733, -31669.78438732438, 0.0, 0.0, 0.0, 193.0, 0.0, 1.0, 1.0, 0.0, 0.0, 1.0, 1.0, 256.0, 1.0, 1.750528462608233E9, 0.0, 2025-06-21 19:54:22.608
218.0, -43904.50345331472, -38084.19860413058, -29868.23378422663, -72778.03990579127, -27689.363382978845, -28711.419249942217, -52607.93746804446, -100440.3576779792, -187500.02235174447, -187500.02235174447, -48132.24651005823, -46690.44723396865, -77964.82926187865, -48834.00187897705, -88593.53078526627, -31684.156559009145, 0.0, 0.0, 0.0, 193.0, 0.0, 1.0, 1.0, 0.0, 0.0, 1.0, 1.0, 256.0, 1.0, 1.75052846261622E9, 0.0, 2025-06-21 19:54:22.616
220.0, -43897.37324683348, -38079.86236570625, -29851.358217162877, -72767.176957986, -27667.928060046204, -28712.134505764785, -52589.76549980229, -100436.78139886635, -187500.02235174447, -187500.02235174447, -48088.23592522573, -46655.64556785173, -77929.31233993916, -48789.41014878871, -88559.24320927182, -31642.179982922076, 0.0, 0.0, 0.0, 193.0, 0.0, 1.0, 1.0, 0.0, 0.0, 1.0, 1.0, 256.0, 1.0, 1.750528462624257E9, 0.0, 2025-06-21 19:54:22.624
222.0, -43928.866854771004, -38106.7962177749, -29891.747819393615, -72805.0855165822, -27702.305043018467, -28740.521221223025, -52631.809131122725, -100475.44991677403, -187500.02235174447, -187500.02235174447, -48119.55071920761, -46678.84667859634, -77948.0431017927, -48836.3264604004, -88570.5531919662, -31686.995230554967, 0.0, 0.0, 0.0, 193.0, 0.0, 1.0, 1.0, 0.0, 0.0, 1.0, 1.0, 256.0, 1.0, 1.750528462632268E9, 0.0, 2025-06-21 19:54:22.632
224.0, -43891.02535140817, -38070.51933652393, -29853.794557308505, -72761.65607710554, -27672.867795570826, -28724.897351848766, -52588.670264323984, -100434.210948254, -187500.02235174447, -187500.02235174447, -48101.91519283238, -46666.57557089038, -77945.00326454679, -48809.95140194314, -88593.39667479953, -31661.134262220177, 0.0, 0.0, 0.0, 193.0, 0.0, 1.0, 1.0, 0.0, 0.0, 1.0, 1.0, 256.0, 1.0, 1.750528462641302E9, 0.0, 2025-06-21 19:54:22.641
226.0, -43920.484950600265, -38094.14513041319, -29873.75466510709, -72789.75221988586, -27676.08644677239, -28691.526197376992, -52618.040456538256, -100467.38093702566, -187500.02235174447, -187500.02235174447, -48102.92102133286, -46660.1159167428, -77933.6485783635, -48816.38870434627, -88564.78644189674, -31666.11870123371, 0.0, 0.0, 0.0, 193.0, 0.0, 1.0, 1.0, 0.0, 0.0, 1.0, 1.0, 256.0, 1.0, 1.750528462647334E9, 0.0, 2025-06-21 19:54:22.647
228.0, -43896.725046244275, -38075.25790634846, -29857.057911998978, -72764.919431796, -27681.786141608496, -28688.799284553446, -52605.41172092101, -100445.18565478154, -187500.02235174447, -187500.02235174447, -48103.926849833355, -46664.005120278016, -77938.85653482158, -48816.90279446874, -88572.654255945, -31670.253773957942, 0.0, 0.0, 0.0, 193.0, 0.0, 1.0, 1.0, 0.0, 0.0, 1.0, 1.0, 256.0, 1.0, 1.75052846265631E9, 0.0, 2025-06-21 19:54:22.656
230.0, -43917.69098254335, -38099.241328149, -29870.58071739444, -72784.34309772767, -27685.608289910353, -28678.383371637272, -52616.54288965975, -100467.24682655893, -187500.02235174447, -187500.02235174447, -48097.10956777449, -46658.10425974182, -77934.85557256408, -48804.765797229506, -88578.7115786924, -31658.78732905237, 0.0, 0.0, 0.0, 193.0, 0.0, 1.0, 1.0, 0.0, 0.0, 1.0, 1.0, 256.0, 1.0, 1.750528462664412E9, 0.0, 2025-06-21 19:54:22.664
232.0, -43926.34110764755, -38101.364743872255, -29878.180310509244, -72796.74831590038, -27698.68406041671, -28731.759337396546, -52624.969497319405, -100467.24682655893, -187500.02235174447, -187500.02235174447, -48119.48366397425, -46683.361730976314, -77947.46195643688, -48836.929957500695, -88572.14016582254, -31688.26927998892, 0.0, 0.0, 0.0, 193.0, 0.0, 1.0, 1.0, 0.0, 0.0, 1.0, 1.0, 256.0, 1.0, 1.750528462672498E9, 0.0, 2025-06-21 19:54:22.672
234.0, -43892.43351130885, -38077.38132207171, -29852.229935196632, -72765.88055680759, -27673.00190603756, -28743.650465446768, -52618.93452631647, -100459.04373634384, -187500.02235174447, -187500.02235174447, -48093.82386133956, -46653.90213178422, -77935.41436617546, -48805.41399781871, -88583.78542468375, -31660.240192441965, 0.0, 0.0, 0.0, 193.0, 0.0, 1.0, 1.0, 0.0, 0.0, 1.0, 1.0, 256.0, 1.0, 1.750528462679491E9, 0.0, 2025-06-21 19:54:22.679
236.0, -43925.715258802804, -38106.14801718569, -29881.44366519972, -72804.16909505954, -27703.601444196876, -28695.080124745386, -52648.68469818649, -100488.54803902484, -187500.02235174447, -187500.02235174447, -48108.57601268006, -46667.80491683542, -77939.68354936643, -48833.26427141002, -88576.11877633557, -31684.737704364983, 0.0, 0.0, 0.0, 193.0, 0.0, 1.0, 1.0, 0.0, 0.0, 1.0, 1.0, 256.0, 1.0, 1.750528462688537E9, 0.0, 2025-06-21 19:54:22.688
238.0, -43910.136092917455, -38087.86429022125, -29879.76728436557, -72788.85815010764, -27707.91533087675, -28698.835217813878, -52642.73913416137, -100471.04662311633, -187500.02235174447, -187500.02235174447, -48113.94043134933, -46673.862239582806, -77947.66312213698, -48837.33228890089, -88597.1070643791, -31686.36938171022, 0.0, 0.0, 0.0, 193.0, 0.0, 1.0, 1.0, 0.0, 0.0, 1.0, 1.0, 256.0, 1.0, 1.750528462696577E9, 0.0, 2025-06-21 19:54:22.696
240.0, -43937.74049731976, -38112.02652597744, -29900.35324100891, -72814.69676669798, -27701.880359873816, -28720.69522389117, -52662.83335242669, -100500.88620196417, -187500.02235174447, -187500.02235174447, -48125.250414043716, -46689.866088612805, -77966.1033113126, -48836.61703307832, -88611.47923606387, -31687.732838121992, 0.0, 0.0, 0.0, 193.0, 0.0, 1.0, 1.0, 0.0, 0.0, 1.0, 1.0, 256.0, 1.0, 1.750528462703622E9, 0.0, 2025-06-21 19:54:22.703
242.0, -43919.79204652215, -38095.642697291696, -29866.982086537137, -72782.75612387135, -27692.96201383615, -28710.324014463906, -52644.90725337354, -100480.54611450984, -187500.02235174447, -187500.02235174447, -48135.75573393771, -46693.643533425755, -77965.76803514577, -48854.72194608712, -88591.51912826528, -31704.161370296642, 0.0, 0.0, 0.0, 193.0, 0.0, 1.0, 1.0, 0.0, 0.0, 1.0, 1.0, 256.0, 1.0, 1.750528462711618E9, 0.0, 2025-06-21 19:54:22.711
244.0, -43914.807607508614, -38091.12764491173, -29866.043313270013, -72779.35865871413, -27706.998909354083, -28714.54849416596, -52625.26006999732, -100464.78813466885, -187500.02235174447, -187500.02235174447, -48093.37682645045, -46655.958492274105, -77939.28121796623, -48801.01070416102, -88580.6114769711, -31652.998227238448, 0.0, 0.0, 0.0, 193.0, 0.0, 1.0, 1.0, 0.0, 0.0, 1.0, 1.0, 256.0, 1.0, 1.750528462720702E9, 0.0, 2025-06-21 19:54:22.720
246.0, -43912.863005741005, -38090.34533385579, -29860.835356811927, -72784.23133900539, -27660.507280887043, -28691.414438654716, -52623.673096141, -100463.37997476816, -187500.02235174447, -187500.02235174447, -48104.28447774464, -46667.156716246216, -77939.59414238861, -48822.311916626924, -88565.38993899703, -31673.91946004861, 0.0, 0.0, 0.0, 193.0, 0.0, 1.0, 1.0, 0.0, 0.0, 1.0, 1.0, 256.0, 1.0, 1.750528462727729E9, 0.0, 2025-06-21 19:54:22.727
248.0, -43910.896052228934, -38092.267583878944, -29872.212394739676, -72784.49955993886, -27671.705504859154, -28700.466895159116, -52618.50984317182, -100462.73177417896, -187500.02235174447, -187500.02235174447, -48110.006524325196, -46676.81266985091, -77947.7972326037, -48825.93289922868, -88579.09155834813, -31677.83101532829, 0.0, 0.0, 0.0, 193.0, 0.0, 1.0, 1.0, 0.0, 0.0, 1.0, 1.0, 256.0, 1.0, 1.750528462735789E9, 0.0, 2025-06-21 19:54:22.735
250.0, -43910.426665595376, -38089.9430024556, -29858.15314747729, -72779.3810104586, -27690.123342290324, -28706.54656965096, -52611.29022971276, -100460.8095241558, -187500.02235174447, -187500.02235174447, -48086.47013741376, -46657.4113556637, -77931.90514229597, -48797.38972155926, -88567.75922390929, -31650.383073137175, 0.0, 0.0, 0.0, 193.0, 0.0, 1.0, 1.0, 0.0, 0.0, 1.0, 1.0, 256.0, 1.0, 1.750528462744794E9, 0.0, 2025-06-21 19:54:22.744
252.0, -43904.905784714916, -38077.87306044973, -29847.2454961831, -72769.70270510945, -27692.269109758035, -28676.505825103024, -52608.116282000105, -100451.66766067359, -187500.02235174447, -187500.02235174447, -48106.05026555661, -46669.257780225016, -77936.06256676467, -48828.03396320748, -88558.46089821588, -31677.115759505723, 0.0, 0.0, 0.0, 193.0, 0.0, 1.0, 1.0, 0.0, 0.0, 1.0, 1.0, 256.0, 1.0, 1.7505284627528E9, 0.0, 2025-06-21 19:54:22.752
254.0, -43908.0126771942, -38083.885679708204, -29855.62740035384, -72769.09920800915, -27677.47225492862, -28742.622285201825, -52609.41268317851, -100448.11373330519, -187500.02235174447, -187500.02235174447, -48075.98716926422, -46637.47359960957, -77916.25892117726, -48780.35769228431, -88559.53378194974, -31631.629959539172, 0.0, 0.0, 0.0, 193.0, 0.0, 1.0, 1.0, 0.0, 0.0, 1.0, 1.0, 256.0, 1.0, 1.750528462760858E9, 0.0, 2025-06-21 19:54:22.760
0.0, -43930.207959438325, -38105.16454042966, -29873.084112773435, -72793.86494086563, -27694.4372289702, -28680.640897827256, -52639.162855048526, -100483.94357966704, -187500.02235174447, -187500.02235174447, -48114.74509414972, -46671.962341304104, -77944.13154651303, -48826.55874807343, -88570.97787511085, -31675.729951349495, 0.0, 0.0, 0.0, 193.0, 0.0, 1.0, 1.0, 0.0, 0.0, 1.0, 1.0, 256.0, 1.0, 1.750528462767876E9, 0.0, 2025-06-21 19:54:22.767
2.0, -43922.54131109015, -38101.07417119434, -29874.536976163028, -72786.42180996202, -27694.906615603762, -28704.087877760874, -52641.1745120495, -100479.67439647608, -187500.02235174447, -187500.02235174447, -48117.85198662901, -46680.83598385286, -77951.88760183903, -48825.79878876195, -88581.63965721603, -31676.087579260777, 0.0, 0.0, 0.0, 193.0, 0.0, 1.0, 1.0, 0.0, 0.0, 1.0, 1.0, 256.0, 1.0, 1.750528462775877E9, 0.0, 2025-06-21 19:54:22.775
4.0, -43933.73953506226, -38108.986688731515, -29880.59429891042, -72796.0777635667, -27695.890092359794, -28741.728215423613, -52624.76833161931, -100469.90668414911, -187500.02235174447, -187500.02235174447, -48110.05122781411, -46668.408413935715, -77948.49013668182, -48813.930012456185, -88589.10513986411, -31663.481195387983, 0.0, 0.0, 0.0, 193.0, 0.0, 1.0, 1.0, 0.0, 0.0, 1.0, 1.0, 256.0, 1.0, 1.750528462783909E9, 0.0, 2025-06-21 19:54:22.783
6.0, -43922.563662834604, -38095.53093856942, -29871.92182206176, -72787.42763846251, -27687.888167844794, -28681.087932716364, -52634.64780266855, -100486.02229190139, -187500.02235174447, -187500.02235174447, -48142.41655378539, -46694.0235130815, -77966.66210492398, -48851.30212918546, -88581.10321534911, -31700.98742258399, 0.0, 0.0, 0.0, 193.0, 0.0, 1.0, 1.0, 0.0, 0.0, 1.0, 1.0, 256.0, 1.0, 1.75052846279294E9, 0.0, 2025-06-21 19:54:22.792
8.0, -43904.27993587017, -38079.996476172986, -29862.824662068448, -72770.66383012102, -27681.04853404147, -28682.518444361503, -52603.93650578696, -100444.93978559253, -187500.02235174447, -187500.02235174447, -48095.79081485162, -46653.14217247274, -77934.45324116388, -48803.20117511764, -88577.43752925844, -31653.668779572105, 0.0, 0.0, 0.0, 193.0, 0.0, 1.0, 1.0, 0.0, 0.0, 1.0, 1.0, 256.0, 1.0, 1.750528462799945E9, 0.0, 2025-06-21 19:54:22.799
10.0, -43935.48297112977, -38113.814665533864, -29878.604993653895, -72801.79981014726, -27685.205958510156, -28688.665174086713, -52631.675020655995, -100477.28275981937, -187500.02235174447, -187500.02235174447, -48119.61777444098, -46678.891382085254, -77950.16651751596, -48834.135989443785, -88577.97397112536, -31680.803797340846, 0.0, 0.0, 0.0, 193.0, 0.0, 1.0, 1.0, 0.0, 0.0, 1.0, 1.0, 256.0, 1.0, 1.750528462807986E9, 0.0, 2025-06-21 19:54:22.807
12.0, -43905.55398530412, -38078.029522660916, -29862.019999268057, -72765.54528064076, -27662.183661721192, -28722.639825658778, -52608.518613400294, -100441.31880299078, -187500.02235174447, -187500.02235174447, -48112.68873365984, -46663.96041678911, -77943.08101452363, -48817.5733468024, -88567.33454076464, -31666.275163444898, 0.0, 0.0, 0.0, 193.0, 0.0, 1.0, 1.0, 0.0, 0.0, 1.0, 1.0, 256.0, 1.0, 1.750528462816001E9, 0.0, 2025-06-21 19:54:22.816
14.0, -43913.95824121931, -38083.416293074646, -29863.71873184666, -72775.73767611237, -27700.069868572937, -28680.707953060624, -52608.116282000105, -100454.28281477485, -187500.02235174447, -187500.02235174447, -48103.52451843316, -46650.97405326057, -77936.55430514268, -48802.240050106055, -88578.42100601447, -31649.421948125597, 0.0, 0.0, 0.0, 193.0, 0.0, 1.0, 1.0, 0.0, 0.0, 1.0, 1.0, 256.0, 1.0, 1.75052846282403E9, 0.0, 2025-06-21 19:54:22.824
16.0, -43926.81049428112, -38098.235499648516, -29874.33581046293, -72789.37224023012, -27706.462467487156, -28689.536892120468, -52632.859663112125, -100467.60445447022, -187500.02235174447, -187500.02235174447, -48114.208652282796, -46668.14019300225, -77940.93524705592, -48830.358544630835, -88564.83114538564, -31675.953468794047, 0.0, 0.0, 0.0, 193.0, 0.0, 1.0, 1.0, 0.0, 0.0, 1.0, 1.0, 256.0, 1.0, 1.750528462832065E9, 0.0, 2025-06-21 19:54:22.832
18.0, -43918.517997088195, -38092.80402574588, -29870.424255183254, -72775.11182726762, -27679.416856696233, -28713.766183110023, -52610.37380819009, -100451.17592229557, -187500.02235174447, -187500.02235174447, -48103.97155332226, -46661.12174524328, -77943.48334592383, -48805.45870130762, -88584.8583084176, -31654.16051795012, 0.0, 0.0, 0.0, 193.0, 0.0, 1.0, 1.0, 0.0, 0.0, 1.0, 1.0, 256.0, 1.0, 1.750528462840109E9, 0.0, 2025-06-21 19:54:22.840
20.0, -43934.00775599572, -38105.075133451835, -29870.46895867216, -72788.32170824072, -27697.208845282657, -28635.780946705458, -52640.77218064931, -100478.93678890906, -187500.02235174447, -187500.02235174447, -48124.93748962134, -46681.417129208705, -77954.5027559403, -48831.49848359806, -88578.17513682546, -31679.68621011808, 0.0, 0.0, 0.0, 193.0, 0.0, 1.0, 1.0, 0.0, 0.0, 1.0, 1.0, 256.0, 1.0, 1.750528462849155E9, 0.0, 2025-06-21 19:54:22.849
22.0, -43923.32362214609, -38096.87204323674, -29870.379551694343, -72778.79986510276, -27694.61604292584, -28710.860456330833, -52625.662401397516, -100460.09426833324, -187500.02235174447, -187500.02235174447, -48106.452596956806, -46661.345262687835, -77937.40367143198, -48810.152567643236, -88558.61736042707, -31660.396654653152, 0.0, 0.0, 0.0, 193.0, 0.0, 1.0, 1.0, 0.0, 0.0, 1.0, 1.0, 256.0, 1.0, 1.750528462855137E9, 0.0, 2025-06-21 19:54:22.855
24.0, -43944.73659333427, -38116.765095801966, -29885.466979201676, -72802.22449329191, -27711.558665222965, -28712.58154065389, -52639.431075981985, -100487.3633965687, -187500.02235174447, -187500.02235174447, -48120.5565477081, -46673.83988783835, -77957.54259318621, -48819.585003803375, -88590.42389278697, -31669.60557336874, 0.0, 0.0, 0.0, 193.0, 0.0, 1.0, 1.0, 0.0, 0.0, 1.0, 1.0, 256.0, 1.0, 1.750528462864184E9, 0.0, 2025-06-21 19:54:22.864
26.0, -43941.00385201024, -38114.77579054544, -29883.924708834256, -72797.50827521185, -27698.371135994334, -28720.762279124534, -52626.53411943128, -100466.10688759171, -187500.02235174447, -187500.02235174447, -48149.70322247782, -46704.1712050642, -77975.31223002818, -48858.56644613343, -88591.27325907628, -31707.26826277593, 0.0, 0.0, 0.0, 193.0, 0.0, 1.0, 1.0, 0.0, 0.0, 1.0, 1.0, 256.0, 1.0, 1.750528462872217E9, 0.0, 2025-06-21 19:54:22.872
28.0, -43913.17593016338, -38084.75739774197, -29862.444682412708, -72767.35577194164, -27666.67636235671, -28713.520313921013, -52608.56331688921, -100445.07389605927, -187500.02235174447, -187500.02235174447, -48095.34377996252, -46648.44830613712, -77932.91097079647, -48798.10497738182, -88580.2091455709, -31647.991436480457, 0.0, 0.0, 0.0, 193.0, 0.0, 1.0, 1.0, 0.0, 0.0, 1.0, 1.0, 256.0, 1.0, 1.750528462880247E9, 0.0, 2025-06-21 19:54:22.880
30.0, -43949.87749455899, -38115.73691555702, -29884.01411581208, -72796.21187403344, -27700.695717417686, -28672.080179700875, -52631.78677937827, -100477.48392551947, -187500.02235174447, -187500.02235174447, -48127.73145767826, -46671.93998955965, -77953.02754080624, -48825.865843995314, -88571.53666872224, -31674.388846682174, 0.0, 0.0, 0.0, 193.0, 0.0, 1.0, 1.0, 0.0, 0.0, 1.0, 1.0, 256.0, 1.0, 1.750528462888285E9, 0.0, 2025-06-21 19:54:22.888
32.0, -43924.55296809113, -38095.419179847144, -29863.53991789102, -72776.16235925702, -27687.86581610034, -28663.9664964636, -52619.31450597221, -100455.66862293109, -187500.02235174447, -187500.02235174447, -48119.57307095207, -46665.837963323356, -77948.11015702608, -48816.81338749092, -88570.97787511085, -31665.179927966587, 0.0, 0.0, 0.0, 193.0, 0.0, 1.0, 1.0, 0.0, 0.0, 1.0, 1.0, 256.0, 1.0, 1.750528462896305E9, 0.0, 2025-06-21 19:54:22.896
34.0, -43940.93679677687, -38106.7962177749, -29877.73327562014, -72795.07193506623, -27709.323490777435, -28706.85949407333, -52636.9723840919, -100480.68022497658, -187500.02235174447, -187500.02235174447, -48115.97444009477, -46674.10810877182, -77953.27340999525, -48819.96498345912, -88589.35100905312, -31671.93015479209, 0.0, 0.0, 0.0, 193.0, 0.0, 1.0, 1.0, 0.0, 0.0, 1.0, 1.0, 256.0, 1.0, 1.750528462904299E9, 0.0, 2025-06-21 19:54:22.904
36.0, -43923.92711924638, -38091.52997631192, -29860.85770855638, -72776.6317458906, -27677.71812411763, -28691.369735165805, -52623.203709507434, -100461.99416661194, -187500.02235174447, -187500.02235174447, -48119.170739551875, -46668.63193138027, -77940.80113658919, -48829.95621323064, -88556.76216563728, -31681.720218863516, 0.0, 0.0, 0.0, 193.0, 0.0, 1.0, 1.0, 0.0, 0.0, 1.0, 1.0, 256.0, 1.0, 1.750528462912316E9, 0.0, 2025-06-21 19:54:22.912
38.0, -43923.25656691272, -38090.56885130034, -29868.591412137917, -72770.3732574431, -27699.399316239276, -28694.901310789744, -52624.388351963564, -100467.7162131925, -187500.02235174447, -187500.02235174447, -48098.338913719526, -46647.39777414773, -77933.96150278587, -48798.73082622657, -88574.73296817935, -31649.73487254797, 0.0, 0.0, 0.0, 193.0, 0.0, 1.0, 1.0, 0.0, 0.0, 1.0, 1.0, 256.0, 1.0, 1.75052846292038E9, 0.0, 2025-06-21 19:54:22.920
40.0, -43959.8240208416, -38128.87974129674, -29897.760438652094, -72813.15449633056, -27716.81132516996, -28686.78762755247, -52652.23862555488, -100496.23703911746, -187500.02235174447, -187500.02235174447, -48124.535158221144, -46672.811707593406, -77950.52414542725, -48836.304108655946, -88578.62217171457, -31685.564718909827, 0.0, 0.0, 0.0, 193.0, 0.0, 1.0, 1.0, 0.0, 0.0, 1.0, 1.0, 256.0, 1.0, 1.750528462928496E9, 0.0, 2025-06-21 19:54:22.928
42.0, -43918.875624999484, -38086.478482065024, -29856.074435242946, -72760.51613813832, -27695.890092359794, -28699.997508525554, -52609.77031108979, -100447.91256760509, -187500.02235174447, -187500.02235174447, -48130.972460624274, -46680.791280363956, -77959.01780832026, -48840.19331219117, -88591.20620384291, -31690.683268390094, 0.0, 0.0, 0.0, 193.0, 0.0, 1.0, 1.0, 0.0, 0.0, 1.0, 1.0, 256.0, 1.0, 1.750528462935486E9, 0.0, 2025-06-21 19:54:22.935
44.0, -43931.258491427725, -38102.12470318374, -29867.898508059803, -72778.68810638048, -27678.14280726228, -28671.58844132286, -52628.679886898986, -100470.97956788297, -187500.02235174447, -187500.02235174447, -48089.48762291523, -46637.69711705412, -77923.52323812524, -48788.3149133104, -88558.9526365939, -31638.626055553683, 0.0, 0.0, 0.0, 193.0, 0.0, 1.0, 1.0, 0.0, 0.0, 1.0, 1.0, 256.0, 1.0, 1.750528462943624E9, 0.0, 2025-06-21 19:54:22.943
46.0, -43960.27105573071, -38123.78354356093, -29896.21816828468, -72805.35373751566, -27700.852179628873, -28661.463101084602, -52650.56224472073, -100487.69867273554, -187500.02235174447, -187500.02235174447, -48139.935510150855, -46689.37435023479, -77962.5493839442, -48851.615053607835, -88575.13529957955, -31699.713373150036, 0.0, 0.0, 0.0, 193.0, 0.0, 1.0, 1.0, 0.0, 0.0, 1.0, 1.0, 256.0, 1.0, 1.750528462952575E9, 0.0, 2025-06-21 19:54:22.952
48.0, -43923.770657035195, -38095.17331065814, -29863.137586490822, -72767.13225449709, -27684.066019542937, -28703.618491127312, -52612.74309310235, -100454.5063322194, -187500.02235174447, -187500.02235174447, -48119.32720176306, -46665.59209413434, -77953.83220360664, -48814.66762002321, -88588.36753229708, -31664.375265166196, 0.0, 0.0, 0.0, 193.0, 0.0, 1.0, 1.0, 0.0, 0.0, 1.0, 1.0, 256.0, 1.0, 1.750528462960564E9, 0.0, 2025-06-21 19:54:22.960
50.0, -43934.23127344028, -38099.889528738204, -29859.38249342233, -72781.75029537086, -27699.891054617296, -28664.72645577508, -52628.29990724324, -100470.71134694951, -187500.02235174447, -187500.02235174447, -48101.66932364337, -46654.28211143996, -77930.96636902886, -48815.874614223794, -88552.44827895741, -31666.431625656085, 0.0, 0.0, 0.0, 193.0, 0.0, 1.0, 1.0, 0.0, 0.0, 1.0, 1.0, 256.0, 1.0, 1.750528462967557E9, 0.0, 2025-06-21 19:54:22.967
52.0, -43943.86487530052, -38107.33265964183, -29883.611784411885, -72794.35667924365, -27718.800630426485, -28694.901310789744, -52645.24252954037, -100475.87459991868, -187500.02235174447, -187500.02235174447, -48118.746056407224, -46670.53182965897, -77948.75835761528, -48833.644251065765, -88576.11877633557, -31683.709524120037, 0.0, 0.0, 0.0, 193.0, 0.0, 1.0, 1.0, 0.0, 0.0, 1.0, 1.0, 256.0, 1.0, 1.750528462975623E9, 0.0, 2025-06-21 19:54:22.975
54.0, -43940.60152061004, -38106.84092126381, -29873.86642382937, -72788.70168789646, -27683.417818953734, -28688.06167698642, -52629.68571539947, -100478.95914065352, -187500.02235174447, -187500.02235174447, -48112.15229179291, -46662.753422588525, -77946.81375584767, -48822.46837883811, -88589.14984335302, -31671.84074781427, 0.0, 0.0, 0.0, 193.0, 0.0, 1.0, 1.0, 0.0, 0.0, 1.0, 1.0, 256.0, 1.0, 1.750528462984608E9, 0.0, 2025-06-21 19:54:22.984
56.0, -43943.01550901122, -38103.10817993977, -29873.75466510709, -72787.87467335162, -27704.763734908553, -28656.43395858216, -52645.80132315175, -100482.24484708844, -187500.02235174447, -187500.02235174447, -48123.708143676304, -46676.18682100616, -77946.32201746965, -48850.698632085165, -88572.31897977818, -31699.199283027567, 0.0, 0.0, 0.0, 193.0, 0.0, 1.0, 1.0, 0.0, 0.0, 1.0, 1.0, 256.0, 1.0, 1.750528462991648E9, 0.0, 2025-06-21 19:54:22.991
58.0, -43910.203148150824, -38079.48238605051, -29850.75472006258, -72760.15851022703, -27670.118531002827, -28666.067560442396, -52600.04730225174, -100437.96604132248, -187500.02235174447, -187500.02235174447, -48097.86952708597, -46647.62129159228, -77933.71563359686, -48805.59281177435, -88578.1080815921, -31655.83689878427, 0.0, 0.0, 0.0, 193.0, 0.0, 1.0, 1.0, 0.0, 0.0, 1.0, 1.0, 256.0, 1.0, 1.75052846300067E9, 0.0, 2025-06-21 19:54:23.000
60.0, -43956.068927773114, -38122.71065982708, -29889.646755414815, -72808.19240906149, -27703.266168030044, -28670.381447122272, -52640.92864286049, -100489.37505356969, -187500.02235174447, -187500.02235174447, -48099.031817797644, -46649.85646603781, -77927.144220727, -48813.97471594509, -88549.02846205575, -31663.771768065904, 0.0, 0.0, 0.0, 193.0, 0.0, 1.0, 1.0, 0.0, 0.0, 1.0, 1.0, 256.0, 1.0, 1.750528463008685E9, 0.0, 2025-06-21 19:54:23.008
62.0, -43937.673442086394, -38096.93909847011, -29881.57777566645, -72789.19342627448, -27682.791970108985, -28673.600098323837, -52632.70320090094, -100466.93390213656, -187500.02235174447, -187500.02235174447, -48154.6653097469, -46692.5706496919, -77977.52505272927, -48860.89102755678, -88607.63473601756, -31709.12345756572, 0.0, 0.0, 0.0, 193.0, 0.0, 1.0, 1.0, 0.0, 0.0, 1.0, 1.0, 256.0, 1.0, 1.750528463016671E9, 0.0, 2025-06-21 19:54:23.016
64.0, -43960.807497597634, -38123.02358424945, -29888.81974086997, -72810.18171431801, -27712.67625244573, -28691.213272954617, -52646.47187548541, -100487.47515529099, -187500.02235174447, -187500.02235174447, -48112.174643537364, -46661.92640804368, -77949.27244773775, -48815.96402120162, -88580.74558743782, -31666.632791356184, 0.0, 0.0, 0.0, 193.0, 0.0, 1.0, 1.0, 0.0, 0.0, 1.0, 1.0, 256.0, 1.0, 1.750528463023794E9, 0.0, 2025-06-21 19:54:23.023
66.0, -43955.39837543945, -38119.11202896977, -29892.552482194005, -72809.95819687346, -27697.745287149584, -28666.112263931307, -52646.29306152977, -100487.83278320228, -187500.02235174447, -187500.02235174447, -48153.74888822423, -46701.64545794076, -77976.40746550649, -48869.54115266099, -88586.80291018522, -31719.986405371, 0.0, 0.0, 0.0, 193.0, 0.0, 1.0, 1.0, 0.0, 0.0, 1.0, 1.0, 256.0, 1.0, 1.750528463031737E9, 0.0, 2025-06-21 19:54:23.031
68.0, -43920.93198548937, -38092.20052864558, -29859.00251376659, -72772.8766528221, -27686.14473177728, -28679.232737926573, -52624.99184906386, -100463.9164166351, -187500.02235174447, -187500.02235174447, -48115.102722061005, -46660.786469076455, -77950.61355240508, -48814.980544445585, -88586.17706134047, -31665.805776811336, 0.0, 0.0, 0.0, 193.0, 0.0, 1.0, 1.0, 0.0, 0.0, 1.0, 1.0, 256.0, 1.0, 1.750528463040753E9, 0.0, 2025-06-21 19:54:23.040
70.0, -43974.88909660448, -38139.27330246846, -29905.44943874472, -72829.7394907164, -27708.652938443774, -28685.804150796434, -52672.5340095203, -100518.56643182832, -187500.02235174447, -187500.02235174447, -48132.313565291595, -46677.23735299556, -77952.62520940605, -48838.248710423555, -88570.64259894403, -31686.235271243488, 0.0, 0.0, 0.0, 193.0, 0.0, 1.0, 1.0, 0.0, 0.0, 1.0, 1.0, 256.0, 1.0, 1.750528463047802E9, 0.0, 2025-06-21 19:54:23.047
72.0, -43937.09229673056, -38097.49789208149, -29884.572909423463, -72790.69099315298, -27694.794856881483, -28689.782761309478, -52634.111360801624, -100473.55001849533, -187500.02235174447, -187500.02235174447, -48153.23479810176, -46693.934106103676, -77976.72038992887, -48853.649062353266, -88594.93894516694, -31701.054477817357, 0.0, 0.0, 0.0, 193.0, 0.0, 1.0, 1.0, 0.0, 0.0, 1.0, 1.0, 256.0, 1.0, 1.750528463055847E9, 0.0, 2025-06-21 19:54:23.055
74.0, -43937.29346243066, -38104.493988096, -29878.53793842053, -72799.49758046838, -27676.064095027938, -28673.465987857104, -52627.45054095394, -100473.97470163998, -187500.02235174447, -187500.02235174447, -48117.203786039805, -46661.74759408803, -77951.12764252754, -48811.62778277729, -88580.29855254872, -31658.228535440987, 0.0, 0.0, 0.0, 193.0, 0.0, 1.0, 1.0, 0.0, 0.0, 1.0, 1.0, 256.0, 1.0, 1.750528463063822E9, 0.0, 2025-06-21 19:54:23.063
76.0, -43957.678253373895, -38117.86033128027, -29893.334793249942, -72814.07091785323, -27721.013453127558, -28659.943182461644, -52649.288195286776, -100492.23607685996, -187500.02235174447, -187500.02235174447, -48146.14929510943, -46700.48316722908, -77969.97016310337, -48858.946425789174, -88569.18973555444, -31705.480123219506, 0.0, 0.0, 0.0, 193.0, 0.0, 1.0, 1.0, 0.0, 0.0, 1.0, 1.0, 256.0, 1.0, 1.750528463072891E9, 0.0, 2025-06-21 19:54:23.072
78.0, -43914.22646215278, -38078.47655755002, -29863.33875219092, -72773.01076328884, -27687.105856788858, -28667.699237787634, -52609.926773300984, -100443.28575650284, -187500.02235174447, -187500.02235174447, -48116.443826728326, -46660.160620231705, -77953.11694778406, -48816.165186901715, -88585.81943342918, -31660.374302908698, 0.0, 0.0, 0.0, 193.0, 0.0, 1.0, 1.0, 0.0, 0.0, 1.0, 1.0, 256.0, 1.0, 1.750528463079938E9, 0.0, 2025-06-21 19:54:23.079
80.0, -43966.909523833936, -38127.56098837388, -29905.360031766897, -72828.71131047145, -27717.99596762609, -28637.122051372775, -52655.18905582298, -100502.74139675396, -187500.02235174447, -187500.02235174447, -48130.16779782389, -46679.00314080753, -77955.08390129614, -48838.539283101476, -88566.68634017544, -31683.530710164396, 0.0, 0.0, 0.0, 193.0, 0.0, 1.0, 1.0, 0.0, 0.0, 1.0, 1.0, 256.0, 1.0, 1.750528463087912E9, 0.0, 2025-06-21 19:54:23.087
82.0, -43922.27309015669, -38087.193737887595, -29873.86642382937, -72782.37614421561, -27686.122380032826, -28665.933449975666, -52616.25231698183, -100450.81829438428, -187500.02235174447, -187500.02235174447, -48150.50788527822, -46695.610486937825, -77977.01096260679, -48856.26421645453, -88592.27908757677, -31701.121533050722, 0.0, 0.0, 0.0, 193.0, 0.0, 1.0, 1.0, 0.0, 0.0, 1.0, 1.0, 256.0, 1.0, 1.750528463095944E9, 0.0, 2025-06-21 19:54:23.095
84.0, -43954.34784345005, -38124.45409589459, -29893.625365927863, -72818.27304581083, -27695.62187142633, -28683.30075541744, -52650.58459646519, -100486.17875411258, -187500.02235174447, -187500.02235174447, -48111.88407085944, -46661.12174524328, -77948.0431017927, -48808.02915191998, -88570.03910184374, -31654.78636679487, 0.0, 0.0, 0.0, 193.0, 0.0, 1.0, 1.0, 0.0, 0.0, 1.0, 1.0, 256.0, 1.0, 1.750528463104006E9, 0.0, 2025-06-21 19:54:23.104
86.0, -43975.157317537945, -38140.32383445786, -29919.754555196116, -72838.12139488714, -27720.454659516177, -28684.44069438466, -52658.85474191365, -100500.08153916377, -187500.02235174447, -187500.02235174447, -48168.09870816454, -46723.17018785122, -77988.8573871681, -48877.408966709256, -88585.12652935107, -31724.188533328597, 0.0, 0.0, 0.0, 193.0, 0.0, 1.0, 1.0, 0.0, 0.0, 1.0, 1.0, 256.0, 1.0, 1.75052846311207E9, 0.0, 2025-06-21 19:54:23.112
88.0, -43935.75119206324, -38104.806912518376, -29881.44366519972, -72788.00878381834, -27707.35653726537, -28710.34636620836, -52644.05788708424, -100477.08159411927, -187500.02235174447, -187500.02235174447, -48143.10945786351, -46685.95453333313, -77980.83311090864, -48837.46639936762, -88610.54046279675, -31681.653163630148, 0.0, 0.0, 0.0, 193.0, 0.0, 1.0, 1.0, 0.0, 0.0, 1.0, 1.0, 256.0, 1.0, 1.750528463120076E9, 0.0, 2025-06-21 19:54:23.120
90.0, -43969.70349189085, -38135.004119277495, -29894.92176710627, -72819.18946733349, -27717.325415292435, -28647.828536966867, -52661.82752392621, -100500.5732775418, -187500.02235174447, -187500.02235174447, -48132.648841458424, -46675.42686169468, -77954.7486251293, -48833.95717548814, -88562.03717732873, -31678.948602551056, 0.0, 0.0, 0.0, 193.0, 0.0, 1.0, 1.0, 0.0, 0.0, 1.0, 1.0, 256.0, 1.0, 1.750528463129067E9, 0.0, 2025-06-21 19:54:23.129
92.0, -43948.35757593603, -38110.99834573249, -29898.095714818923, -72804.54907471527, -27722.265150817057, -28682.071409472395, -52626.53411943128, -100462.84353290124, -187500.02235174447, -187500.02235174447, -48157.70514699283, -46702.025437596494, -77983.56002373219, -48854.69959434267, -88589.75334045332, -31699.713373150036, 0.0, 0.0, 0.0, 193.0, 0.0, 1.0, 1.0, 0.0, 0.0, 1.0, 1.0, 256.0, 1.0, 1.750528463136123E9, 0.0, 2025-06-21 19:54:23.136
94.0, -43975.157317537945, -38142.15667750319, -29910.188008569243, -72829.0912901272, -27709.301139032978, -28682.607851339326, -52644.75079116235, -100488.48098379148, -187500.02235174447, -187500.02235174447, -48139.28730956165, -46686.96036183362, -77975.64750619502, -48835.18652143318, -88611.88156746406, -31676.624021127707, 0.0, 0.0, 0.0, 193.0, 0.0, 1.0, 1.0, 0.0, 0.0, 1.0, 1.0, 256.0, 1.0, 1.750528463144146E9, 0.0, 2025-06-21 19:54:23.144
96.0, -43982.93572460839, -38141.776697847454, -29907.9081306348, -72829.1359936161, -27720.85699091637, -28633.72458621557, -52664.64384372757, -100496.6170187732, -187500.02235174447, -187500.02235174447, -48177.57584781359, -46726.8805774308, -77995.6076139936, -48884.06978655694, -88584.09834910612, -31731.296388065388, 0.0, 0.0, 0.0, 193.0, 0.0, 1.0, 1.0, 0.0, 0.0, 1.0, 1.0, 256.0, 1.0, 1.750528463152195E9, 0.0, 2025-06-21 19:54:23.152
98.0, -43966.01545405573, -38128.05272675189, -29899.414467741786, -72812.55099923027, -27734.893886434304, -28675.499996602535, -52637.620584681106, -100471.60541672772, -187500.02235174447, -187500.02235174447, -48141.455428773814, -46685.95453333313, -77978.19560506292, -48830.44795160866, -88603.27614584878, -31674.902936804647, 0.0, 0.0, 0.0, 193.0, 0.0, 1.0, 1.0, 0.0, 0.0, 1.0, 1.0, 256.0, 1.0, 1.750528463160242E9, 0.0, 2025-06-21 19:54:23.160
100.0, -44013.35644881206, -38174.65611394121, -29932.942084424747, -72858.43913059702, -27748.05906391848, -28680.14915944924, -52649.19878830895, -100504.32837061028, -187500.02235174447, -187500.02235174447, -48166.221161630296, -46718.92335640471, -77986.9574888894, -48865.92017005923, -88596.0118289008, -31712.677384934115, 0.0, 0.0, 0.0, 193.0, 0.0, 1.0, 1.0, 0.0, 0.0, 1.0, 1.0, 256.0, 1.0, 1.750528463167247E9, 0.0, 2025-06-21 19:54:23.167
102.0, -43960.78514585318, -38127.516284884965, -29896.486389218142, -72804.2808537818, -27666.542251889976, -28701.606834126334, -52630.959764833424, -100475.85224817423, -187500.02235174447, -187500.02235174447, -48170.33388261007, -46711.59198422337, -77992.29955581421, -48865.04845202547, -88599.56575626919, -31711.336280266798, 0.0, 0.0, 0.0, 193.0, 0.0, 1.0, 1.0, 0.0, 0.0, 1.0, 1.0, 256.0, 1.0, 1.750528463176259E9, 0.0, 2025-06-21 19:54:23.176
104.0, -43985.081492076104, -38146.202343249606, -29906.343508522932, -72822.31871155724, -27715.872551902838, -28676.997563481043, -52631.31739274471, -100486.15640236813, -187500.02235174447, -187500.02235174447, -48131.57595772457, -46680.81363210841, -77968.15967180248, -48819.741466014566, -88594.40250330002, -31664.419968655107, 0.0, 0.0, 0.0, 193.0, 0.0, 1.0, 1.0, 0.0, 0.0, 1.0, 1.0, 256.0, 1.0, 1.75052846318432E9, 0.0, 2025-06-21 19:54:23.184
106.0, -44017.33505932511, -38168.755253405005, -29938.194744371744, -72858.61794455266, -27742.87345920485, -28660.166699906196, -52691.98002719641, -100530.54696685636, -187500.02235174447, -187500.02235174447, -48197.42419688991, -46730.121580376814, -78005.53178853176, -48894.038664584004, -88596.07888413417, -31740.77352771444, 0.0, 0.0, 0.0, 193.0, 0.0, 1.0, 1.0, 0.0, 0.0, 1.0, 1.0, 256.0, 1.0, 1.75052846319125E9, 0.0, 2025-06-21 19:54:23.191
108.0, -43981.54991645216, -38148.68338688414, -29908.221055057176, -72822.29635981278, -27740.459470803675, -28695.527159634494, -52657.22306456841, -100488.79390821385, -187500.02235174447, -187500.02235174447, -48160.63322551647, -46710.60850746733, -77999.31800357318, -48860.15341998976, -88634.3227188972, -31704.586053441293, 0.0, 0.0, 0.0, 193.0, 0.0, 1.0, 1.0, 0.0, 0.0, 1.0, 1.0, 256.0, 1.0, 1.750528463200323E9, 0.0, 2025-06-21 19:54:23.200
110.0, -44049.14159168501, -38209.07780040238, -29958.154852170333, -72883.45073264251, -27741.554706281986, -28671.744903534047, -52680.44652705747, -100524.06496096433, -187500.02235174447, -187500.02235174447, -48189.288161908175, -46731.21681585513, -78006.73878273234, -48885.63440866881, -88611.65805001951, -31730.0893938648, 0.0, 0.0, 0.0, 193.0, 0.0, 1.0, 1.0, 0.0, 0.0, 1.0, 1.0, 256.0, 1.0, 1.750528463208347E9, 0.0, 2025-06-21 19:54:23.208
112.0, -43990.3341520231, -38151.41029970769, -29907.572854467973, -72819.23417082241, -27699.0863918169, -28688.57576710889, -52636.39123873607, -100465.72690793597, -187500.02235174447, -187500.02235174447, -48204.28618243768, -46745.00784218405, -78023.34612886264, -48892.67520817223, -88617.04482043325, -31742.13698412621, 0.0, 0.0, 0.0, 193.0, 0.0, 1.0, 1.0, 0.0, 0.0, 1.0, 1.0, 256.0, 1.0, 1.750528463215379E9, 0.0, 2025-06-21 19:54:23.215
114.0, -44055.84711502161, -38222.28768137547, -29955.11501492441, -72872.78895053732, -27763.63822980383, -28680.931470505177, -52656.88778840158, -100521.82978651879, -187500.02235174447, -187500.02235174447, -48164.94711219634, -46703.075969585894, -77995.87583492706, -48853.53730363099, -88627.14780892704, -31695.041858558878, 0.0, 0.0, 0.0, 193.0, 0.0, 1.0, 1.0, 0.0, 0.0, 1.0, 1.0, 256.0, 1.0, 1.750528463223408E9, 0.0, 2025-06-21 19:54:23.223
116.0, -44070.24163845082, -38230.848399501854, -29957.1713754143, -72883.78600880933, -27758.609087301385, -28662.804205751923, -52666.40963153954, -100525.227251676, -187500.02235174447, -187500.02235174447, -48235.48921769729, -46772.992226242095, -78040.71343430442, -48928.41564755626, -88622.02925944678, -31775.374028131253, 0.0, 0.0, 0.0, 193.0, 0.0, 1.0, 1.0, 0.0, 0.0, 1.0, 1.0, 256.0, 1.0, 1.750528463232462E9, 0.0, 2025-06-21 19:54:23.232
118.0, -44028.60033853058, -38195.35382930683, -29919.329872051465, -72830.1865256055, -27721.996929883593, -28714.615549399325, -52646.65068944105, -100490.02325415889, -187500.02235174447, -187500.02235174447, -48182.00149321574, -46723.66192622923, -78018.9651869494, -48868.62473113832, -88636.915521254, -31713.70556517906, 0.0, 0.0, 0.0, 193.0, 0.0, 1.0, 1.0, 0.0, 0.0, 1.0, 1.0, 256.0, 1.0, 1.750528463240475E9, 0.0, 2025-06-21 19:54:23.240
120.0, -44096.169662018976, -38248.729795066094, -29952.768081756603, -72873.19128193751, -27740.750043481596, -28648.34262708934, -52677.540800278286, -100523.19324293057, -187500.02235174447, -187500.02235174447, -48201.246345191765, -46726.72411521961, -78012.30436710172, -48885.27678075752, -88604.8631197051, -31731.497553765483, 0.0, 0.0, 0.0, 193.0, 0.0, 1.0, 1.0, 0.0, 0.0, 1.0, 1.0, 256.0, 1.0, 1.750528463247533E9, 0.0, 2025-06-21 19:54:23.247
122.0, -44069.92871402844, -38235.13993443727, -29928.49408727814, -72839.99894142139, -27728.657749731276, -28711.665119131223, -52645.39899175156, -100481.19431509904, -187500.02235174447, -187500.02235174447, -48217.652525621954, -46747.71240326314, -78034.63375981257, -48899.224269297636, -88622.45394259143, -31744.28275159392, 0.0, 0.0, 0.0, 193.0, 0.0, 1.0, 1.0, 0.0, 0.0, 1.0, 1.0, 256.0, 1.0, 1.750528463255554E9, 0.0, 2025-06-21 19:54:23.255
124.0, -44099.6118306651, -38256.10587073635, -29935.2666658481, -72852.60532529418, -27735.027996901037, -28702.858531815833, -52624.92479383049, -100474.39938478463, -187500.02235174447, -187500.02235174447, -48159.47093480479, -46697.53273696098, -77995.67466922697, -48839.54511160197, -88614.98845994336, -31682.703695619548, 0.0, 0.0, 0.0, 193.0, 0.0, 1.0, 1.0, 0.0, 0.0, 1.0, 1.0, 256.0, 1.0, 1.75052846326453E9, 0.0, 2025-06-21 19:54:23.264
126.0, -44199.83705280269, -38338.8967321988, -29987.525044384605, -72909.93754982205, -27769.15911068429, -28669.15210117723, -52717.14809145309, -100556.49734216898, -187500.02235174447, -187500.02235174447, -48256.946892374384, -46787.07382524894, -78064.16041423802, -48937.98219418314, -88633.74157354135, -31784.493539869018, 0.0, 0.0, 0.0, 193.0, 0.0, 1.0, 1.0, 0.0, 0.0, 1.0, 1.0, 256.0, 1.0, 1.750528463271625E9, 0.0, 2025-06-21 19:54:23.271
128.0, -44170.24334314386, -38308.163083572756, -29946.12961365338, -72860.00375270889, -27746.82971797344, -28720.091726790874, -52667.951901906956, -100504.68599852157, -187500.02235174447, -187500.02235174447, -48228.02373504922, -46762.59866507038, -78064.29452470476, -48898.39725475279, -88667.55976290224, -31741.309969581365, 0.0, 0.0, 0.0, 193.0, 0.0, 1.0, 1.0, 0.0, 0.0, 1.0, 1.0, 256.0, 1.0, 1.750528463279598E9, 0.0, 2025-06-21 19:54:23.279
130.0, -44254.26355055136, -38370.59150583643, -29982.07121873751, -72910.47399168897, -27757.73736926763, -28680.909118760723, -52699.33375112221, -100540.35938267225, -187500.02235174447, -187500.02235174447, -48236.629156664516, -46766.59962732788, -78055.08560598918, -48909.975458380635, -88629.67355605049, -31754.296333109898, 0.0, 0.0, 0.0, 193.0, 0.0, 1.0, 1.0, 0.0, 0.0, 1.0, 1.0, 256.0, 1.0, 1.750528463287709E9, 0.0, 2025-06-21 19:54:23.287
132.0, -44231.151846784574, -38340.77427873305, -29961.73113128318, -72869.21267142448, -27735.11740387886, -28704.49020916107, -52659.927625647506, -100492.95133268254, -187500.02235174447, -187500.02235174447, -48269.77679369173, -46792.92998229623, -78085.26046100384, -48930.58376676843, -88652.91937028401, -31775.754007786993, 0.0, 0.0, 0.0, 193.0, 0.0, 1.0, 1.0, 0.0, 0.0, 1.0, 1.0, 256.0, 1.0, 1.750528463296701E9, 0.0, 2025-06-21 19:54:23.296
134.0, -44247.13334407012, -38353.4030143503, -29958.40072135934, -72873.45950287099, -27758.989066957125, -28686.877034530287, -52659.637052969585, -100498.33810309626, -187500.02235174447, -187500.02235174447, -48209.36002842904, -46730.05452514345, -78037.36067263612, -48864.84728632537, -88640.2235794334, -31705.457771475052, 0.0, 0.0, 0.0, 193.0, 0.0, 1.0, 1.0, 0.0, 0.0, 1.0, 1.0, 256.0, 1.0, 1.750528463303759E9, 0.0, 2025-06-21 19:54:23.303
136.0, -44280.48214679744, -38384.62840135436, -29991.682468853294, -72914.34084347975, -27765.35931412689, -28667.29690638744, -52696.696245276486, -100535.73257157, -187500.02235174447, -187500.02235174447, -48279.70096822989, -46799.769616099555, -78082.51119643584, -48944.48655181963, -88638.7260125549, -31790.28264168294, 0.0, 0.0, 0.0, 193.0, 0.0, 1.0, 1.0, 0.0, 0.0, 1.0, 1.0, 256.0, 1.0, 1.750528463311782E9, 0.0, 2025-06-21 19:54:23.311
138.0, -44229.766038628346, -38330.894807683806, -29956.523174825095, -72857.99209570792, -27761.805386758493, -28761.576564499923, -52651.81394241023, -100487.72102448, -187500.02235174447, -187500.02235174447, -48238.573758432125, -46759.9388074802, -78067.35671369515, -48896.29619077399, -88669.37025420312, -31738.04661489089, 0.0, 0.0, 0.0, 193.0, 0.0, 1.0, 1.0, 0.0, 0.0, 1.0, 1.0, 256.0, 1.0, 1.750528463320789E9, 0.0, 2025-06-21 19:54:23.320
140.0, -44275.989446161926, -38371.709093059195, -29976.572689601504, -72905.48955267544, -27786.146436470324, -28695.236586956573, -52712.990666984406, -100537.94539427107, -187500.02235174447, -187500.02235174447, -48248.76615390374, -46764.453859860165, -78060.15945198054, -48907.33795253491, -88629.11476243912, -31752.552897042384, 0.0, 0.0, 0.0, 193.0, 0.0, 1.0, 1.0, 0.0, 0.0, 1.0, 1.0, 256.0, 1.0, 1.750528463327824E9, 0.0, 2025-06-21 19:54:23.327
142.0, -44196.84191904568, -38291.466330464646, -29948.565953799007, -72858.61794455266, -27761.380703613842, -28722.326901236404, -52663.01216638234, -100504.19426014356, -187500.02235174447, -187500.02235174447, -48252.11891557204, -46770.131202951816, -78065.45681541644, -48909.10374034688, -88629.40533511703, -31753.983408687523, 0.0, 0.0, 0.0, 193.0, 0.0, 1.0, 1.0, 0.0, 0.0, 1.0, 1.0, 256.0, 1.0, 1.750528463335874E9, 0.0, 2025-06-21 19:54:23.335
144.0, -44198.67476209102, -38311.24762430759, -29977.287945424076, -72897.84525607173, -27802.68672736725, -28697.29294744646, -52700.183117411514, -100537.0289727484, -187500.02235174447, -187500.02235174447, -48222.18992974638, -46747.86886547433, -78047.86599253012, -48884.606228423865, -88658.93198954249, -31727.831867674813, 0.0, 0.0, 0.0, 193.0, 0.0, 1.0, 1.0, 0.0, 0.0, 1.0, 1.0, 256.0, 1.0, 1.750528463343882E9, 0.0, 2025-06-21 19:54:23.343
146.0, -44180.614552571125, -38283.93379258321, -29996.93512880029, -72911.18924751155, -27794.170712729778, -28677.779874536976, -52730.67089684855, -100568.61198766375, -187500.02235174447, -187500.02235174447, -48271.87785767053, -46791.11949099535, -78075.17982425449, -48949.15806641079, -88640.58120734469, -31793.76951381797, 0.0, 0.0, 0.0, 193.0, 0.0, 1.0, 1.0, 0.0, 0.0, 1.0, 1.0, 256.0, 1.0, 1.750528463352942E9, 0.0, 2025-06-21 19:54:23.352
148.0, -44087.51953691478, -38197.96898340809, -29950.197631144245, -72849.36432234816, -27783.933613769248, -28764.191718601196, -52702.12771917912, -100513.67139979261, -187500.02235174447, -187500.02235174447, -48226.749685615265, -46745.790153239985, -78049.67648383099, -48908.56729847995, -88689.2856585128, -31747.27788535093, 0.0, 0.0, 0.0, 193.0, 0.0, 1.0, 1.0, 0.0, 0.0, 1.0, 1.0, 256.0, 1.0, 1.750528463358956E9, 0.0, 2025-06-21 19:54:23.358
150.0, -44096.68375214145, -38201.61231775431, -29958.51248008162, -72883.09310473122, -27798.529302898565, -28672.326048889885, -52712.74479779539, -100505.1777368996, -187500.02235174447, -187500.02235174447, -48205.224955704805, -46725.941804163675, -78016.97588169288, -48890.95412384917, -88621.2693001353, -31731.89988516568, 0.0, 0.0, 0.0, 193.0, 0.0, 1.0, 1.0, 0.0, 0.0, 1.0, 1.0, 256.0, 1.0, 1.750528463367988E9, 0.0, 2025-06-21 19:54:23.367
152.0, -44004.66162021895, -38126.465752895565, -29916.222979572176, -72824.19625809148, -27752.127081409348, -28692.464970644116, -52673.539838020784, -100485.59760875674, -187500.02235174447, -187500.02235174447, -48212.19869997486, -46734.65898450124, -78024.35195736313, -48898.95604836417, -88617.69302102245, -31742.494612037495, 0.0, 0.0, 0.0, 193.0, 0.0, 1.0, 1.0, 0.0, 0.0, 1.0, 1.0, 256.0, 1.0, 1.750528463376029E9, 0.0, 2025-06-21 19:54:23.376
154.0, -44006.896794664484, -38125.50462788399, -29940.228753117175, -72851.80066249378, -27805.637157635352, -28671.16375817821, -52674.05392814326, -100507.23409738948, -187500.02235174447, -187500.02235174447, -48159.359176082515, -46679.40547220773, -77980.94486963093, -48842.4284866367, -88616.28486112176, -31682.055495030345, 0.0, 0.0, 0.0, 193.0, 0.0, 1.0, 1.0, 0.0, 0.0, 1.0, 1.0, 256.0, 1.0, 1.750528463384061E9, 0.0, 2025-06-21 19:54:23.384
156.0, -43997.77728292671, -38127.382174418235, -29954.39975910184, -72875.0017732384, -27786.59347135943, -28655.71870275959, -52694.34931210868, -100522.83561501928, -187500.02235174447, -187500.02235174447, -48230.54948217267, -46752.29451087648, -78034.61140806811, -48924.07940913194, -88617.40244834452, -31768.444987350107, 0.0, 0.0, 0.0, 193.0, 0.0, 1.0, 1.0, 0.0, 0.0, 1.0, 1.0, 256.0, 1.0, 1.750528463392077E9, 0.0, 2025-06-21 19:54:23.392
158.0, -43918.249776154735, -38060.34929279677, -29920.760383696605, -72830.27593258333, -27761.134834424836, -28737.63784618829, -52664.50973326084, -100494.69476875005, -187500.02235174447, -187500.02235174447, -48176.704129779835, -46711.79314992346, -78001.82139895218, -48874.14561201878, -88642.27993992329, -31714.0855448348, 0.0, 0.0, 0.0, 193.0, 0.0, 1.0, 1.0, 0.0, 0.0, 1.0, 1.0, 256.0, 1.0, 1.750528463400109E9, 0.0, 2025-06-21 19:54:23.400
160.0, -43956.15833475094, -38095.59799380279, -29957.059616692022, -72880.36619190767, -27791.35439292841, -28670.940240733653, -52704.5417075803, -100538.0348012489, -187500.02235174447, -187500.02235174447, -48166.712900008315, -46699.723207917596, -77983.11298884309, -48883.64510341229, -88602.87381444858, -31724.65791996216, 0.0, 0.0, 0.0, 193.0, 0.0, 1.0, 1.0, 0.0, 0.0, 1.0, 1.0, 256.0, 1.0, 1.750528463408151E9, 0.0, 2025-06-21 19:54:23.408
162.0, -43885.43741529434, -38028.00631856994, -29927.130630866366, -72833.22636285143, -27778.03275323305, -28716.470744189115, -52676.959654922444, -100500.8191467308, -187500.02235174447, -187500.02235174447, -48211.505795896745, -46739.10698164785, -78024.88839923005, -48923.78883645402, -88640.08946896666, -31763.594658803304, 0.0, 0.0, 0.0, 193.0, 0.0, 1.0, 1.0, 0.0, 0.0, 1.0, 1.0, 256.0, 1.0, 1.750528463415168E9, 0.0, 2025-06-21 19:54:23.415
164.0, -43883.24694433772, -38033.46014421703, -29918.435802273252, -72842.9493716895, -27812.02975654957, -28682.406685639227, -52689.99072193989, -100516.93475448308, -187500.02235174447, -187500.02235174447, -48144.58467299756, -46677.4161669512, -77968.38318924703, -48851.9279780302, -88626.36549787111, -31689.99036431198, 0.0, 0.0, 0.0, 193.0, 0.0, 1.0, 1.0, 0.0, 0.0, 1.0, 1.0, 256.0, 1.0, 1.7505284634242E9, 0.0, 2025-06-21 19:54:23.424
166.0, -43887.67258973987, -38037.10347856325, -29936.20543911522, -72861.88129924313, -27804.40781169031, -28682.58549959487, -52704.56405932475, -100530.18933894509, -187500.02235174447, -187500.02235174447, -48194.11613871052, -46732.781437967, -78004.12362863107, -48910.55660373648, -88595.74360796734, -31757.55968780037, 0.0, 0.0, 0.0, 193.0, 0.0, 1.0, 1.0, 0.0, 0.0, 1.0, 1.0, 256.0, 1.0, 1.750528463432222E9, 0.0, 2025-06-21 19:54:23.432
168.0, -43829.93803381181, -37987.88493727266, -29910.858560902903, -72819.48004001142, -27768.086226950436, -28717.118944778318, -52637.44177072546, -100474.86877141819, -187500.02235174447, -187500.02235174447, -48144.71878346429, -46683.56289667641, -77967.60087819111, -48856.644196110276, -88629.94177698395, -31693.52193993592, 0.0, 0.0, 0.0, 193.0, 0.0, 1.0, 1.0, 0.0, 0.0, 1.0, 1.0, 256.0, 1.0, 1.7505284634393E9, 0.0, 2025-06-21 19:54:23.439
170.0, -43897.03797066665, -38045.3289205228, -29962.334628383476, -72890.93856703503, -27809.861637337406, -28666.67105754269, -52703.33471337971, -100543.86860655172, -187500.02235174447, -187500.02235174447, -48183.45435660534, -46722.20906283964, -77994.26650932629, -48896.16208030726, -88613.4685413204, -31740.61706550325, 0.0, 0.0, 0.0, 193.0, 0.0, 1.0, 1.0, 0.0, 0.0, 1.0, 1.0, 256.0, 1.0, 1.750528463447256E9, 0.0, 2025-06-21 19:54:23.447
172.0, -43800.14315845289, -37961.554582304314, -29884.125874534355, -72800.70457466895, -27758.564383812474, -28679.568014093402, -52655.36786977862, -100479.54028600936, -187500.02235174447, -187500.02235174447, -48182.91791473841, -46724.466589029624, -77996.70284947191, -48908.81316766896, -88623.05743969172, -31748.641341762705, 0.0, 0.0, 0.0, 193.0, 0.0, 1.0, 1.0, 0.0, 0.0, 1.0, 1.0, 256.0, 1.0, 1.750528463456228E9, 0.0, 2025-06-21 19:54:23.456
174.0, -43845.114868296965, -38010.281385216884, -29913.719584193183, -72838.5907815207, -27785.475884136664, -28679.545662348948, -52691.577695796215, -100522.76855978592, -187500.02235174447, -187500.02235174447, -48095.5002421737, -46639.86523626628, -77922.76327881376, -48826.89402424026, -88596.10123587862, -31662.45301514304, 0.0, 0.0, 0.0, 193.0, 0.0, 1.0, 1.0, 0.0, 0.0, 1.0, 1.0, 256.0, 1.0, 1.750528463466313E9, 0.0, 2025-06-21 19:54:23.466
176.0, -43851.08278406654, -38010.54960615034, -29922.593226741938, -72850.52661305983, -27795.26594820809, -28675.544700091446, -52679.70891949045, -100526.12132145421, -187500.02235174447, -187500.02235174447, -48174.91599022341, -46723.66192622923, -77987.47157901188, -48909.3943130248, -88593.24021258834, -31754.69866451009, 0.0, 0.0, 0.0, 193.0, 0.0, 1.0, 1.0, 0.0, 0.0, 1.0, 1.0, 256.0, 1.0, 1.750528463472344E9, 0.0, 2025-06-21 19:54:23.472
178.0, -43824.774780842636, -37988.13080646167, -29913.607825470906, -72830.67826398353, -27770.790788029528, -28752.25588706206, -52684.84982071517, -100499.65685601912, -187500.02235174447, -187500.02235174447, -48144.964652653296, -46683.451137954136, -77967.69028516892, -48861.785097335, -88632.0204892183, -31699.623966172217, 0.0, 0.0, 0.0, 193.0, 0.0, 1.0, 1.0, 0.0, 0.0, 1.0, 1.0, 256.0, 1.0, 1.750528463479369E9, 0.0, 2025-06-21 19:54:23.479
180.0, -43847.32769099804, -38006.61569912621, -29905.270624789075, -72842.30117110029, -27786.30289868151, -28635.915057172188, -52696.74094876539, -100534.41381864712, -187500.02235174447, -187500.02235174447, -48151.401955056426, -46695.76694914901, -77966.86327062408, -48873.408004451754, -88589.32865730867, -31716.745402424982, 0.0, 0.0, 0.0, 193.0, 0.0, 1.0, 1.0, 0.0, 0.0, 1.0, 1.0, 256.0, 1.0, 1.750528463488458E9, 0.0, 2025-06-21 19:54:23.488
182.0, -43822.67371686384, -37985.85092852723, -29914.92657839377, -72834.63452275211, -27790.92970978376, -28733.45806997515, -52680.06654740174, -100497.57814378479, -187500.02235174447, -187500.02235174447, -48167.45050757534, -46713.11190284633, -77984.78936967724, -48896.854984385376, -88612.26154711981, -31737.309007323864, 0.0, 0.0, 0.0, 193.0, 0.0, 1.0, 1.0, 0.0, 0.0, 1.0, 1.0, 256.0, 1.0, 1.750528463495367E9, 0.0, 2025-06-21 19:54:23.495
184.0, -43836.375336214944, -37996.53506237687, -29915.619482471884, -72840.6918454995, -27792.673145851273, -28668.749769777034, -52707.33567563721, -100525.94250749858, -187500.02235174447, -187500.02235174447, -48119.68482967435, -46667.87197206879, -77948.37837795954, -48843.65783258174, -88614.16144539851, -31682.726047364005, 0.0, 0.0, 0.0, 193.0, 0.0, 1.0, 1.0, 0.0, 0.0, 1.0, 1.0, 256.0, 1.0, 1.7505284635035E9, 0.0, 2025-06-21 19:54:23.503
186.0, -43876.720234956774, -38034.756545395445, -29957.774872514594, -72883.74130532042, -27812.61090190541, -28665.553470319926, -52743.70196386599, -100557.86079858075, -187500.02235174447, -187500.02235174447, -48188.28233340768, -46729.00399315405, -77995.54055876024, -48928.706220234184, -88612.0156779308, -31771.306010640386, 0.0, 0.0, 0.0, 193.0, 0.0, 1.0, 1.0, 0.0, 0.0, 1.0, 1.0, 256.0, 1.0, 1.75052846351243E9, 0.0, 2025-06-21 19:54:23.512
188.0, -43830.854455334484, -37997.719704833, -29925.92363666578, -72838.03198790931, -27776.065799720982, -28725.143221037775, -52682.48053580291, -100499.9697804415, -187500.02235174447, -187500.02235174447, -48175.31832162361, -46714.25184181355, -78000.59205300713, -48899.40308325328, -88669.21379199193, -31734.9397224116, 0.0, 0.0, 0.0, 193.0, 0.0, 1.0, 1.0, 0.0, 0.0, 1.0, 1.0, 256.0, 1.0, 1.750528463520484E9, 0.0, 2025-06-21 19:54:23.520
190.0, -43873.702749455304, -38033.01310932793, -29942.0168926736, -72875.09118021622, -27801.792657589038, -28660.367865606295, -52702.10536743467, -100531.46338837904, -187500.02235174447, -187500.02235174447, -48162.46606856181, -46705.601716709345, -77973.97112536087, -48884.82974586842, -88600.54923302523, -31726.893094407693, 0.0, 0.0, 0.0, 193.0, 0.0, 1.0, 1.0, 0.0, 0.0, 1.0, 1.0, 256.0, 1.0, 1.750528463527511E9, 0.0, 2025-06-21 19:54:23.527
192.0, -43824.46185642026, -37991.058884985316, -29917.34056679494, -72835.75210997488, -27803.580797145463, -28719.912912835232, -52680.826506713216, -100491.69963499304, -187500.02235174447, -187500.02235174447, -48180.23570540377, -46722.34317330637, -77992.79129419224, -48914.244641571604, -88635.12738169759, -31751.18944063061, 0.0, 0.0, 0.0, 193.0, 0.0, 1.0, 1.0, 0.0, 0.0, 1.0, 1.0, 256.0, 1.0, 1.750528463535576E9, 0.0, 2025-06-21 19:54:23.535
194.0, -43851.23924627772, -38014.885844574674, -29924.604883742915, -72847.97851419193, -27776.82575903246, -28691.39208691026, -52698.66319878855, -100513.35847537023, -187500.02235174447, -187500.02235174447, -48123.46227448729, -46668.45311742462, -77951.23940124983, -48840.7297540581, -88612.08273316416, -31678.479215917498, 0.0, 0.0, 0.0, 193.0, 0.0, 1.0, 1.0, 0.0, 0.0, 1.0, 1.0, 256.0, 1.0, 1.750528463544556E9, 0.0, 2025-06-21 19:54:23.544
196.0, -43867.66777845237, -38025.61468191322, -29941.905133951324, -72865.61404056718, -27788.13574172685, -28668.01216221001, -52731.83318756022, -100541.72283908402, -187500.02235174447, -187500.02235174447, -48197.87123177901, -46734.03313565649, -77996.72520121637, -48922.17951085324, -88611.63569827506, -31761.404187846685, 0.0, 0.0, 0.0, 193.0, 0.0, 1.0, 1.0, 0.0, 0.0, 1.0, 1.0, 256.0, 1.0, 1.750528463551587E9, 0.0, 2025-06-21 19:54:23.551
198.0, -43805.59698409998, -37971.03172195336, -29896.464037473685, -72805.57725496021, -27767.39332287232, -28698.85756955833, -52690.437756829, -100485.57525701229, -187500.02235174447, -187500.02235174447, -48126.59151871104, -46673.12463201578, -77955.95561932989, -48849.156361717745, -88620.06230593471, -31681.854329330246, 0.0, 0.0, 0.0, 193.0, 0.0, 1.0, 1.0, 0.0, 0.0, 1.0, 1.0, 256.0, 1.0, 1.75052846355961E9, 0.0, 2025-06-21 19:54:23.559
200.0, -43891.22651710827, -38053.04027235988, -29965.173299929298, -72888.18930246703, -27819.98697757566, -28656.925696960177, -52767.1042403107, -100575.92100810063, -187500.02235174447, -187500.02235174447, -48177.15116466894, -46718.52102500451, -77986.68926795594, -48907.6955804462, -88632.19930317394, -31740.170030614143, 0.0, 0.0, 0.0, 193.0, 0.0, 1.0, 1.0, 0.0, 0.0, 1.0, 1.0, 256.0, 1.0, 1.750528463567623E9, 0.0, 2025-06-21 19:54:23.567
202.0, -43839.70574613878, -38002.167701979604, -29920.961549396703, -72828.59955174918, -27808.051146036523, -28718.795325612467, -52723.98772525641, -100520.04164696237, -187500.02235174447, -187500.02235174447, -48181.48740309327, -46716.643478470265, -77989.93027090195, -48911.6965427037, -88632.55693108523, -31744.550972527384, 0.0, 0.0, 0.0, 193.0, 0.0, 1.0, 1.0, 0.0, 0.0, 1.0, 1.0, 256.0, 1.0, 1.750528463576646E9, 0.0, 2025-06-21 19:54:23.576
204.0, -43828.060487277566, -37999.84312055625, -29900.68851717574, -72825.15738310307, -27773.31653515298, -28663.7653307635, -52693.32113186373, -100511.36917011371, -187500.02235174447, -187500.02235174447, -48107.72664639076, -46655.824381807375, -77937.47072666536, -48830.89498649776, -88605.24309936084, -31662.65418084314, 0.0, 0.0, 0.0, 193.0, 0.0, 1.0, 1.0, 0.0, 0.0, 1.0, 1.0, 256.0, 1.0, 1.75052846358367E9, 0.0, 2025-06-21 19:54:23.583
206.0, -43878.39661579092, -38039.226894286505, -29953.25982013462, -72876.2534709279, -27796.092962752937, -28674.516519846504, -52738.53871089682, -100548.83069382081, -187500.02235174447, -187500.02235174447, -48189.13169969698, -46730.79213271048, -77988.67857321246, -48925.48756903262, -88611.07690466367, -31762.90175472519, 0.0, 0.0, 0.0, 193.0, 0.0, 1.0, 1.0, 0.0, 0.0, 1.0, 1.0, 256.0, 1.0, 1.750528463591707E9, 0.0, 2025-06-21 19:54:23.591
208.0, -43829.84862683399, -38000.468969401, -29915.86535166089, -72833.06990064024, -27786.526416126064, -28723.176267525705, -52705.45812910296, -100507.16704215611, -187500.02235174447, -187500.02235174447, -48156.3193388366, -46693.375312492295, -77980.27431729727, -48875.285550986, -88642.23523643437, -31710.17398955512, 0.0, 0.0, 0.0, 193.0, 0.0, 1.0, 1.0, 0.0, 0.0, 1.0, 1.0, 256.0, 1.0, 1.750528463599738E9, 0.0, 2025-06-21 19:54:23.599
210.0, -43868.98653137524, -38032.0743360608, -29936.518363537594, -72874.91236626057, -27805.525398913076, -28635.110394371797, -52738.18108298553, -100546.32729844181, -187500.02235174447, -187500.02235174447, -48152.25132134573, -46703.27713528599, -77967.06443632417, -48891.33410350491, -88606.58420402816, -31730.737594454004, 0.0, 0.0, 0.0, 193.0, 0.0, 1.0, 1.0, 0.0, 0.0, 1.0, 1.0, 256.0, 1.0, 1.750528463607842E9, 0.0, 2025-06-21 19:54:23.607
212.0, -43852.49094396722, -38021.07727778879, -29958.64659054835, -72868.76563653536, -27814.488448439653, -28721.701052391658, -52720.38909439911, -100523.34970514175, -187500.02235174447, -187500.02235174447, -48189.57873458609, -46733.072010644915, -78001.01673615178, -48928.59446151191, -88638.05546022124, -31766.634496049228, 0.0, 0.0, 0.0, 193.0, 0.0, 1.0, 1.0, 0.0, 0.0, 1.0, 1.0, 256.0, 1.0, 1.750528463615749E9, 0.0, 2025-06-21 19:54:23.615
214.0, -43882.12935711496, -38056.214220072536, -29970.336552898476, -72893.64312811413, -27819.1152595419, -28696.532988134983, -52745.31128946678, -100542.66161235113, -187500.02235174447, -187500.02235174447, -48164.99181568525, -46712.41899876821, -77992.0089831363, -48896.564411707455, -88671.53837341529, -31729.061213619854, 0.0, 0.0, 0.0, 193.0, 0.0, 1.0, 1.0, 0.0, 0.0, 1.0, 1.0, 256.0, 1.0, 1.750528463623842E9, 0.0, 2025-06-21 19:54:23.623
216.0, -43880.02829313616, -38038.98102509749, -29952.052825934035, -72876.27582267235, -27799.60218663242, -28649.90724920121, -52752.48619943693, -100559.67128988163, -187500.02235174447, -187500.02235174447, -48214.21035697584, -46758.62005455733, -78014.04780316923, -48951.95203446771, -88628.51126533882, -31788.785074804437, 0.0, 0.0, 0.0, 193.0, 0.0, 1.0, 1.0, 0.0, 0.0, 1.0, 1.0, 256.0, 1.0, 1.750528463632873E9, 0.0, 2025-06-21 19:54:23.632
218.0, -43849.741679399216, -38019.40089695465, -29947.53777355406, -72844.60340077917, -27828.301826513034, -28734.553305453457, -52703.602934313174, -100520.93571674058, -187500.02235174447, -187500.02235174447, -48165.88588546347, -46697.44332998316, -77988.81268367919, -48888.62954242582, -88656.8756290526, -31715.784277413404, 0.0, 0.0, 0.0, 193.0, 0.0, 1.0, 1.0, 0.0, 0.0, 1.0, 1.0, 256.0, 1.0, 1.750528463639947E9, 0.0, 2025-06-21 19:54:23.639
220.0, -43916.282822642665, -38076.82252846033, -29969.30837265353, -72904.21550324149, -27816.45540195172, -28680.171511193697, -52783.82334516327, -100587.65567393968, -187500.02235174447, -187500.02235174447, -48191.50098460925, -46732.42381005571, -78000.79321870723, -48922.67124923125, -88641.00589048934, -31754.117519154253, 0.0, 0.0, 0.0, 193.0, 0.0, 1.0, 1.0, 0.0, 0.0, 1.0, 1.0, 256.0, 1.0, 1.750528463647946E9, 0.0, 2025-06-21 19:54:23.647
222.0, -43857.4530312363, -38020.965519066514, -29938.68648274976, -72851.28657237132, -27811.18039026027, -28700.690412603668, -52723.40657990058, -100523.30500165284, -187500.02235174447, -187500.02235174447, -48197.468900378815, -46737.92233919172, -78008.19164612194, -48929.287365590026, -88637.00492823184, -31764.175804159142, 0.0, 0.0, 0.0, 193.0, 0.0, 1.0, 1.0, 0.0, 0.0, 1.0, 1.0, 256.0, 1.0, 1.750528463656088E9, 0.0, 2025-06-21 19:54:23.656
224.0, -43853.63088293444, -38018.50682717643, -29931.891552435347, -72854.95225846198, -27803.35727970091, -28678.696296059647, -52731.363800926665, -100533.0280104909, -187500.02235174447, -187500.02235174447, -48146.95395790982, -46687.94383858965, -77974.21699454988, -48873.31859747393, -88643.66574807951, -31702.440285973586, 0.0, 0.0, 0.0, 193.0, 0.0, 1.0, 1.0, 0.0, 0.0, 1.0, 1.0, 256.0, 1.0, 1.750528463663998E9, 0.0, 2025-06-21 19:54:23.663
226.0, -43937.829904297585, -38090.56885130034, -29975.991544245666, -72898.78402933884, -27837.734262673173, -28672.035476211964, -52761.292786752325, -100578.46910696854, -187500.02235174447, -187500.02235174447, -48202.721560325816, -46742.70561250515, -77999.27330008427, -48937.4010488273, -88616.64248903305, -31773.138853685723, 0.0, 0.0, 0.0, 193.0, 0.0, 1.0, 1.0, 0.0, 0.0, 1.0, 1.0, 256.0, 1.0, 1.750528463672054E9, 0.0, 2025-06-21 19:54:23.672
228.0, -43913.95824121931, -38078.05187440537, -29936.719529237693, -72845.83274672422, -27802.97730004517, -28730.373529240314, -52710.35316113868, -100508.84342299026, -187500.02235174447, -187500.02235174447, -48184.54959208365, -46714.07302785791, -78003.85540769761, -48893.50222271708, -88657.926161042, -31723.920312395134, 0.0, 0.0, 0.0, 193.0, 0.0, 1.0, 1.0, 0.0, 0.0, 1.0, 1.0, 256.0, 1.0, 1.750528463679999E9, 0.0, 2025-06-21 19:54:23.679
230.0, -44013.42350404543, -38163.70375915811, -29973.30933491103, -72907.79178235434, -27816.187181018257, -28650.28722885695, -52750.29572848031, -100565.1921707621, -187500.02235174447, -187500.02235174447, -48193.24442067676, -46731.70855423314, -78001.2626053408, -48910.80247292548, -88623.19155015846, -31747.881382451225, 0.0, 0.0, 0.0, 193.0, 0.0, 1.0, 1.0, 0.0, 0.0, 1.0, 1.0, 256.0, 1.0, 1.750528463688101E9, 0.0, 2025-06-21 19:54:23.688
232.0, -44012.75295171177, -38166.6094859373, -29950.59996254444, -72867.11160744568, -27801.144456999835, -28702.7244213491, -52716.477539119434, -100519.68401905108, -187500.02235174447, -187500.02235174447, -48228.62723214951, -46760.005862713566, -78032.75621327832, -48933.48949354762, -88635.2167886754, -31772.557708329885, 0.0, 0.0, 0.0, 193.0, 0.0, 1.0, 1.0, 0.0, 0.0, 1.0, 1.0, 256.0, 1.0, 1.750528463695105E9, 0.0, 2025-06-21 19:54:23.695
234.0, -44102.53990918874, -38247.00871074304, -29973.622259333406, -72893.82194206977, -27814.89077983985, -28690.29685143195, -52749.62517614665, -100546.95314728656, -187500.02235174447, -187500.02235174447, -48180.749795526244, -46713.80480692444, -78005.44238155393, -48880.135879532805, -88647.66671033701, -31713.37028901223, 0.0, 0.0, 0.0, 193.0, 0.0, 1.0, 1.0, 0.0, 0.0, 1.0, 1.0, 256.0, 1.0, 1.750528463704092E9, 0.0, 2025-06-21 19:54:23.704
236.0, -44178.111157192136, -38306.57610971643, -29998.74562010117, -72919.97348308247, -27828.190067790758, -28655.182260892663, -52750.11691452467, -100568.52258068592, -187500.02235174447, -187500.02235174447, -48270.22382858084, -46796.483909664625, -78064.49569040486, -48966.65948231929, -88640.35768990013, -31804.09601975632, 0.0, 0.0, 0.0, 193.0, 0.0, 1.0, 1.0, 0.0, 0.0, 1.0, 1.0, 256.0, 1.0, 1.750528463712163E9, 0.0, 2025-06-21 19:54:23.712
238.0, -44173.774918767806, -38304.27388003754, -29954.802090502035, -72865.5469853338, -27805.4136401908, -28703.7749533385, -52666.25316932835, -100500.79679498635, -187500.02235174447, -187500.02235174447, -48224.246290236275, -46745.41017358425, -78043.66386457252, -48900.07363558694, -88664.56462914523, -31733.039824132902, 0.0, 0.0, 0.0, 193.0, 0.0, 1.0, 1.0, 0.0, 0.0, 1.0, 1.0, 256.0, 1.0, 1.750528463719185E9, 0.0, 2025-06-21 19:54:23.719
240.0, -44330.77357182188, -38442.877047404894, -30021.36558548994, -72958.88787017917, -27849.446576767754, -28677.332839647872, -52797.48026102546, -100627.10650290329, -187500.02235174447, -187500.02235174447, -48267.47456401284, -46793.28761020752, -78072.25174573086, -48939.412705828276, -88650.14775397156, -31778.1009409548, 0.0, 0.0, 0.0, 193.0, 0.0, 1.0, 1.0, 0.0, 0.0, 1.0, 1.0, 256.0, 1.0, 1.750528463727229E9, 0.0, 2025-06-21 19:54:23.727
242.0, -44323.82217929628, -38431.18708505477, -30003.75241085916, -72916.24074175845, -27823.65266366633, -28733.502773464057, -52748.03820229032, -100569.10372604177, -187500.02235174447, -187500.02235174447, -48310.09934068911, -46828.446904235716, -78115.25650206287, -48978.8635347919, -88677.41688220704, -31817.14943851822, 0.0, 0.0, 0.0, 193.0, 0.0, 1.0, 1.0, 0.0, 0.0, 1.0, 1.0, 256.0, 1.0, 1.750528463736283E9, 0.0, 2025-06-21 19:54:23.736
244.0, -44358.64619715765, -38467.75453898365, -29999.17030324582, -72919.19117202653, -27821.149268287336, -28690.25214794304, -52736.08001900674, -100562.37585096071, -187500.02235174447, -187500.02235174447, -48251.02368009373, -46766.06318546095, -78072.51996666432, -48908.29907754649, -88668.94557105847, -31743.075757393333, 0.0, 0.0, 0.0, 193.0, 0.0, 1.0, 1.0, 0.0, 0.0, 1.0, 1.0, 256.0, 1.0, 1.7505284637443E9, 0.0, 2025-06-21 19:54:23.744
246.0, -44410.546947782874, -38517.30835644106, -30028.89812337138, -72951.13181485317, -27811.403907704822, -28680.99852573854, -52749.401658702096, -100574.82577262232, -187500.02235174447, -187500.02235174447, -48324.493864118325, -46834.32541302746, -78115.77059218533, -48989.2123924747, -88662.26239946633, -31827.87827585677, 0.0, 0.0, 0.0, 193.0, 0.0, 1.0, 1.0, 0.0, 0.0, 1.0, 1.0, 256.0, 1.0, 1.750528463751317E9, 0.0, 2025-06-21 19:54:23.751
248.0, -44360.59079892526, -38478.63983853338, -29971.051808721044, -72883.36132566468, -27786.414657403788, -28706.099534761852, -52694.37166385313, -100511.72679802499, -187500.02235174447, -187500.02235174447, -48269.91090415847, -46784.74924382559, -78091.40719072905, -48919.765522452064, -88673.2818094828, -31753.42461507614, 0.0, 0.0, 0.0, 193.0, 0.0, 1.0, 1.0, 0.0, 0.0, 1.0, 1.0, 256.0, 1.0, 1.750528463759355E9, 0.0, 2025-06-21 19:54:23.759
250.0, -44489.09097779882, -38597.729932991264, -30054.937905661813, -72985.95583271455, -27837.55544871753, -28663.58651680786, -52790.17124058858, -100612.3990550517, -187500.02235174447, -187500.02235174447, -48299.97400045085, -46821.74138089912, -78109.19917931547, -48957.33880488143, -88665.61516113463, -31795.62470860776, 0.0, 0.0, 0.0, 193.0, 0.0, 1.0, 1.0, 0.0, 0.0, 1.0, 1.0, 256.0, 1.0, 1.750528463768332E9, 0.0, 2025-06-21 19:54:23.768
252.0, -44431.15525617066, -38552.95938884728, -30009.02742255061, -72924.06385231779, -27809.74987861513, -28705.07135451691, -52733.48721664992, -100542.90748154015, -187500.02235174447, -187500.02235174447, -48338.93309103645, -46856.90067492732, -78147.26420012287, -48997.728407112176, -88694.53831845979, -31835.142592804743, 0.0, 0.0, 0.0, 193.0, 0.0, 1.0, 1.0, 0.0, 0.0, 1.0, 1.0, 256.0, 1.0, 1.750528463775401E9, 0.0, 2025-06-21 19:54:23.775
254.0, -44472.08130026833, -38600.92623244837, -30021.432640723306, -72939.77712866988, -27813.34850947243, -28708.021784785007, -52707.872117504136, -100551.80347583337, -187500.02235174447, -187500.02235174447, -48268.1898198354, -46788.102005493885, -78092.94946109646, -48903.44874899969, -88664.6763878675, -31737.37606255723, 0.0, 0.0, 0.0, 193.0, 0.0, 1.0, 1.0, 0.0, 0.0, 1.0, 1.0, 256.0, 1.0, 1.750528463783493E9, 0.0, 2025-06-21 19:54:23.783
0.0, -44515.80131242291, -38642.41107015742, -30056.52487951814, -72981.10550416775, -27832.88393412637, -28670.604964566824, -52757.850618106204, -100591.90250538618, -187500.02235174447, -187500.02235174447, -48364.34702448214, -46879.49828857163, -78162.12811018564, -49009.97716307368, -88681.61901016462, -31849.67122670069, 0.0, 0.0, 0.0, 193.0, 0.0, 1.0, 1.0, 0.0, 0.0, 1.0, 1.0, 256.0, 1.0, 1.750528463791495E9, 0.0, 2025-06-21 19:54:23.791
2.0, -44467.879172310735, -38602.692020260336, -30001.316070713532, -72913.89380859063, -27786.30289868151, -28713.20738949864, -52715.78463504132, -100530.70342906755, -187500.02235174447, -187500.02235174447, -48312.91566049048, -46831.21852054817, -78141.69861575348, -48944.71006926418, -88694.9853533489, -31780.224356678053, 0.0, 0.0, 0.0, 193.0, 0.0, 1.0, 1.0, 0.0, 0.0, 1.0, 1.0, 256.0, 1.0, 1.750528463800489E9, 0.0, 2025-06-21 19:54:23.800
4.0, -44578.96734225361, -38707.45464652236, -30084.978650209745, -73008.4863911255, -27842.94221913126, -28667.140444176253, -52772.51336246888, -100610.0968253728, -187500.02235174447, -187500.02235174447, -48332.585195611144, -46848.89875041232, -78143.8443832212, -48965.139563696335, -88670.84546933718, -31802.509045899995, 0.0, 0.0, 0.0, 193.0, 0.0, 1.0, 1.0, 0.0, 0.0, 1.0, 1.0, 256.0, 1.0, 1.750528463807491E9, 0.0, 2025-06-21 19:54:23.807
6.0, -44503.93253611714, -38631.704584563326, -30030.283931527607, -72938.63718970265, -27813.773192617085, -28704.69137486117, -52716.745760052894, -100540.3817344167, -187500.02235174447, -187500.02235174447, -48369.53262919577, -46876.123175158886, -78173.3039824133, -48997.23666873416, -88695.52179521583, -31832.281569514464, 0.0, 0.0, 0.0, 193.0, 0.0, 1.0, 1.0, 0.0, 0.0, 1.0, 1.0, 256.0, 1.0, 1.750528463815568E9, 0.0, 2025-06-21 19:54:23.815
8.0, -44541.17054237969, -38670.440157704375, -30048.835879425515, -72971.89658545215, -27842.249315053145, -28656.657476026714, -52747.01002204538, -100566.26505449595, -187500.02235174447, -187500.02235174447, -48307.61829705457, -46824.8035698895, -78134.81427846126, -48936.86460696037, -88700.52858597382, -31767.10388268279, 0.0, 0.0, 0.0, 193.0, 0.0, 1.0, 1.0, 0.0, 0.0, 1.0, 1.0, 256.0, 1.0, 1.750528463824544E9, 0.0, 2025-06-21 19:54:23.824
10.0, -44562.62821705678, -38684.92408811142, -30054.110891116965, -72980.70317276755, -27821.55159968753, -28647.04622591093, -52775.57555145926, -100592.4389472531, -187500.02235174447, -187500.02235174447, -48381.20023980144, -46903.727579561186, -78180.30007842781, -49017.10736955493, -88684.2341642659, -31854.610962225317, 0.0, 0.0, 0.0, 193.0, 0.0, 1.0, 1.0, 0.0, 0.0, 1.0, 1.0, 256.0, 1.0, 1.750528463831616E9, 0.0, 2025-06-21 19:54:23.831
