%OpenBCI Raw EXG Data
%Number of channels = 16
%Sample Rate = 125 Hz
%Board = OpenBCI_GUI$BoardCytonSerialDaisy
Sample Index, EXG Channel 0, EXG Channel 1, EXG Channel 2, EXG Channel 3, EXG Channel 4, EXG Channel 5, EXG Channel 6, EXG Channel 7, EXG Channel 8, EXG Channel 9, EXG Channel 10, EXG Channel 11, EXG Channel 12, EXG Channel 13, EXG Channel 14, EXG Channel 15, Accel Channel 0, Accel Channel 1, Accel Channel 2, Not Used, Digital Channel 0 (D11), Digital Channel 1 (D12), Digital Channel 2 (D13), Digital Channel 3 (D17), Not Used, Digital Channel 4 (D18), Analog Channel 0, Analog Channel 1, Analog Channel 2, Timestamp, Marker Channel, Timestamp (Formatted)
0.0, -43338.31141451734, -40420.78291425502, -28502.74336370747, -68622.71650108296, -28979.08138979452, -28163.1980136869, -51863.13263930472, -98575.26106539501, 0.0, 0.0, 0.0, 0.0, 0.0, 0.0, 0.0, 0.0, 0.0, 0.0, 0.0, 193.0, 0.0, 0.5, 0.5, 0.0, 0.0, 0.5, 0.5, 128.0, 0.5, 1.750525416751908E9, 0.0, 2025-06-21 19:03:36.751
50.0, -43322.53108293189, -40409.294117604986, -28497.669517716113, -68611.31711141075, -28973.49345368069, -28198.133790270545, -51839.21627273754, -98556.97733843057, -187500.02235174447, -187500.02235174447, -44466.87334381024, -43547.23316994109, -77707.18070354233, -46828.290442024525, -85284.9808675028, -30001.85251258046, 0.0, 0.0, 0.0, 193.0, 0.0, 1.0, 1.0, 0.0, 0.0, 1.0, 1.0, 256.0, 1.0, 1.750525416751945E9, 0.0, 2025-06-21 19:03:36.751
0.0, -21514.135183588885, -20026.33601741028, -14077.68745156377, -34146.670597394776, -14184.864066226968, -14365.46616142585, -25813.225008633737, -49180.16334535639, -93750.01117587223, -93750.01117587223, -22232.83317480483, -21779.182169339918, -38852.18219187047, -23417.319168724916, -42639.30531016652, -15002.580285379921, 0.0, 0.0, 0.0, 193.0, 0.0, 1.0, 1.0, 0.0, 0.0, 1.0, 1.0, 256.0, 1.0, 1.75052541685505E9, 0.0, 2025-06-21 19:03:36.855
2.0, -43006.52211982276, -40029.895607220606, -28132.956103438868, -68269.84951136704, -28339.866201861645, -28755.429834774714, -51616.6823049405, -98347.13916148414, -187500.02235174447, -187500.02235174447, -44081.17164148947, -43199.1941570275, -77256.2342591565, -46505.01716196742, -85124.51769405814, -29596.503626883463, 0.0, 0.0, 0.0, 193.0, 0.0, 1.0, 1.0, 0.0, 0.0, 1.0, 1.0, 256.0, 1.0, 1.750525416862069E9, 0.0, 2025-06-21 19:03:36.862
4.0, -43004.44340758841, -40031.32611886575, -28138.499336063785, -68268.62016542199, -28309.22196021342, -28727.847782116867, -51615.25179329536, -98350.53662664136, -187500.02235174447, -187500.02235174447, -44061.39034764652, -43174.45077591548, -77246.44419508507, -46470.23784759496, -85121.45550506777, -29564.09359742327, 0.0, 0.0, 0.0, 193.0, 0.0, 1.0, 1.0, 0.0, 0.0, 1.0, 1.0, 256.0, 1.0, 1.7505254168701E9, 0.0, 2025-06-21 19:03:36.870
6.0, -43003.37052385456, -40023.21243562847, -28135.86183021806, -68267.12259854349, -28289.664183815028, -28709.944034808166, -51632.50734001486, -98352.16830398659, -187500.02235174447, -187500.02235174447, -44081.43986242293, -43191.885136590616, -77243.49376481697, -46507.36409513523, -85109.51967352864, -29594.983708260504, 0.0, 0.0, 0.0, 193.0, 0.0, 1.0, 1.0, 0.0, 0.0, 1.0, 1.0, 256.0, 1.0, 1.750525416878156E9, 0.0, 2025-06-21 19:03:36.878
8.0, -42992.55227953819, -40020.21730187146, -28137.918190707947, -68259.38889496194, -28321.403660941563, -28746.69030269269, -51610.088540326185, -98342.53470212636, -187500.02235174447, -187500.02235174447, -44055.95887374388, -43167.94641827899, -77238.5316775479, -46475.8704871977, -85125.72468825874, -29568.452187592055, 0.0, 0.0, 0.0, 193.0, 0.0, 1.0, 1.0, 0.0, 0.0, 1.0, 1.0, 256.0, 1.0, 1.750525416887156E9, 0.0, 2025-06-21 19:03:36.887
10.0, -43004.84573898861, -40029.0015374424, -28124.82006845714, -68265.28975549815, -28322.99063479789, -28736.095575820873, -51619.90095614207, -98347.94382428454, -187500.02235174447, -187500.02235174447, -44067.13474597153, -43178.29527596179, -77238.64343627017, -46490.24265888246, -85118.81799922204, -29579.873929008714, 0.0, 0.0, 0.0, 193.0, 0.0, 1.0, 1.0, 0.0, 0.0, 1.0, 1.0, 256.0, 1.0, 1.750525416895195E9, 0.0, 2025-06-21 19:03:36.895
12.0, -42986.0479219017, -40013.601185512685, -28110.671414216926, -68242.20040347581, -28302.002346754354, -28758.51437550955, -51606.95929610245, -98335.02451598937, -187500.02235174447, -187500.02235174447, -44056.54001909972, -43171.70151134748, -77228.98748266549, -46481.01138842242, -85095.01339137714, -29575.001248717457, 0.0, 0.0, 0.0, 193.0, 0.0, 1.0, 1.0, 0.0, 0.0, 1.0, 1.0, 256.0, 1.0, 1.750525416903227E9, 0.0, 2025-06-21 19:03:36.903
14.0, -42991.948782437896, -40021.424296072044, -28119.455649787862, -68245.28494421065, -28290.424143126507, -28729.07712806191, -51587.60268540415, -98328.09547520823, -187500.02235174447, -187500.02235174447, -44039.262120635765, -43150.95909249295, -77223.26543608493, -46455.262178809906, -85108.51384502815, -29547.665065248617, 0.0, 0.0, 0.0, 193.0, 0.0, 1.0, 1.0, 0.0, 0.0, 1.0, 1.0, 256.0, 1.0, 1.750525416911227E9, 0.0, 2025-06-21 19:03:36.911
16.0, -43012.33357338114, -40039.037470702824, -28139.840440731103, -68271.39178173445, -28300.616538598126, -28701.20450272614, -51644.44317155399, -98356.03515577735, -187500.02235174447, -187500.02235174447, -44062.64204533602, -43170.941552036, -77224.20420935204, -46485.951123947045, -85090.85596690845, -29571.80494926035, 0.0, 0.0, 0.0, 193.0, 0.0, 1.0, 1.0, 0.0, 0.0, 1.0, 1.0, 256.0, 1.0, 1.750525416917246E9, 0.0, 2025-06-21 19:03:36.917
18.0, -42988.95364868089, -40018.429162315035, -28126.60820801356, -68251.56578440258, -28310.920692792024, -28715.129639521798, -51610.289706026284, -98338.08670497975, -187500.02235174447, -187500.02235174447, -44070.66632159547, -43185.91722082105, -77254.24495389998, -46482.77717623439, -85132.58667380651, -29571.00028645996, 0.0, 0.0, 0.0, 193.0, 0.0, 1.0, 1.0, 0.0, 0.0, 1.0, 1.0, 256.0, 1.0, 1.750525416926276E9, 0.0, 2025-06-21 19:03:36.926
20.0, -43006.99150645632, -40034.075383433745, -28137.269990118744, -68267.72609564378, -28273.615631296117, -28728.25011351706, -51618.53749973029, -98350.96130978601, -187500.02235174447, -187500.02235174447, -44071.67215009596, -43177.95999979496, -77238.66578801464, -46483.11245240122, -85111.62073750743, -29570.03916144838, 0.0, 0.0, 0.0, 193.0, 0.0, 1.0, 1.0, 0.0, 0.0, 1.0, 1.0, 256.0, 1.0, 1.750525416934304E9, 0.0, 2025-06-21 19:03:36.934
22.0, -42974.02268338474, -40002.87234817414, -28111.923111906424, -68240.6581331084, -28291.74289604937, -28748.478442249114, -51601.66193266654, -98322.79811177232, -187500.02235174447, -187500.02235174447, -44067.44767039391, -43177.82588932823, -77236.6317792692, -46489.25918212643, -85111.26310959616, -29577.124664440715, 0.0, 0.0, 0.0, 193.0, 0.0, 1.0, 1.0, 0.0, 0.0, 1.0, 1.0, 256.0, 1.0, 1.750525416941324E9, 0.0, 2025-06-21 19:03:36.941
24.0, -43014.680506548946, -40040.669148048066, -28131.771460982738, -68272.84464512405, -28330.32200697923, -28728.02659607251, -51631.635621981106, -98354.98462378797, -187500.02235174447, -187500.02235174447, -44039.686803780416, -43157.4858018739, -77227.3781570647, -46459.441955023045, -85115.26407185366, -29550.66019900563, 0.0, 0.0, 0.0, 193.0, 0.0, 1.0, 1.0, 0.0, 0.0, 1.0, 1.0, 256.0, 1.0, 1.750525416949314E9, 0.0, 2025-06-21 19:03:36.949
26.0, -43002.67761977645, -40025.82758972974, -28133.514897050252, -68268.57546193308, -28318.36382369564, -28697.114133490817, -51620.705618942455, -98352.07889700877, -187500.02235174447, -187500.02235174447, -44080.03170252225, -43198.36714248266, -77244.65605552866, -46504.86069975623, -85107.95505141676, -29592.122684970225, 0.0, 0.0, 0.0, 193.0, 0.0, 1.0, 1.0, 0.0, 0.0, 1.0, 1.0, 256.0, 1.0, 1.750525416958402E9, 0.0, 2025-06-21 19:03:36.958
28.0, -42982.38223581103, -40009.555519766276, -28129.916266192948, -68246.49193841123, -28302.136457221088, -28766.136320368805, -51593.30238024025, -98331.22471943196, -187500.02235174447, -187500.02235174447, -44056.22709467734, -43161.59852285368, -77235.1789158796, -46467.15330686013, -85122.99777543519, -29556.04696941936, 0.0, 0.0, 0.0, 193.0, 0.0, 1.0, 1.0, 0.0, 0.0, 1.0, 1.0, 256.0, 1.0, 1.750525416966523E9, 0.0, 2025-06-21 19:03:36.966
30.0, -43009.27138439076, -40042.21141841548, -28132.397309827487, -68271.30237475662, -28296.235596684888, -28729.34534899537, -51635.61423249415, -98353.88938830965, -187500.02235174447, -187500.02235174447, -44073.52734488575, -43175.09897650468, -77237.12351764721, -46484.85588846873, -85111.6430892519, -29572.117873682724, 0.0, 0.0, 0.0, 193.0, 0.0, 1.0, 1.0, 0.0, 0.0, 1.0, 1.0, 256.0, 1.0, 1.750525416974439E9, 0.0, 2025-06-21 19:03:36.974
32.0, -42972.12278510604, -40001.46418827346, -28095.78515240969, -68234.60081036101, -28300.482428131396, -28715.084936032887, -51594.66583665203, -98318.41716985908, -187500.02235174447, -187500.02235174447, -44058.46226912287, -43175.41190092706, -77230.9320844331, -46481.190202378064, -85099.77431294613, -29571.313210882334, 0.0, 0.0, 0.0, 193.0, 0.0, 1.0, 1.0, 0.0, 0.0, 1.0, 1.0, 256.0, 1.0, 1.750525416983504E9, 0.0, 2025-06-21 19:03:36.983
34.0, -42991.43469231542, -40019.59145302671, -28115.164114852443, -68252.92924081437, -28289.41831462602, -28724.45031695966, -51617.777540418814, -98342.73586782646, -187500.02235174447, -187500.02235174447, -44029.114428653054, -43148.612159325145, -77216.71637495952, -46447.2602542949, -85098.27674606763, -29540.445451789554, 0.0, 0.0, 0.0, 193.0, 0.0, 1.0, 1.0, 0.0, 0.0, 1.0, 1.0, 256.0, 1.0, 1.750525416991535E9, 0.0, 2025-06-21 19:03:36.991
36.0, -42994.27336386125, -40022.63129027263, -28122.450783544875, -68257.55605191662, -28280.499968588352, -28734.77682289801, -51621.331467787204, -98337.97494625747, -187500.02235174447, -187500.02235174447, -44072.81208906318, -43178.69760736199, -77231.44617455556, -46486.845193725254, -85089.33604828549, -29575.33652488429, 0.0, 0.0, 0.0, 193.0, 0.0, 1.0, 1.0, 0.0, 0.0, 1.0, 1.0, 256.0, 1.0, 1.750525416998579E9, 0.0, 2025-06-21 19:03:36.998
38.0, -42990.898250448496, -40023.77122923985, -28122.786059711703, -68254.80678734861, -28302.40467815455, -28764.705808723666, -51607.294572269275, -98335.3150886673, -187500.02235174447, -187500.02235174447, -44050.236827163324, -43162.35848216516, -77235.00010192396, -46457.363242788706, -85107.8432926945, -29550.526088538896, 0.0, 0.0, 0.0, 193.0, 0.0, 1.0, 1.0, 0.0, 0.0, 1.0, 1.0, 256.0, 1.0, 1.750525417005587E9, 0.0, 2025-06-21 19:03:37.005
40.0, -43005.96332621138, -40028.8003717423, -28123.098984134078, -68264.39568571994, -28298.69428857497, -28707.35123245135, -51620.705618942455, -98346.31214693931, -187500.02235174447, -187500.02235174447, -44067.157097715986, -43188.35356096668, -77242.44323282757, -46481.92780994509, -85105.83163569351, -29572.877832994203, 0.0, 0.0, 0.0, 193.0, 0.0, 1.0, 1.0, 0.0, 0.0, 1.0, 1.0, 256.0, 1.0, 1.750525417013645E9, 0.0, 2025-06-21 19:03:37.013
42.0, -42975.36378805206, -40006.78390345382, -28113.443030529386, -68242.82625232056, -28292.74872454986, -28717.58833141188, -51592.65417965105, -98329.12365545316, -187500.02235174447, -187500.02235174447, -44060.63038833504, -43171.187421225004, -77231.46852630003, -46473.14357437415, -85091.0347808641, -29564.4288735901, 0.0, 0.0, 0.0, 193.0, 0.0, 1.0, 1.0, 0.0, 0.0, 1.0, 1.0, 256.0, 1.0, 1.750525417021663E9, 0.0, 2025-06-21 19:03:37.021
44.0, -42982.4939945333, -40010.382534311124, -28110.42554502792, -68249.71058961279, -28260.45045381194, -28687.793456052957, -51589.189659260475, -98324.56389958429, -187500.02235174447, -187500.02235174447, -44041.58670205912, -43157.0387669848, -77228.227523354, -46452.9152456421, -85109.27380433962, -29546.3239605813, 0.0, 0.0, 0.0, 193.0, 0.0, 1.0, 1.0, 0.0, 0.0, 1.0, 1.0, 256.0, 1.0, 1.750525417029707E9, 0.0, 2025-06-21 19:03:37.029
46.0, -43009.919584979965, -40030.096772920704, -28142.120318665544, -68275.03511608066, -28327.103355777665, -28733.34631125287, -51610.20029904846, -98341.10419048122, -187500.02235174447, -187500.02235174447, -44065.748937815304, -43183.1903079975, -77228.6298547542, -46490.46617632701, -85096.66742046684, -29579.3821906307, 0.0, 0.0, 0.0, 193.0, 0.0, 1.0, 1.0, 0.0, 0.0, 1.0, 1.0, 256.0, 1.0, 1.750525417037716E9, 0.0, 2025-06-21 19:03:37.037
48.0, -42939.31042424565, -39974.39622573808, -28075.534471933184, -68203.75540301269, -28249.811023451213, -28721.097555291362, -51584.987531302875, -98308.96238195448, -187500.02235174447, -187500.02235174447, -44045.67707129444, -43152.85899077165, -77230.30623558834, -46463.95700740302, -85117.70041199928, -29554.437643818575, 0.0, 0.0, 0.0, 193.0, 0.0, 1.0, 1.0, 0.0, 0.0, 1.0, 1.0, 256.0, 1.0, 1.750525417046758E9, 0.0, 2025-06-21 19:03:37.046
50.0, -43014.56874782667, -40044.13366843863, -28130.855039460068, -68274.74454340275, -28312.328852692706, -28713.49796217656, -51640.46456104095, -98358.3150337118, -187500.02235174447, -187500.02235174447, -44031.90839670997, -43142.30896738875, -77206.76984867691, -46455.70921369901, -85075.79089114557, -29545.69811173655, 0.0, 0.0, 0.0, 193.0, 0.0, 1.0, 1.0, 0.0, 0.0, 1.0, 1.0, 256.0, 1.0, 1.75052541705478E9, 0.0, 2025-06-21 19:03:37.054
52.0, -42997.87199471855, -40025.67112751855, -28133.403138327976, -68267.2120055213, -28298.403715897053, -28734.508601964546, -51621.35381953166, -98344.00991726041, -187500.02235174447, -187500.02235174447, -44083.13859500153, -43195.30495349228, -77257.44125335709, -46505.10656894524, -85124.42828708033, -29595.00606000496, 0.0, 0.0, 0.0, 193.0, 0.0, 1.0, 1.0, 0.0, 0.0, 1.0, 1.0, 256.0, 1.0, 1.750525417062808E9, 0.0, 2025-06-21 19:03:37.062
54.0, -42992.731093493836, -40022.944214695, -28128.798678970183, -68264.28392699765, -28288.747762292358, -28738.621322944324, -51603.6288861786, -98335.3597921562, -187500.02235174447, -187500.02235174447, -44055.64594932151, -43172.55087763678, -77244.36548285073, -46470.43901329506, -85126.2387783812, -29562.79719624486, 0.0, 0.0, 0.0, 193.0, 0.0, 1.0, 1.0, 0.0, 0.0, 1.0, 1.0, 256.0, 1.0, 1.75052541707184E9, 0.0, 2025-06-21 19:03:37.071
56.0, -42986.58436376863, -40016.193987869505, -28119.09802187658, -68261.69112464084, -28292.54755884976, -28680.596194338348, -51620.504453242356, -98343.38406841566, -187500.02235174447, -187500.02235174447, -44062.21736219137, -43178.809366084264, -77228.16046812064, -46493.68482752858, -85098.16498734534, -29582.08675170979, 0.0, 0.0, 0.0, 193.0, 0.0, 1.0, 1.0, 0.0, 0.0, 1.0, 1.0, 256.0, 1.0, 1.750525417078891E9, 0.0, 2025-06-21 19:03:37.078
58.0, -42973.53094500672, -40005.219281341946, -28111.453725272862, -68249.55412740161, -28282.44457035596, -28752.658218462257, -51609.7309124149, -98335.62801308966, -187500.02235174447, -187500.02235174447, -44049.99095797431, -43167.32056943424, -77236.85529671375, -46472.67418774059, -85123.60127253548, -29565.61351604623, 0.0, 0.0, 0.0, 193.0, 0.0, 1.0, 1.0, 0.0, 0.0, 1.0, 1.0, 256.0, 1.0, 1.750525417085895E9, 0.0, 2025-06-21 19:03:37.085
60.0, -42975.96728515235, -40009.95785116647, -28094.75697216475, -68242.17805173136, -28277.1248551756, -28677.802226281434, -51611.74256941588, -98336.3656206567, -187500.02235174447, -187500.02235174447, -44040.871446236546, -43162.13496472061, -77214.86118016973, -46463.33115855827, -85083.43518774929, -29555.957562441537, 0.0, 0.0, 0.0, 193.0, 0.0, 1.0, 1.0, 0.0, 0.0, 1.0, 1.0, 256.0, 1.0, 1.750525417093937E9, 0.0, 2025-06-21 19:03:37.093
62.0, -42939.511589945745, -39985.52739447682, -28086.062143571635, -68219.51338285368, -28268.11710216011, -28732.49694496357, -51586.64156039257, -98314.70678027949, -187500.02235174447, -187500.02235174447, -44033.13774265501, -43149.461525614446, -77205.24993005395, -46457.81027767781, -85077.69078942428, -29549.43085306059, 0.0, 0.0, 0.0, 193.0, 0.0, 1.0, 1.0, 0.0, 0.0, 1.0, 1.0, 256.0, 1.0, 1.750525417101967E9, 0.0, 2025-06-21 19:03:37.101
64.0, -42947.915845860945, -39986.10853983266, -28100.814294912136, -68238.06533075159, -28265.747817247848, -28711.486305175582, -51592.83299360669, -98332.11878921019, -187500.02235174447, -187500.02235174447, -44012.79765520068, -43133.949414962466, -77201.11485732971, -46439.34773675773, -85095.46042626625, -29530.431870273576, 0.0, 0.0, 0.0, 193.0, 0.0, 1.0, 1.0, 0.0, 0.0, 1.0, 1.0, 256.0, 1.0, 1.750525417108989E9, 0.0, 2025-06-21 19:03:37.108
66.0, -42948.72050866133, -39983.20281305347, -28104.61409146954, -68250.42584543537, -28296.41441064053, -28701.249206215052, -51625.51124400035, -98342.17707421507, -187500.02235174447, -187500.02235174447, -44036.71402176786, -43160.838563542195, -77203.84177015326, -46474.08234764128, -85076.14851905686, -29563.355989856245, 0.0, 0.0, 0.0, 193.0, 0.0, 1.0, 1.0, 0.0, 0.0, 1.0, 1.0, 256.0, 1.0, 1.750525417118032E9, 0.0, 2025-06-21 19:03:37.118
68.0, -42934.10246778756, -39976.139661805595, -28095.36046926504, -68234.84667955001, -28292.346393149663, -28772.08188439392, -51601.907801855545, -98331.3588298987, -187500.02235174447, -187500.02235174447, -44030.18731238691, -43152.34490064918, -77218.10218311574, -46462.302978313324, -85110.95018517377, -29555.04114091887, 0.0, 0.0, 0.0, 193.0, 0.0, 1.0, 1.0, 0.0, 0.0, 1.0, 1.0, 256.0, 1.0, 1.750525417126055E9, 0.0, 2025-06-21 19:03:37.126
70.0, -42961.50570648977, -39994.8927754036, -28117.891027675993, -68265.60267992051, -28292.346393149663, -28689.223967698097, -51611.80962464924, -98346.89329229514, -187500.02235174447, -187500.02235174447, -44037.362222357064, -43163.11844147664, -77211.32960454578, -46479.06678665481, -85103.6411647369, -29568.251021891956, 0.0, 0.0, 0.0, 193.0, 0.0, 1.0, 1.0, 0.0, 0.0, 1.0, 1.0, 256.0, 1.0, 1.750525417134059E9, 0.0, 2025-06-21 19:03:37.134
72.0, -42918.188025735384, -39959.062929041735, -28084.49752145976, -68226.66594107938, -28256.96358167691, -28709.072316774407, -51593.861173851634, -98321.23348966044, -187500.02235174447, -187500.02235174447, -44035.79760024519, -43158.11165071865, -77208.33447078877, -46477.52451628739, -85093.337010543, -29569.078036436804, 0.0, 0.0, 0.0, 193.0, 0.0, 1.0, 1.0, 0.0, 0.0, 1.0, 1.0, 256.0, 1.0, 1.750525417143054E9, 0.0, 2025-06-21 19:03:37.143
74.0, -42928.11220027354, -39964.67321690002, -28086.50917846074, -68233.01383650469, -28270.50873881683, -28701.428020170693, -51591.53659242828, -98314.17033841257, -187500.02235174447, -187500.02235174447, -43991.6305532015, -43121.34303108967, -77181.98176407597, -46434.6091669332, -85084.79864416107, -29527.928474894583, 0.0, 0.0, 0.0, 193.0, 0.0, 1.0, 1.0, 0.0, 0.0, 1.0, 1.0, 256.0, 1.0, 1.750525417151119E9, 0.0, 2025-06-21 19:03:37.151
76.0, -42938.72927888981, -39976.9890280949, -28101.686012945895, -68247.85539482301, -28287.272547158307, -28715.263749988528, -51610.423816493014, -98329.41422813109, -187500.02235174447, -187500.02235174447, -44038.59156830211, -43163.20784845446, -77204.33350853127, -46480.072615155295, -85081.31177202603, -29569.659181792642, 0.0, 0.0, 0.0, 193.0, 0.0, 1.0, 1.0, 0.0, 0.0, 1.0, 1.0, 256.0, 1.0, 1.750525417160149E9, 0.0, 2025-06-21 19:03:37.160
78.0, -42917.96450829083, -39960.09110928668, -28090.71130641834, -68233.3044091826, -28274.375590607597, -28734.82152638692, -51594.35291222965, -98325.56972808478, -187500.02235174447, -187500.02235174447, -44012.52943426722, -43140.81140051024, -77203.3723835197, -46445.9638531165, -85093.1805483318, -29539.55138201134, 0.0, 0.0, 0.0, 193.0, 0.0, 1.0, 1.0, 0.0, 0.0, 1.0, 1.0, 256.0, 1.0, 1.750525417166151E9, 0.0, 2025-06-21 19:03:37.166
80.0, -42947.893494116484, -39986.66733344404, -28114.605321241062, -68264.55214793113, -28283.986840723377, -28689.96157526512, -51614.51418572834, -98345.41807716108, -187500.02235174447, -187500.02235174447, -44031.640175776505, -43161.64322634259, -77209.74263068946, -46480.94433318905, -85102.68003972531, -29570.530899826397, 0.0, 0.0, 0.0, 193.0, 0.0, 1.0, 1.0, 0.0, 0.0, 1.0, 1.0, 256.0, 1.0, 1.750525417173178E9, 0.0, 2025-06-21 19:03:37.173
82.0, -42928.335717718095, -39963.66738839953, -28111.207856083856, -68249.84470007953, -28302.091753732177, -28741.057663089952, -51613.59776420567, -98338.04200149084, -187500.02235174447, -187500.02235174447, -44039.396231102495, -43166.35944442266, -77215.46467727002, -46491.740225760965, -85116.04638290958, -29580.365667386734, 0.0, 0.0, 0.0, 193.0, 0.0, 1.0, 1.0, 0.0, 0.0, 1.0, 1.0, 256.0, 1.0, 1.750525417182176E9, 0.0, 2025-06-21 19:03:37.182
84.0, -42931.04027879718, -39973.2339350264, -28104.36822228053, -68256.39376120493, -28273.7720935073, -28722.48336344759, -51621.26441255384, -98339.87484453617, -187500.02235174447, -187500.02235174447, -44013.244690089785, -43139.11266793164, -77202.45596199704, -46458.36907128919, -85099.0367053791, -29555.398768830153, 0.0, 0.0, 0.0, 193.0, 0.0, 1.0, 1.0, 0.0, 0.0, 1.0, 1.0, 256.0, 1.0, 1.750525417189147E9, 0.0, 2025-06-21 19:03:37.189
86.0, -42935.89060734399, -39970.61878092513, -28108.838571171593, -68258.40541820592, -28273.235651640374, -28687.52523511949, -51617.64342995208, -98340.25482419191, -187500.02235174447, -187500.02235174447, -44052.270835908756, -43174.69664510449, -77219.15271510514, -46511.58857483728, -85104.78110370411, -29603.790295575895, 0.0, 0.0, 0.0, 193.0, 0.0, 1.0, 1.0, 0.0, 0.0, 1.0, 1.0, 256.0, 1.0, 1.750525417197254E9, 0.0, 2025-06-21 19:03:37.197
88.0, -42929.07332528512, -39971.177574536516, -28112.772478195726, -68251.11874951348, -28273.325058618197, -28740.901200878765, -51602.01956057782, -98333.72811481096, -187500.02235174447, -187500.02235174447, -44027.99684143029, -43151.96492099344, -77214.83882842527, -46476.921019187095, -85126.1940748923, -29570.17327191511, 0.0, 0.0, 0.0, 193.0, 0.0, 1.0, 1.0, 0.0, 0.0, 1.0, 1.0, 256.0, 1.0, 1.750525417206273E9, 0.0, 2025-06-21 19:03:37.206
90.0, -42936.985842822294, -39972.29516175928, -28107.050431615167, -68256.50551992722, -28271.514567317317, -28687.838159541865, -51599.89614485457, -98329.68244906455, -187500.02235174447, -187500.02235174447, -44033.89770196649, -43161.79968855378, -77207.95449113304, -46489.59445829326, -85111.95601367427, -29578.555176085854, 0.0, 0.0, 0.0, 193.0, 0.0, 1.0, 1.0, 0.0, 0.0, 1.0, 1.0, 256.0, 1.0, 1.750525417214325E9, 0.0, 2025-06-21 19:03:37.214
92.0, -42931.263796241736, -39968.942400090986, -28109.598530483072, -68250.69406636883, -28283.11512268962, -28717.275406989505, -51618.828072408214, -98341.12654222567, -187500.02235174447, -187500.02235174447, -44029.76262924226, -43159.452755385966, -77204.06528759781, -46481.7713477339, -85105.29519382659, -29572.542556827375, 0.0, 0.0, 0.0, 193.0, 0.0, 1.0, 1.0, 0.0, 0.0, 1.0, 1.0, 256.0, 1.0, 1.750525417222363E9, 0.0, 2025-06-21 19:03:37.222
94.0, -42933.722488131825, -39970.17174603602, -28103.742373435784, -68245.86608956648, -28291.161750693533, -28713.140334265274, -51603.941810600976, -98334.82335028927, -187500.02235174447, -187500.02235174447, -44026.3428123406, -43151.29436865978, -77213.76594469142, -46462.4147370356, -85118.63918526641, -29554.527050796398, 0.0, 0.0, 0.0, 193.0, 0.0, 1.0, 1.0, 0.0, 0.0, 1.0, 1.0, 256.0, 1.0, 1.750525417231391E9, 0.0, 2025-06-21 19:03:37.231
96.0, -42948.87697087252, -39986.37676076612, -28115.90172241947, -68255.99142980474, -28284.29976514575, -28710.502828419547, -51624.281898055306, -98343.45112364902, -187500.02235174447, -187500.02235174447, -44040.379707858534, -43166.44885140048, -77208.73680218897, -46486.10758615823, -85093.89580415438, -29572.4307981051, 0.0, 0.0, 0.0, 193.0, 0.0, 1.0, 1.0, 0.0, 0.0, 1.0, 1.0, 256.0, 1.0, 1.750525417239515E9, 0.0, 2025-06-21 19:03:37.239
98.0, -42927.88868282899, -39965.634341911595, -28092.65590818595, -68225.7048160678, -28263.132663146578, -28712.134505764785, -51587.35681621514, -98311.64459128912, -187500.02235174447, -187500.02235174447, -44033.98710894431, -43154.66948207253, -77220.67263372811, -46454.59162647625, -85111.46427529625, -29543.574696013296, 0.0, 0.0, 0.0, 193.0, 0.0, 1.0, 1.0, 0.0, 0.0, 1.0, 1.0, 256.0, 1.0, 1.750525417246498E9, 0.0, 2025-06-21 19:03:37.246
100.0, -42944.36191849255, -39977.27960077281, -28102.55773097965, -68248.70476111231, -28298.962509508434, -28721.16461052473, -51611.206127548954, -98335.87388227867, -187500.02235174447, -187500.02235174447, -44024.42056231744, -43147.5839790802, -77199.70669742904, -46462.50414401342, -85090.14071108589, -29548.089748393268, 0.0, 0.0, 0.0, 193.0, 0.0, 1.0, 1.0, 0.0, 0.0, 1.0, 1.0, 256.0, 1.0, 1.750525417253455E9, 0.0, 2025-06-21 19:03:37.253
102.0, -42927.575758406616, -39965.790804122786, -28098.623823955517, -68241.03811276414, -28285.9761459799, -28750.467747505638, -51604.858232123646, -98337.48320787946, -187500.02235174447, -187500.02235174447, -44029.2932426087, -43148.09806920267, -77202.61242420822, -46477.077481398286, -85105.11637987095, -29565.144129412667, 0.0, 0.0, 0.0, 193.0, 0.0, 1.0, 1.0, 0.0, 0.0, 1.0, 1.0, 256.0, 1.0, 1.750525417261515E9, 0.0, 2025-06-21 19:03:37.261
104.0, -42934.281281743206, -39970.41761522504, -28104.79290542518, -68247.76598784518, -28282.06459070022, -28678.15985419272, -51600.54434544377, -98332.72228631047, -187500.02235174447, -187500.02235174447, -44017.446818047385, -43143.18068542251, -77202.9253486306, -46457.29618755534, -85105.3846008044, -29550.146108883157, 0.0, 0.0, 0.0, 193.0, 0.0, 1.0, 1.0, 0.0, 0.0, 1.0, 1.0, 256.0, 1.0, 1.750525417270555E9, 0.0, 2025-06-21 19:03:37.270
106.0, -42945.70302315987, -39972.89865885957, -28114.292396818688, -68261.5570141741, -28277.9742214649, -28695.169531723208, -51631.8367876812, -98348.99435627394, -187500.02235174447, -187500.02235174447, -44045.699423038895, -43168.16993572354, -77208.98267137798, -46496.94818221905, -85098.81318793455, -29584.657202322152, 0.0, 0.0, 0.0, 193.0, 0.0, 1.0, 1.0, 0.0, 0.0, 1.0, 1.0, 256.0, 1.0, 1.750525417277579E9, 0.0, 2025-06-21 19:03:37.277
108.0, -42915.9304995454, -39950.882190571094, -28113.532437507205, -68256.30435422712, -28300.9294630205, -28744.030445102508, -51632.41793303704, -98351.27423420838, -187500.02235174447, -187500.02235174447, -44032.35543159908, -43159.519810619335, -77220.44911628356, -46478.262123854416, -85126.68581327032, -29571.46967309352, 0.0, 0.0, 0.0, 193.0, 0.0, 1.0, 1.0, 0.0, 0.0, 1.0, 1.0, 256.0, 1.0, 1.750525417285611E9, 0.0, 2025-06-21 19:03:37.285
110.0, -42948.49699121678, -39987.1367200776, -28114.158286351954, -68259.4112467064, -28269.033523682778, -28688.039325241964, -51636.97768890592, -98356.75041159993, -187500.02235174447, -187500.02235174447, -44036.535207812216, -43157.26228442935, -77208.96031963352, -46487.62750478119, -85110.72666772922, -29577.37053362972, 0.0, 0.0, 0.0, 193.0, 0.0, 1.0, 1.0, 0.0, 0.0, 1.0, 1.0, 256.0, 1.0, 1.750525417293572E9, 0.0, 2025-06-21 19:03:37.293
112.0, -42935.75649687726, -39980.72176941893, -28113.532437507205, -68255.96907806028, -28287.808989025234, -28760.995419144085, -51652.35568909117, -98370.29556873985, -187500.02235174447, -187500.02235174447, -44043.71011778237, -43170.89684854708, -77221.43259303959, -46493.30484787284, -85115.15231313137, -29584.99247848898, 0.0, 0.0, 0.0, 193.0, 0.0, 1.0, 1.0, 0.0, 0.0, 1.0, 1.0, 256.0, 1.0, 1.750525417302659E9, 0.0, 2025-06-21 19:03:37.302
114.0, -42935.9353108329, -39977.12313856163, -28101.104867590057, -68249.64353437943, -28268.720599260403, -28694.67779334519, -51619.878604397614, -98352.10124875323, -187500.02235174447, -187500.02235174447, -44018.76557097025, -43142.28661564429, -77209.09443010026, -46460.40308003463, -85113.00654566367, -29552.448338562055, 0.0, 0.0, 0.0, 193.0, 0.0, 1.0, 1.0, 0.0, 0.0, 1.0, 1.0, 256.0, 1.0, 1.750525417310697E9, 0.0, 2025-06-21 19:03:37.310
116.0, -42939.377479479015, -39991.69647594648, -28109.79969618317, -68261.15468277391, -28267.26773587081, -28728.07129956142, -51607.585144947196, -98338.04200149084, -187500.02235174447, -187500.02235174447, -44048.47103935135, -43183.36912195315, -77223.06427038483, -46493.93069671759, -85092.44294076478, -29584.724257555517, 0.0, 0.0, 0.0, 193.0, 0.0, 1.0, 1.0, 0.0, 0.0, 1.0, 1.0, 256.0, 1.0, 1.750525417318745E9, 0.0, 2025-06-21 19:03:37.318
118.0, -42912.935365788384, -39967.13190879011, -28082.66467841443, -68225.07896722305, -28249.83337519567, -28741.191773556686, -51571.68824335197, -98311.06344593328, -187500.02235174447, -187500.02235174447, -44008.75198945427, -43133.658842284545, -77204.69113644256, -46446.23207404996, -85097.02504837813, -29538.389091299665, 0.0, 0.0, 0.0, 193.0, 0.0, 1.0, 1.0, 0.0, 0.0, 1.0, 1.0, 256.0, 1.0, 1.750525417327765E9, 0.0, 2025-06-21 19:03:37.327
120.0, -42956.74478492079, -40003.00645864087, -28109.106792105056, -68268.12842704396, -28262.73033174638, -28682.898424017243, -51606.64637168007, -98339.65132709162, -187500.02235174447, -187500.02235174447, -44030.18731238691, -43164.79482231079, -77213.96711039152, -46480.76551923341, -85094.14167334339, -29571.983763215994, 0.0, 0.0, 0.0, 193.0, 0.0, 1.0, 1.0, 0.0, 0.0, 1.0, 1.0, 256.0, 1.0, 1.750525417334774E9, 0.0, 2025-06-21 19:03:37.334
122.0, -42931.7331828753, -39981.28056303031, -28106.826914170615, -68254.13623501494, -28263.11031140212, -28719.510581435035, -51595.31403724123, -98322.39578037213, -187500.02235174447, -187500.02235174447, -44034.88117872253, -43168.37110142364, -77219.26447382742, -46483.24656286795, -85103.55175775907, -29573.816606261327, 0.0, 0.0, 0.0, 193.0, 0.0, 1.0, 1.0, 0.0, 0.0, 1.0, 1.0, 256.0, 1.0, 1.750525417341802E9, 0.0, 2025-06-21 19:03:37.341
124.0, -42942.14909579147, -39994.021057369835, -28105.79873392567, -68256.84079609404, -28246.391206549553, -28729.92649435121, -51610.446168237475, -98338.37727765767, -187500.02235174447, -187500.02235174447, -44025.44874256239, -43163.94545602149, -77223.04191864037, -46464.24758008094, -85108.44678979479, -29558.23744037598, 0.0, 0.0, 0.0, 193.0, 0.0, 1.0, 1.0, 0.0, 0.0, 1.0, 1.0, 256.0, 1.0, 1.750525417349884E9, 0.0, 2025-06-21 19:03:37.349
126.0, -42937.276415500215, -39981.660542686055, -28097.394478010476, -68248.86122332349, -28264.943154447457, -28726.01493907153, -51614.71535142844, -98330.7106293095, -187500.02235174447, -187500.02235174447, -44045.989995716816, -43176.19421198299, -77220.80674419484, -46493.81893799531, -85089.87249015243, -29582.824359276816, 0.0, 0.0, 0.0, 193.0, 0.0, 1.0, 1.0, 0.0, 0.0, 1.0, 1.0, 256.0, 1.0, 1.75052541735786E9, 0.0, 2025-06-21 19:03:37.357
128.0, -42924.64767988297, -39970.596429180674, -28083.961079592835, -68234.24318244972, -28269.30174461624, -28760.16840459924, -51594.86700235212, -98322.28402164984, -187500.02235174447, -187500.02235174447, -44002.15822483996, -43132.13892366159, -77199.93021487359, -46446.76851591689, -85095.52748149962, -29538.590256999763, 0.0, 0.0, 0.0, 193.0, 0.0, 1.0, 1.0, 0.0, 0.0, 1.0, 1.0, 256.0, 1.0, 1.750525417365891E9, 0.0, 2025-06-21 19:03:37.365
130.0, -42954.55431396417, -39995.47392075943, -28108.480943260307, -68265.15564503141, -28267.69241901546, -28678.53983384846, -51598.44328146497, -98333.6610595776, -187500.02235174447, -187500.02235174447, -44026.90160595198, -43162.64905484308, -77210.34612778976, -46477.65862675412, -85092.42058902033, -29568.631001547696, 0.0, 0.0, 0.0, 193.0, 0.0, 1.0, 1.0, 0.0, 0.0, 1.0, 1.0, 256.0, 1.0, 1.750525417373915E9, 0.0, 2025-06-21 19:03:37.373
132.0, -42939.19866552337, -39985.61680145464, -28105.239940314288, -68251.72224661378, -28291.005288482345, -28728.92066585072, -51577.45499342144, -98324.83212051775, -187500.02235174447, -187500.02235174447, -44045.4982573388, -43178.943476550994, -77228.04870939835, -46490.08619667128, -85112.62656600792, -29580.27626040891, 0.0, 0.0, 0.0, 193.0, 0.0, 1.0, 1.0, 0.0, 0.0, 1.0, 1.0, 256.0, 1.0, 1.750525417381947E9, 0.0, 2025-06-21 19:03:37.381
134.0, -42951.38036625151, -39996.23388007091, -28112.012518884247, -68269.02249682219, -28256.851822954635, -28743.158727068752, -51620.83972940919, -98351.47539990848, -187500.02235174447, -187500.02235174447, -44023.1912163724, -43161.263246686845, -77219.35388080524, -46469.9696266615, -85114.07942939752, -29564.697094523563, 0.0, 0.0, 0.0, 193.0, 0.0, 1.0, 1.0, 0.0, 0.0, 1.0, 1.0, 256.0, 1.0, 1.750525417390973E9, 0.0, 2025-06-21 19:03:37.390
136.0, -42935.51062768825, -39980.00651359636, -28092.90177737496, -68249.08474076806, -28273.950907462946, -28721.030500057997, -51594.17409827401, -98332.6105275882, -187500.02235174447, -187500.02235174447, -44037.585739801616, -43172.88615380361, -77213.14009584667, -46498.26693514192, -85089.00077211867, -29590.848635536273, 0.0, 0.0, 0.0, 193.0, 0.0, 1.0, 1.0, 0.0, 0.0, 1.0, 1.0, 256.0, 1.0, 1.750525417399004E9, 0.0, 2025-06-21 19:03:37.399
138.0, -42928.201607251365, -39977.07843507271, -28099.920225133923, -68246.20136573332, -28266.485424814873, -28747.83024165991, -51581.32184521221, -98320.8088065158, -187500.02235174447, -187500.02235174447, -44013.892890678995, -43151.339072148694, -77212.04486036836, -46462.63825448016, -85113.67709799732, -29556.203431630547, 0.0, 0.0, 0.0, 193.0, 0.0, 1.0, 1.0, 0.0, 0.0, 1.0, 1.0, 256.0, 1.0, 1.750525417407058E9, 0.0, 2025-06-21 19:03:37.407
140.0, -42943.3337382476, -39987.06966484424, -28102.93771063539, -68261.02057230718, -28242.658465225515, -28699.52812189199, -51614.17890956151, -98353.19648423154, -187500.02235174447, -187500.02235174447, -44020.95604192687, -43156.05529022876, -77201.9195201301, -46472.651835996134, -85087.21263256224, -29564.56298405683, 0.0, 0.0, 0.0, 193.0, 0.0, 1.0, 1.0, 0.0, 0.0, 1.0, 1.0, 256.0, 1.0, 1.750525417415096E9, 0.0, 2025-06-21 19:03:37.415
142.0, -42922.814836837635, -39969.635304169096, -28096.79098091018, -68244.94966804382, -28280.924651733003, -28722.326901236404, -51588.764976115825, -98319.69121929303, -187500.02235174447, -187500.02235174447, -44031.81898973215, -43172.26030495886, -77217.85631392674, -46487.001655936445, -85107.55272001657, -29580.835054020296, 0.0, 0.0, 0.0, 193.0, 0.0, 1.0, 1.0, 0.0, 0.0, 1.0, 1.0, 256.0, 1.0, 1.750525417422117E9, 0.0, 2025-06-21 19:03:37.422
144.0, -42938.77398237872, -39981.97346710843, -28101.641309456983, -68250.55995590209, -28270.888718472568, -28718.661215145734, -51618.67161019702, -98344.23343470496, -187500.02235174447, -187500.02235174447, -44011.47890227782, -43149.97561573692, -77206.76984867691, -46458.123202100185, -85107.91034792786, -29549.676722249595, 0.0, 0.0, 0.0, 193.0, 0.0, 1.0, 1.0, 0.0, 0.0, 1.0, 1.0, 256.0, 1.0, 1.750525417430132E9, 0.0, 2025-06-21 19:03:37.430
146.0, -42927.911034573444, -39972.87630711512, -28099.026155355714, -68246.91662155588, -28243.0160931368, -28730.10530830685, -51608.188642047484, -98337.95259451302, -187500.02235174447, -187500.02235174447, -44041.47494333684, -43175.5907148827, -77215.17410459211, -46492.67899902809, -85092.86762390943, -29581.14797844267, 0.0, 0.0, 0.0, 193.0, 0.0, 1.0, 1.0, 0.0, 0.0, 1.0, 1.0, 256.0, 1.0, 1.750525417438167E9, 0.0, 2025-06-21 19:03:37.438
148.0, -42923.01600253773, -39972.697493159474, -28095.718097176326, -68241.57455463106, -28272.49804407335, -28729.859439117845, -51587.80385110425, -98326.64261181864, -187500.02235174447, -187500.02235174447, -44000.79476842818, -43137.8833219866, -77196.48804622746, -46442.454629237014, -85096.5333100001, -29535.28219882038, 0.0, 0.0, 0.0, 193.0, 0.0, 1.0, 1.0, 0.0, 0.0, 1.0, 1.0, 256.0, 1.0, 1.750525417445136E9, 0.0, 2025-06-21 19:03:37.445
150.0, -42949.994558095284, -39995.04923761478, -28106.71515544834, -68263.43456070835, -28283.517454089815, -28701.71859284861, -51618.53749973029, -98352.34711794223, -187500.02235174447, -187500.02235174447, -44037.652795034985, -43177.132985250115, -77218.19159009357, -46482.39719657865, -85099.86371992395, -29573.32486788331, 0.0, 0.0, 0.0, 193.0, 0.0, 1.0, 1.0, 0.0, 0.0, 1.0, 1.0, 256.0, 1.0, 1.750525417453252E9, 0.0, 2025-06-21 19:03:37.453
152.0, -42918.72446760231, -39972.92101060403, -28092.208873296844, -68243.38504593195, -28260.11517764511, -28733.59218044188, -51590.530763927796, -98323.89334725063, -187500.02235174447, -187500.02235174447, -44030.07555366463, -43163.83369729921, -77211.86604641272, -46476.45163255354, -85099.77431294613, -29568.38513235869, 0.0, 0.0, 0.0, 193.0, 0.0, 1.0, 1.0, 0.0, 0.0, 1.0, 1.0, 256.0, 1.0, 1.750525417462298E9, 0.0, 2025-06-21 19:03:37.462
154.0, -42954.01787209724, -40000.99480163989, -28121.04262364419, -68274.83395038056, -28287.049029713755, -28734.329788008905, -51630.920366158534, -98358.15857150061, -187500.02235174447, -187500.02235174447, -44019.056143648166, -43161.464412386944, -77216.47050577051, -46466.19218184855, -85112.11247588546, -29561.38903634418, 0.0, 0.0, 0.0, 193.0, 0.0, 1.0, 1.0, 0.0, 0.0, 1.0, 1.0, 256.0, 1.0, 1.750525417470287E9, 0.0, 2025-06-21 19:03:37.470
156.0, -42936.20353176636, -39983.336923520204, -28102.62478621302, -68254.53856641514, -28242.658465225515, -28727.959540839143, -51626.74058994539, -98353.04002202034, -187500.02235174447, -187500.02235174447, -44045.81118176117, -43182.96679055295, -77222.01373839543, -46504.0783887003, -85101.7412664582, -29594.939004771593, 0.0, 0.0, 0.0, 193.0, 0.0, 1.0, 1.0, 0.0, 0.0, 1.0, 1.0, 256.0, 1.0, 1.750525417479297E9, 0.0, 2025-06-21 19:03:37.479
158.0, -42917.74099084628, -39969.79176638029, -28095.65104194296, -68244.59204013253, -28258.952886933435, -28725.925532093708, -51596.11870004162, -98327.78255078585, -187500.02235174447, -187500.02235174447, -44008.148492353976, -43147.136944191094, -77209.96614813402, -46462.19121959105, -85109.1396938729, -29557.723350253505, 0.0, 0.0, 0.0, 193.0, 0.0, 1.0, 1.0, 0.0, 0.0, 1.0, 1.0, 256.0, 1.0, 1.750525417487335E9, 0.0, 2025-06-21 19:03:37.487
160.0, -42930.861464841546, -39978.017208339836, -28105.32934729211, -68268.6648689109, -28270.97812545039, -28702.59031088237, -51620.079770097705, -98355.31989995479, -187500.02235174447, -187500.02235174447, -44022.543015783194, -43166.49355488939, -77208.96031963352, -46484.29709485735, -85098.8802431679, -29577.258774907445, 0.0, 0.0, 0.0, 193.0, 0.0, 1.0, 1.0, 0.0, 0.0, 1.0, 1.0, 256.0, 1.0, 1.750525417495354E9, 0.0, 2025-06-21 19:03:37.495
162.0, -42922.59131939308, -39971.311685003246, -28097.863864644038, -68242.60273487601, -28277.59424180916, -28732.519296708026, -51591.78246161729, -98323.44631236153, -187500.02235174447, -187500.02235174447, -44023.23591986131, -43165.35361592217, -77214.10122085825, -46483.80535647933, -85101.00365889116, -29577.61640281873, 0.0, 0.0, 0.0, 193.0, 0.0, 1.0, 1.0, 0.0, 0.0, 1.0, 1.0, 256.0, 1.0, 1.750525417502406E9, 0.0, 2025-06-21 19:03:37.502
164.0, -42944.1831045369, -39982.64401944209, -28110.872579917024, -68262.85341535253, -28274.621459796606, -28694.521331134005, -51637.04474413929, -98364.99820530394, -187500.02235174447, -187500.02235174447, -44011.434198788906, -43140.923159232516, -77205.60755796522, -46463.375862047185, -85113.25241485267, -29554.527050796398, 0.0, 0.0, 0.0, 193.0, 0.0, 1.0, 1.0, 0.0, 0.0, 1.0, 1.0, 256.0, 1.0, 1.750525417509492E9, 0.0, 2025-06-21 19:03:37.509
166.0, -42964.23261931332, -40003.453493529974, -28128.396347569986, -68280.62305219448, -28286.35612563564, -28707.954729551642, -51648.958223933965, -98367.21102800501, -187500.02235174447, -187500.02235174447, -44054.61776907656, -43187.9959330554, -77231.5802850223, -46517.73530456249, -85115.46523755376, -29607.880664811215, 0.0, 0.0, 0.0, 193.0, 0.0, 1.0, 1.0, 0.0, 0.0, 1.0, 1.0, 256.0, 1.0, 1.750525417518472E9, 0.0, 2025-06-21 19:03:37.518
168.0, -42933.78954336519, -39975.58086819421, -28109.79969618317, -68251.02934253566, -28285.283241901787, -28751.92061089523, -51608.45686298095, -98342.33353642626, -187500.02235174447, -187500.02235174447, -44031.05903042067, -43168.59461886819, -77232.04967165586, -46483.33596984577, -85137.52640933114, -29575.51533883993, 0.0, 0.0, 0.0, 193.0, 0.0, 1.0, 1.0, 0.0, 0.0, 1.0, 1.0, 256.0, 1.0, 1.750525417525494E9, 0.0, 2025-06-21 19:03:37.525
170.0, -42947.02177608273, -39984.320400276236, -28120.059146888158, -68270.25184276722, -28283.785675023282, -28719.62234015731, -51635.72599121642, -98356.8621703222, -187500.02235174447, -187500.02235174447, -44032.064858921156, -43161.77733680932, -77213.83299992478, -46488.54392630386, -85104.95991765975, -29579.203376675057, 0.0, 0.0, 0.0, 193.0, 0.0, 1.0, 1.0, 0.0, 0.0, 1.0, 1.0, 256.0, 1.0, 1.750525417533495E9, 0.0, 2025-06-21 19:03:37.533
172.0, -42924.915900816435, -39965.27671400031, -28108.61505372704, -68249.08474076806, -28275.2249568969, -28729.12183155082, -51602.667761167024, -98335.44919913402, -187500.02235174447, -187500.02235174447, -44028.555635041674, -43160.838563542195, -77215.41997378111, -46483.44772856805, -85109.96670841775, -29576.94585048507, 0.0, 0.0, 0.0, 193.0, 0.0, 1.0, 1.0, 0.0, 0.0, 1.0, 1.0, 256.0, 1.0, 1.750525417541487E9, 0.0, 2025-06-21 19:03:37.541
174.0, -42947.40175573847, -39983.80631015376, -28116.639329986494, -68263.56867117509, -28284.590337823673, -28706.50186616205, -51624.93009864451, -98351.09542025274, -187500.02235174447, -187500.02235174447, -44029.963794942356, -43159.69862457498, -77225.6794244861, -46478.30682734333, -85127.17755164833, -29571.84965274926, 0.0, 0.0, 0.0, 193.0, 0.0, 1.0, 1.0, 0.0, 0.0, 1.0, 1.0, 256.0, 1.0, 1.75052541755056E9, 0.0, 2025-06-21 19:03:37.550
176.0, -42950.709813917856, -39992.43408351351, -28122.160210866954, -68274.7668951472, -28295.40858214004, -28734.486250220092, -51637.44707553948, -98365.33348147076, -187500.02235174447, -187500.02235174447, -44050.97443473035, -43180.88807831861, -77227.24404659797, -46508.28051665789, -85112.8947869414, -29597.263586194946, 0.0, 0.0, 0.0, 193.0, 0.0, 1.0, 1.0, 0.0, 0.0, 1.0, 1.0, 256.0, 1.0, 1.750525417558532E9, 0.0, 2025-06-21 19:03:37.558
178.0, -42927.352240962064, -39970.6858361585, -28099.853169900558, -68246.40253143341, -28269.838186483168, -28751.630038217314, -51606.109929813145, -98326.77672228536, -187500.02235174447, -187500.02235174447, -44021.60424251607, -43158.24576118538, -77223.28778782938, -46467.30976907132, -85119.71206900026, -29561.858422977737, 0.0, 0.0, 0.0, 193.0, 0.0, 1.0, 1.0, 0.0, 0.0, 1.0, 1.0, 256.0, 1.0, 1.750525417566603E9, 0.0, 2025-06-21 19:03:37.566
180.0, -42979.588267754116, -40013.332964579226, -28146.590667556608, -68296.38103203548, -28306.27152994532, -28707.775915596, -51647.03597391081, -98368.88740883916, -187500.02235174447, -187500.02235174447, -44045.274739894245, -43180.66456087406, -77229.4792210435, -46490.33206586028, -85105.56341476005, -29581.438551120587, 0.0, 0.0, 0.0, 193.0, 0.0, 1.0, 1.0, 0.0, 0.0, 1.0, 1.0, 256.0, 1.0, 1.75052541757563E9, 0.0, 2025-06-21 19:03:37.575
182.0, -42927.82162759562, -39967.80246112376, -28111.699594461872, -68252.14692975843, -28268.74295100486, -28750.624209716825, -51610.26735428183, -98335.13627471165, -187500.02235174447, -187500.02235174447, -44062.97732150285, -43190.92401157904, -77247.76294800793, -46507.05117071285, -85136.23000815274, -29596.48127513901, 0.0, 0.0, 0.0, 193.0, 0.0, 1.0, 1.0, 0.0, 0.0, 1.0, 1.0, 256.0, 1.0, 1.750525417582644E9, 0.0, 2025-06-21 19:03:37.582
184.0, -42966.35603503657, -40007.7450284654, -28136.107699407068, -68284.80282840763, -28299.163675208532, -28746.243267803584, -51632.19441559249, -98360.30433896833, -187500.02235174447, -187500.02235174447, -44030.790809487204, -43166.11357523365, -77229.85920069924, -46475.57991451978, -85126.32818535903, -29568.608649803242, 0.0, 0.0, 0.0, 193.0, 0.0, 1.0, 1.0, 0.0, 0.0, 1.0, 1.0, 256.0, 1.0, 1.750525417589676E9, 0.0, 2025-06-21 19:03:37.589
186.0, -42948.83226738361, -39985.16976656554, -28121.444955044386, -68270.58711893405, -28289.105390203644, -28723.936226837188, -51638.16233136205, -98353.710574354, -187500.02235174447, -187500.02235174447, -44063.04437673621, -43195.528470936835, -77244.41018633965, -46511.72268530401, -85109.96670841775, -29604.237330465, 0.0, 0.0, 0.0, 193.0, 0.0, 1.0, 1.0, 0.0, 0.0, 1.0, 1.0, 256.0, 1.0, 1.750525417597711E9, 0.0, 2025-06-21 19:03:37.597
188.0, -42936.00236606626, -39977.97250485093, -28120.41677479944, -68258.24895599473, -28287.853692514145, -28756.100387108374, -51625.198319577976, -98351.54245514184, -187500.02235174447, -187500.02235174447, -44033.56242579966, -43163.14079322109, -77235.15656413515, -46472.04833889584, -85124.9423772028, -29565.70292302405, 0.0, 0.0, 0.0, 193.0, 0.0, 1.0, 1.0, 0.0, 0.0, 1.0, 1.0, 256.0, 1.0, 1.750525417608731E9, 0.0, 2025-06-21 19:03:37.608
190.0, -42963.67382570193, -40000.92774640653, -28131.659702260462, -68282.12061907299, -28286.154959935542, -28730.373529240314, -51640.8892441856, -98364.1711907591, -187500.02235174447, -187500.02235174447, -44054.59541733211, -43180.93278180752, -77237.16822113612, -46501.619696810216, -85116.22519686523, -29591.5862431033, 0.0, 0.0, 0.0, 193.0, 0.0, 1.0, 1.0, 0.0, 0.0, 1.0, 1.0, 256.0, 1.0, 1.750525417615778E9, 0.0, 2025-06-21 19:03:37.615
192.0, -42916.086961756584, -39962.2815802433, -28104.949367636367, -68247.49776691172, -28262.97620093539, -28721.745755880565, -51608.99330484788, -98334.68923982255, -187500.02235174447, -187500.02235174447, -44048.78396377373, -43179.12229050664, -77237.2352763695, -46497.126996174695, -85119.95793818927, -29589.731048313508, 0.0, 0.0, 0.0, 193.0, 0.0, 1.0, 1.0, 0.0, 0.0, 1.0, 1.0, 256.0, 1.0, 1.750525417621781E9, 0.0, 2025-06-21 19:03:37.621
194.0, -42965.32785479163, -40008.214415098955, -28134.453670317373, -68287.79796216464, -28291.988765238377, -28734.419194986727, -51632.663802226045, -98363.00890004741, -187500.02235174447, -187500.02235174447, -44028.62269027504, -43163.00668275436, -77225.43355529709, -46472.383615062674, -85118.10274339948, -29566.373475357712, 0.0, 0.0, 0.0, 193.0, 0.0, 1.0, 1.0, 0.0, 0.0, 1.0, 1.0, 256.0, 1.0, 1.750525417630792E9, 0.0, 2025-06-21 19:03:37.630
196.0, -42958.13059307702, -39993.77518818083, -28130.94444643789, -68278.52198821568, -28269.368799849606, -28769.22086110364, -51632.19441559249, -98356.97392904448, -187500.02235174447, -187500.02235174447, -44066.37478666005, -43198.43419771602, -77244.3878345952, -46520.57397610831, -85117.47689455473, -29611.993385790993, 0.0, 0.0, 0.0, 193.0, 0.0, 1.0, 1.0, 0.0, 0.0, 1.0, 1.0, 256.0, 1.0, 1.750525417638837E9, 0.0, 2025-06-21 19:03:37.638
198.0, -42959.7399186778, -40000.63717372861, -28130.94444643789, -68280.48894172776, -28303.36580316613, -28754.15578534076, -51629.42279928003, -98351.72126909748, -187500.02235174447, -187500.02235174447, -44046.81701026166, -43179.21169748446, -77247.60648579676, -46489.03566468188, -85140.7003570438, -29584.634850577695, 0.0, 0.0, 0.0, 193.0, 0.0, 1.0, 1.0, 0.0, 0.0, 1.0, 1.0, 256.0, 1.0, 1.750525417647805E9, 0.0, 2025-06-21 19:03:37.647
200.0, -42984.70681723438, -40019.63615651562, -28144.33314136662, -68300.80667743763, -28316.732146350405, -28723.82446811491, -51639.436380796, -98366.3169582268, -187500.02235174447, -187500.02235174447, -44066.37478666005, -43204.6479826746, -77253.64145679968, -46515.56718535032, -85127.2893103706, -29608.48416191151, 0.0, 0.0, 0.0, 193.0, 0.0, 1.0, 1.0, 0.0, 0.0, 1.0, 1.0, 256.0, 1.0, 1.750525417654834E9, 0.0, 2025-06-21 19:03:37.654
202.0, -42974.91675316295, -40018.362107081666, -28144.46725183335, -68289.54139823215, -28297.17436995201, -28732.899276363765, -51629.55690974676, -98355.8116383328, -187500.02235174447, -187500.02235174447, -44073.929676285945, -43205.854976875184, -77266.06902671684, -46522.04919124236, -85142.86847625596, -29614.3403189588, 0.0, 0.0, 0.0, 193.0, 0.0, 1.0, 1.0, 0.0, 0.0, 1.0, 1.0, 256.0, 1.0, 1.750525417661911E9, 0.0, 2025-06-21 19:03:37.661
204.0, -42968.07711935963, -40014.83053145773, -28138.81226048616, -68290.27900579918, -28268.49708181585, -28746.60089571487, -51620.437398008995, -98352.70474585352, -187500.02235174447, -187500.02235174447, -44046.146457928, -43181.51392716336, -77246.19832589607, -46493.26014438393, -85136.38647036391, -29587.47352212352, 0.0, 0.0, 0.0, 193.0, 0.0, 1.0, 1.0, 0.0, 0.0, 1.0, 1.0, 256.0, 1.0, 1.750525417669938E9, 0.0, 2025-06-21 19:03:37.669
206.0, -42993.356942338585, -40029.605034542685, -28149.742263524804, -68299.89025591496, -28313.781716082303, -28783.190701388205, -51648.533540789314, -98372.0166530629, -187500.02235174447, -187500.02235174447, -44078.46708041037, -43211.35350601119, -77257.35184637927, -46536.3319559493, -85134.3971651074, -29627.930179587627, 0.0, 0.0, 0.0, 193.0, 0.0, 1.0, 1.0, 0.0, 0.0, 1.0, 1.0, 256.0, 1.0, 1.750525417677972E9, 0.0, 2025-06-21 19:03:37.677
208.0, -42967.7418431928, -40011.00838315587, -28136.822955229636, -68282.90293012893, -28321.336605708195, -28774.205300117173, -51626.27120331183, -98359.7678971014, -187500.02235174447, -187500.02235174447, -44055.981225488336, -43184.330246964724, -77256.56953532333, -46505.28538290088, -85155.20663919528, -29600.14696122968, 0.0, 0.0, 0.0, 193.0, 0.0, 1.0, 1.0, 0.0, 0.0, 1.0, 1.0, 256.0, 1.0, 1.750525417684987E9, 0.0, 2025-06-21 19:03:37.684
210.0, -42987.16550912446, -40032.10842992168, -28150.837499003115, -68306.08168912909, -28304.349279922164, -28744.343369524882, -51644.10789538716, -98364.43941169255, -187500.02235174447, -187500.02235174447, -44061.90443776899, -43195.75198838139, -77248.05352068586, -46518.71878131852, -85128.76452550465, -29611.009909034958, 0.0, 0.0, 0.0, 193.0, 0.0, 1.0, 1.0, 0.0, 0.0, 1.0, 1.0, 256.0, 1.0, 1.750525417694045E9, 0.0, 2025-06-21 19:03:37.694
212.0, -42981.644628244, -40022.273662361345, -28149.630504802528, -68288.87084589849, -28293.016945483323, -28753.954619640666, -51631.769732447836, -98362.89714132514, -187500.02235174447, -187500.02235174447, -44083.31740895718, -43211.331154266736, -77269.4888436185, -46529.559377379344, -85155.69837757331, -29622.029319051424, 0.0, 0.0, 0.0, 193.0, 0.0, 1.0, 1.0, 0.0, 0.0, 1.0, 1.0, 256.0, 1.0, 1.750525417702074E9, 0.0, 2025-06-21 19:03:37.702
214.0, -43000.487148819826, -40038.36691836917, -28159.375865385042, -68312.29547408766, -28303.119933977123, -28714.05675578794, -51648.28767160031, -98380.04092932236, -187500.02235174447, -187500.02235174447, -44065.257199437285, -43197.897755849095, -77259.36350338024, -46504.50307184495, -85147.27176991366, -29598.872911795726, 0.0, 0.0, 0.0, 193.0, 0.0, 1.0, 1.0, 0.0, 0.0, 1.0, 1.0, 256.0, 1.0, 1.750525417710109E9, 0.0, 2025-06-21 19:03:37.710
216.0, -42998.251974374296, -40039.193932914015, -28153.251487404286, -68304.04768038365, -28305.288053189284, -28739.671854933724, -51630.47333126943, -98356.28102496637, -187500.02235174447, -187500.02235174447, -44096.303772485706, -43232.67707022156, -77274.60739309876, -46548.02191829943, -85144.5001536012, -29639.351921004287, 0.0, 0.0, 0.0, 193.0, 0.0, 1.0, 1.0, 0.0, 0.0, 1.0, 1.0, 256.0, 1.0, 1.750525417719142E9, 0.0, 2025-06-21 19:03:37.719
218.0, -42970.133479849515, -40016.30574659178, -28130.1397836375, -68274.58808119156, -28300.393021153573, -28799.149846929296, -51615.00592410636, -98353.79998133183, -187500.02235174447, -187500.02235174447, -44044.33596662712, -43174.339017193204, -77245.81834624032, -46492.96957170601, -85146.57886583553, -29587.764094801438, 0.0, 0.0, 0.0, 193.0, 0.0, 1.0, 1.0, 0.0, 0.0, 1.0, 1.0, 256.0, 1.0, 1.750525417727096E9, 0.0, 2025-06-21 19:03:37.727
220.0, -43014.65815480449, -40052.537924353834, -28156.33602813912, -68310.5296862757, -28314.31815794923, -28748.053759104463, -51651.59572977969, -98373.0224815634, -187500.02235174447, -187500.02235174447, -44067.47002213836, -43195.34965698119, -77247.67354103012, -46522.228005198005, -85131.78201100613, -29615.726127115027, 0.0, 0.0, 0.0, 193.0, 0.0, 1.0, 1.0, 0.0, 0.0, 1.0, 1.0, 256.0, 1.0, 1.750525417736151E9, 0.0, 2025-06-21 19:03:37.736
222.0, -42965.30550304717, -40015.52343553584, -28147.57414431264, -68292.2683110557, -28299.8789310311, -28767.678590736225, -51617.86694739664, -98351.14012374164, -187500.02235174447, -187500.02235174447, -44079.38350193304, -43209.297145521305, -77269.01945698494, -46535.77316233792, -85162.71682533227, -29625.315025486354, 0.0, 0.0, 0.0, 193.0, 0.0, 1.0, 1.0, 0.0, 0.0, 1.0, 1.0, 256.0, 1.0, 1.750525417742181E9, 0.0, 2025-06-21 19:03:37.742
224.0, -43021.78836128573, -40069.97228502897, -28152.871507748547, -68306.95340716284, -28287.697230302958, -28726.05964256044, -51638.9893459069, -98362.5618651583, -187500.02235174447, -187500.02235174447, -44060.652740079495, -43194.902622092086, -77258.5364888354, -46506.850005012755, -85145.17070593486, -29599.476408896022, 0.0, 0.0, 0.0, 193.0, 0.0, 1.0, 1.0, 0.0, 0.0, 1.0, 1.0, 256.0, 1.0, 1.750525417749164E9, 0.0, 2025-06-21 19:03:37.749
226.0, -43031.82429454617, -40070.62048561817, -28164.539118354216, -68309.61326475302, -28327.617445900138, -28737.146107810273, -51639.190511607, -98353.50940865392, -187500.02235174447, -187500.02235174447, -44096.907269586, -43231.15715159859, -77274.18270995411, -46544.84797058678, -85140.27567389914, -29634.076909312837, 0.0, 0.0, 0.0, 193.0, 0.0, 1.0, 1.0, 0.0, 0.0, 1.0, 1.0, 256.0, 1.0, 1.750525417758233E9, 0.0, 2025-06-21 19:03:37.758
228.0, -43042.03904176224, -40075.962552542995, -28154.01144671577, -68290.23430231027, -28330.053786045766, -28780.93317519822, -51622.9854968769, -98347.36267892871, -187500.02235174447, -187500.02235174447, -44069.41462390598, -43191.21458425696, -77265.73375055, -46502.938449733076, -85161.77805206514, -29593.396734404178, 0.0, 0.0, 0.0, 193.0, 0.0, 1.0, 1.0, 0.0, 0.0, 1.0, 1.0, 256.0, 1.0, 1.75052541776522E9, 0.0, 2025-06-21 19:03:37.765
230.0, -43078.18181254647, -40109.02078259239, -28179.96182202838, -68328.05345392865, -28320.71075686345, -28748.54549748248, -51659.66470952806, -98383.97483634649, -187500.02235174447, -187500.02235174447, -44108.0607900692, -43229.39136378663, -77286.38676242671, -46546.92668282112, -85159.20760145278, -29637.20615353658, 0.0, 0.0, 0.0, 193.0, 0.0, 1.0, 1.0, 0.0, 0.0, 1.0, 1.0, 256.0, 1.0, 1.750525417773299E9, 0.0, 2025-06-21 19:03:37.773
232.0, -43030.97492825687, -40065.52428788236, -28149.697560035893, -68288.31205228712, -28317.514457406338, -28765.577526757424, -51604.65706642355, -98348.21204521801, -187500.02235174447, -187500.02235174447, -44095.09677828512, -43210.347677510705, -77277.02138149994, -46531.4816274025, -85161.06279624258, -29622.543409173897, 0.0, 0.0, 0.0, 193.0, 0.0, 1.0, 1.0, 0.0, 0.0, 1.0, 1.0, 256.0, 1.0, 1.750525417782337E9, 0.0, 2025-06-21 19:03:37.782
234.0, -43088.508318484826, -40112.97704136098, -28175.446769648406, -68323.2254771263, -28327.63979764459, -28736.229686287606, -51647.30419484427, -98380.10798455573, -187500.02235174447, -187500.02235174447, -44091.22992649436, -43210.81706414426, -77282.07287574683, -46518.87524352971, -85162.47095614325, -29612.798048591383, 0.0, 0.0, 0.0, 193.0, 0.0, 1.0, 1.0, 0.0, 0.0, 1.0, 1.0, 256.0, 1.0, 1.750525417790366E9, 0.0, 2025-06-21 19:03:37.790
236.0, -43080.8193183922, -40105.668020924095, -28190.53419715574, -68328.09815741755, -28357.188803814508, -28744.946866625174, -51639.190511607, -98374.3188827418, -187500.02235174447, -187500.02235174447, -44123.34938327663, -43242.958872671, -77296.10977126478, -46555.46504920305, -85157.71003457428, -29646.079796085334, 0.0, 0.0, 0.0, 193.0, 0.0, 1.0, 1.0, 0.0, 0.0, 1.0, 1.0, 256.0, 1.0, 1.750525417798422E9, 0.0, 2025-06-21 19:03:37.798
238.0, -43029.32089916717, -40068.69823559502, -28148.334103624118, -68292.44712501134, -28291.8770065161, -28772.104236138373, -51628.21580507944, -98362.45010643604, -187500.02235174447, -187500.02235174447, -44093.643914895525, -43212.98518335643, -77290.07480026183, -46520.37281040822, -85176.39609293891, -29613.245083480488, 0.0, 0.0, 0.0, 193.0, 0.0, 1.0, 1.0, 0.0, 0.0, 1.0, 1.0, 256.0, 1.0, 1.750525417807479E9, 0.0, 2025-06-21 19:03:37.807
240.0, -43054.377204701574, -40081.349322956725, -28172.29517368021, -68323.27018061522, -28338.74861463888, -28731.17819204071, -51645.47135179894, -98384.62303693569, -187500.02235174447, -187500.02235174447, -44088.95004855991, -43212.448741489505, -77270.22645118552, -46528.62060411222, -85135.60415930799, -29621.15760101767, 0.0, 0.0, 0.0, 193.0, 0.0, 1.0, 1.0, 0.0, 0.0, 1.0, 1.0, 256.0, 1.0, 1.750525417815485E9, 0.0, 2025-06-21 19:03:37.815
242.0, -43036.24993994831, -40071.201630974014, -28152.33506588162, -68298.370337292, -28320.934274308, -28775.50170129558, -51642.1409418751, -98359.49967616794, -187500.02235174447, -187500.02235174447, -44101.623487666075, -43226.23976781843, -77288.73369559452, -46539.997642039976, -85168.26005795719, -29630.947665089094, 0.0, 0.0, 0.0, 193.0, 0.0, 1.0, 1.0, 0.0, 0.0, 1.0, 1.0, 256.0, 1.0, 1.750525417823517E9, 0.0, 2025-06-21 19:03:37.823
244.0, -43044.78830633024, -40079.44942467802, -28155.86664150556, -68305.0758606286, -28310.8312858142, -28736.341445009883, -51636.50830227236, -98360.57255990179, -187500.02235174447, -187500.02235174447, -44071.426280906955, -43200.6470204171, -77269.0418087294, -46507.542909090866, -85149.52929610363, -29602.940929286593, 0.0, 0.0, 0.0, 193.0, 0.0, 1.0, 1.0, 0.0, 0.0, 1.0, 1.0, 256.0, 1.0, 1.750525417829449E9, 0.0, 2025-06-21 19:03:37.829
246.0, -43041.100268495116, -40070.21815421798, -28159.979362485334, -68308.09334613006, -28308.99844276887, -28746.39973001477, -51638.45290403997, -98364.55117041484, -187500.02235174447, -187500.02235174447, -44094.33681897364, -43218.43900900352, -77268.6841808181, -46537.941281550084, -85137.45935409777, -29631.68527265612, 0.0, 0.0, 0.0, 193.0, 0.0, 1.0, 1.0, 0.0, 0.0, 1.0, 1.0, 256.0, 1.0, 1.750525417837516E9, 0.0, 2025-06-21 19:03:37.837
248.0, -43026.01284098779, -40062.64091284763, -28154.547888582696, -68296.58219773558, -28318.475582417916, -28770.003172159573, -51618.962182874944, -98355.65517612163, -187500.02235174447, -187500.02235174447, -44081.73043510085, -43205.810273386276, -77281.24586120198, -46519.434037141094, -85173.9597527933, -29616.351975959777, 0.0, 0.0, 0.0, 193.0, 0.0, 1.0, 1.0, 0.0, 0.0, 1.0, 1.0, 256.0, 1.0, 1.750525417846555E9, 0.0, 2025-06-21 19:03:37.846
250.0, -43052.05262327822, -40090.20061376102, -28174.48564463683, -68328.6793027734, -28293.486332116885, -28681.713781561113, -51637.87175868413, -98365.55699891532, -187500.02235174447, -187500.02235174447, -44082.82567057916, -43213.67808743454, -77264.52675634943, -46524.66434534363, -85133.3913366069, -29621.179952762122, 0.0, 0.0, 0.0, 193.0, 0.0, 1.0, 1.0, 0.0, 0.0, 1.0, 1.0, 256.0, 1.0, 1.750525417853587E9, 0.0, 2025-06-21 19:03:37.853
252.0, -43051.62794013357, -40087.02666604837, -28187.226138976355, -68326.53353530569, -28360.56391722726, -28834.487954913136, -51632.797912692775, -98362.60656864721, -187500.02235174447, -187500.02235174447, -44114.408685494505, -43239.44964879151, -77302.1000387788, -46550.748831122975, -85177.33486620605, -29646.39272050771, 0.0, 0.0, 0.0, 193.0, 0.0, 1.0, 1.0, 0.0, 0.0, 1.0, 1.0, 256.0, 1.0, 1.75052541786155E9, 0.0, 2025-06-21 19:03:37.861
254.0, -43049.03513777675, -40083.226869490965, -28161.0969497081, -68312.56369502112, -28337.36280648265, -28771.366628571348, -51652.534503046816, -98371.94959782955, -187500.02235174447, -187500.02235174447, -44100.148272532024, -43220.830645660244, -77294.61220438627, -46533.02389776992, -85176.105520261, -29626.074984797837, 0.0, 0.0, 0.0, 193.0, 0.0, 1.0, 1.0, 0.0, 0.0, 1.0, 1.0, 256.0, 1.0, 1.750525417869641E9, 0.0, 2025-06-21 19:03:37.869
0.0, -43061.26154199381, -40083.27157297988, -28186.779104087247, -68320.72208174731, -28355.62418170264, -28746.444433503682, -51648.690003000505, -98378.07397581029, -187500.02235174447, -187500.02235174447, -44112.55349070472, -43229.54782599781, -77286.52087289344, -46551.44173520109, -85153.19498219431, -29638.971941348547, 0.0, 0.0, 0.0, 193.0, 0.0, 1.0, 1.0, 0.0, 0.0, 1.0, 1.0, 256.0, 1.0, 1.750525417878756E9, 0.0, 2025-06-21 19:03:37.878
2.0, -43017.94386123942, -40050.302749908304, -28141.18154539842, -68279.99720334973, -28291.40761988254, -28730.641750173778, -51627.075866112216, -98345.19455971653, -187500.02235174447, -187500.02235174447, -44084.6585136245, -43201.384627984124, -77278.89892803418, -46512.236775426485, -85173.9597527933, -29602.069211252834, 0.0, 0.0, 0.0, 193.0, 0.0, 1.0, 1.0, 0.0, 0.0, 1.0, 1.0, 256.0, 1.0, 1.750525417886713E9, 0.0, 2025-06-21 19:03:37.886
4.0, -43056.32180646918, -40084.59032590274, -28174.597403359105, -68319.40332882444, -28336.356977982163, -28766.717465724643, -51659.70941301697, -98379.86211536672, -187500.02235174447, -187500.02235174447, -44094.96266781839, -43217.053200847295, -77274.76385530995, -46529.11234249024, -85141.23679891072, -29619.235350994513, 0.0, 0.0, 0.0, 193.0, 0.0, 1.0, 1.0, 0.0, 0.0, 1.0, 1.0, 256.0, 1.0, 1.750525417895798E9, 0.0, 2025-06-21 19:03:37.895
6.0, -43037.18871321544, -40067.37948267216, -28172.876319036048, -68308.2721600857, -28353.925449124035, -28789.65035553579, -51658.90475021658, -98380.08563281127, -187500.02235174447, -187500.02235174447, -44104.842138867636, -43221.702363694, -77291.57236714034, -46540.15410425116, -85174.71971210476, -29627.684310398618, 0.0, 0.0, 0.0, 193.0, 0.0, 1.0, 1.0, 0.0, 0.0, 1.0, 1.0, 256.0, 1.0, 1.750525417903767E9, 0.0, 2025-06-21 19:03:37.903
8.0, -43044.18480922995, -40076.946029299026, -28163.935621253924, -68315.84940145606, -28336.200515770975, -28770.249041348583, -51652.534503046816, -98376.10702229822, -187500.02235174447, -187500.02235174447, -44080.88106881155, -43207.88898562062, -77279.43536990111, -46518.13763596268, -85162.96269452128, -29609.937025301104, 0.0, 0.0, 0.0, 193.0, 0.0, 1.0, 1.0, 0.0, 0.0, 1.0, 1.0, 256.0, 1.0, 1.750525417910769E9, 0.0, 2025-06-21 19:03:37.910
10.0, -43048.52104765428, -40074.21911647548, -28180.453560406397, -68324.54423004917, -28329.293826734287, -28739.9847793561, -51656.021375181845, -98377.58223743227, -187500.02235174447, -187500.02235174447, -44110.74299940384, -43235.024003389364, -77290.09715200629, -46552.04523230139, -85155.25134268419, -29639.798955893395, 0.0, 0.0, 0.0, 193.0, 0.0, 1.0, 1.0, 0.0, 0.0, 1.0, 1.0, 256.0, 1.0, 1.750525417917771E9, 0.0, 2025-06-21 19:03:37.917
12.0, -43052.58906514515, -40079.71764561148, -28177.659592349482, -68319.42568056891, -28335.820536115236, -28801.45207660819, -51663.95624446348, -98381.22557177849, -187500.02235174447, -187500.02235174447, -44100.2600312543, -43226.30682305179, -77302.18944575661, -46525.15608372165, -85177.67014237287, -29619.458868439066, 0.0, 0.0, 0.0, 193.0, 0.0, 1.0, 1.0, 0.0, 0.0, 1.0, 1.0, 256.0, 1.0, 1.750525417925823E9, 0.0, 2025-06-21 19:03:37.925
14.0, -43056.835896591656, -40084.54562241383, -28175.223252203854, -68324.43247132689, -28328.13153602261, -28752.814680673444, -51658.03303218282, -98382.03023457888, -187500.02235174447, -187500.02235174447, -44107.03260982426, -43231.91711091007, -77289.53835839492, -46545.27265373143, -85156.48068862924, -29634.30042675739, 0.0, 0.0, 0.0, 193.0, 0.0, 1.0, 1.0, 0.0, 0.0, 1.0, 1.0, 256.0, 1.0, 1.750525417933885E9, 0.0, 2025-06-21 19:03:37.933
16.0, -43020.38020138505, -40053.387290643135, -28157.386560128518, -68292.13420058897, -28313.02175677082, -28789.27037588005, -51626.226499822915, -98362.74067911395, -187500.02235174447, -187500.02235174447, -44090.291153227234, -43219.198968315, -77281.71524783556, -46529.15704597915, -85156.43598514033, -29621.045842295393, 0.0, 0.0, 0.0, 193.0, 0.0, 1.0, 1.0, 0.0, 0.0, 1.0, 1.0, 256.0, 1.0, 1.750525417940941E9, 0.0, 2025-06-21 19:03:37.940
18.0, -43073.19737353294, -40100.95180284403, -28191.405915189498, -68330.93682896339, -28332.691291891493, -28737.324921765918, -51650.94752919049, -98377.62694092118, -187500.02235174447, -187500.02235174447, -44087.363074703586, -43213.25340428989, -77283.99512576999, -46526.72070583352, -85168.43887191283, -29618.47539168303, 0.0, 0.0, 0.0, 193.0, 0.0, 1.0, 1.0, 0.0, 0.0, 1.0, 1.0, 256.0, 1.0, 1.750525417950918E9, 0.0, 2025-06-21 19:03:37.950
20.0, -43031.5560736127, -40063.19970645901, -28165.187318943423, -68304.65117748395, -28319.79433534078, -28739.314227022438, -51631.769732447836, -98355.47636216598, -187500.02235174447, -187500.02235174447, -44116.68856342895, -43239.98609065844, -77295.01453578645, -46556.82850561482, -85157.75473806319, -29642.90584837268, 0.0, 0.0, 0.0, 193.0, 0.0, 1.0, 1.0, 0.0, 0.0, 1.0, 1.0, 256.0, 1.0, 1.750525417957959E9, 0.0, 2025-06-21 19:03:37.957
22.0, -43026.973965999365, -40054.32606391026, -28164.986153243324, -68307.75806996322, -28340.22382977293, -28767.008038402564, -51628.953412646464, -98353.62116737619, -187500.02235174447, -187500.02235174447, -44072.253295451796, -43198.72477039394, -77276.10495997727, -46504.36896137822, -85157.55357236309, -29597.308289683857, 0.0, 0.0, 0.0, 193.0, 0.0, 1.0, 1.0, 0.0, 0.0, 1.0, 1.0, 256.0, 1.0, 1.75052541796704E9, 0.0, 2025-06-21 19:03:37.967
24.0, -43078.5170887133, -40107.23264303597, -28201.19597926092, -68353.98147749681, -28355.355960769175, -28736.49790722107, -51672.33814863422, -98402.9738191335, -187500.02235174447, -187500.02235174447, -44115.63803143955, -43245.931654683554, -77301.63065214524, -46557.92374109313, -85164.66142709988, -29649.72313043155, 0.0, 0.0, 0.0, 193.0, 0.0, 1.0, 1.0, 0.0, 0.0, 1.0, 1.0, 256.0, 1.0, 1.750525417975218E9, 0.0, 2025-06-21 19:03:37.975
26.0, -43031.42196314597, -40062.1044709807, -28171.87049053556, -68307.51220077422, -28339.061539061255, -28792.80195150399, -51622.9854968769, -98358.62795813418, -187500.02235174447, -187500.02235174447, -44116.75561866231, -43240.56723601428, -77307.57621617035, -46558.102555048776, -85187.0578750441, -29648.47143274205, 0.0, 0.0, 0.0, 193.0, 0.0, 1.0, 1.0, 0.0, 0.0, 1.0, 1.0, 256.0, 1.0, 1.750525417983099E9, 0.0, 2025-06-21 19:03:37.983
28.0, -43061.26154199381, -40087.60781140421, -28178.62071736106, -68321.88437245898, -28351.533812467318, -28769.15380587027, -51640.95629941897, -98370.83201060677, -187500.02235174447, -187500.02235174447, -44081.01517927828, -43203.619802429654, -77276.08260823281, -46520.19399645257, -85165.1531654779, -29610.875798568228, 0.0, 0.0, 0.0, 193.0, 0.0, 1.0, 1.0, 0.0, 0.0, 1.0, 1.0, 256.0, 1.0, 1.750525417991129E9, 0.0, 2025-06-21 19:03:37.991
30.0, -43060.121603026586, -40078.756520599905, -28181.504092395797, -68318.30809334613, -28343.84481237469, -28758.849651676377, -51647.68417450001, -98372.8213158633, -187500.02235174447, -187500.02235174447, -44119.39312450804, -43238.3544133132, -77294.1428177527, -46563.15404929567, -85162.02392125415, -29651.10893858778, 0.0, 0.0, 0.0, 193.0, 0.0, 1.0, 1.0, 0.0, 0.0, 1.0, 1.0, 256.0, 1.0, 1.750525417997181E9, 0.0, 2025-06-21 19:03:37.997
32.0, -43046.48703890885, -40076.722511854474, -28170.350571912597, -68309.30034033065, -28350.148004311086, -28753.77580568502, -51647.12538088863, -98372.5754466743, -187500.02235174447, -187500.02235174447, -44086.73722585884, -43208.961869354476, -77286.23030021552, -46522.786798809386, -85179.10065401801, -29614.072098025335, 0.0, 0.0, 0.0, 193.0, 0.0, 1.0, 1.0, 0.0, 0.0, 1.0, 1.0, 256.0, 1.0, 1.750525418006188E9, 0.0, 2025-06-21 19:03:38.006
34.0, -43064.77076587329, -40082.01987529038, -28182.28640345173, -68324.52187830472, -28343.017797829845, -28741.907029379254, -51685.07864297374, -98395.06130159633, -187500.02235174447, -187500.02235174447, -44093.9568393179, -43214.482750234936, -77275.16618671015, -46536.756639093954, -85141.97440647775, -29628.041938309903, 0.0, 0.0, 0.0, 193.0, 0.0, 1.0, 1.0, 0.0, 0.0, 1.0, 1.0, 256.0, 1.0, 1.750525418013227E9, 0.0, 2025-06-21 19:03:38.013
36.0, -43057.70761462541, -40083.450386935525, -28187.159083742987, -68321.61615152552, -28356.875879392133, -28796.042954450008, -51689.03490174233, -98413.56854600532, -187500.02235174447, -187500.02235174447, -44125.00341236632, -43238.91320692458, -77311.73364063902, -46567.73615690901, -85199.19487228333, -29657.76975843546, 0.0, 0.0, 0.0, 193.0, 0.0, 1.0, 1.0, 0.0, 0.0, 1.0, 1.0, 256.0, 1.0, 1.750525418022165E9, 0.0, 2025-06-21 19:03:38.022
38.0, -43063.63082690607, -40085.059712536306, -28181.995830773812, -68322.39846258146, -28336.71460589345, -28724.96440708213, -51671.533485833825, -98399.55400223185, -187500.02235174447, -187500.02235174447, -44095.09677828512, -43217.5002357364, -77289.11367525026, -46536.89074956068, -85180.24059298522, -29628.33251098782, 0.0, 0.0, 0.0, 193.0, 0.0, 1.0, 1.0, 0.0, 0.0, 1.0, 1.0, 256.0, 1.0, 1.7505254180293E9, 0.0, 2025-06-21 19:03:38.029
40.0, -43045.23534121935, -40068.966456528484, -28164.203842187388, -68307.84747694105, -28323.50472492036, -28780.195567631195, -51658.189494394006, -98373.84949610825, -187500.02235174447, -187500.02235174447, -44106.89849935752, -43228.76551494188, -77283.03400075842, -46548.89363633319, -85151.29508391561, -29639.262514026468, 0.0, 0.0, 0.0, 193.0, 0.0, 1.0, 1.0, 0.0, 0.0, 1.0, 1.0, 256.0, 1.0, 1.750525418038285E9, 0.0, 2025-06-21 19:03:38.038
42.0, -43055.15951575751, -40081.37167470118, -28183.76161858578, -68315.75999447823, -28344.18008854152, -28777.491006552103, -51652.668613513546, -98377.42577522108, -187500.02235174447, -187500.02235174447, -44090.380560205056, -43209.07362807675, -77289.56071013937, -46516.17068245062, -85170.07054925806, -29611.591054390796, 0.0, 0.0, 0.0, 193.0, 0.0, 1.0, 1.0, 0.0, 0.0, 1.0, 1.0, 256.0, 1.0, 1.750525418046291E9, 0.0, 2025-06-21 19:03:38.046
44.0, -43056.835896591656, -40083.18216600206, -28170.507034123784, -68317.68224450138, -28342.503707707372, -28755.83216617491, -51660.759945006364, -98381.42673747858, -187500.02235174447, -187500.02235174447, -44110.273612770274, -43226.88796840763, -77288.13019849423, -46542.702203119065, -85149.86457227047, -29632.91461860116, 0.0, 0.0, 0.0, 193.0, 0.0, 1.0, 1.0, 0.0, 0.0, 1.0, 1.0, 256.0, 1.0, 1.750525418054316E9, 0.0, 2025-06-21 19:03:38.054
46.0, -43035.579387614656, -40062.41739540308, -28161.05224621919, -68295.621072724, -28329.830268601214, -28753.574639984923, -51626.62883122311, -98366.67458613809, -187500.02235174447, -187500.02235174447, -44086.78192934775, -43208.91716586556, -77276.5966983553, -46520.126941219205, -85148.59052283652, -29611.85927532426, 0.0, 0.0, 0.0, 193.0, 0.0, 1.0, 1.0, 0.0, 0.0, 1.0, 1.0, 256.0, 1.0, 1.750525418063398E9, 0.0, 2025-06-21 19:03:38.063
48.0, -43046.15176274202, -40072.386273430144, -28163.689752064915, -68305.25467458424, -28320.151963252065, -28746.39973001477, -51637.46942728394, -98373.6706821526, -187500.02235174447, -187500.02235174447, -44086.3572462031, -43210.66060193308, -77278.65305884517, -46520.37281040822, -85164.66142709988, -29612.66393812465, 0.0, 0.0, 0.0, 193.0, 0.0, 1.0, 1.0, 0.0, 0.0, 1.0, 1.0, 256.0, 1.0, 1.750525418070421E9, 0.0, 2025-06-21 19:03:38.070
50.0, -43022.61537583058, -40048.22403767396, -28152.75974902627, -68290.74839243274, -28323.303559220265, -28734.77682289801, -51628.90870915756, -98356.83981857775, -187500.02235174447, -187500.02235174447, -44090.04528403822, -43213.141645567615, -77265.57728833883, -46528.508845389944, -85133.72661277374, -29620.33058647282, 0.0, 0.0, 0.0, 193.0, 0.0, 1.0, 1.0, 0.0, 0.0, 1.0, 1.0, 256.0, 1.0, 1.750525418077469E9, 0.0, 2025-06-21 19:03:38.077
52.0, -43045.011823774796, -40070.48637515144, -28177.05609524919, -68307.91453217441, -28344.917696108547, -28755.787462686, -51624.66187771105, -98367.85922859421, -187500.02235174447, -187500.02235174447, -44072.78973731872, -43193.583869169226, -77271.74636980849, -46503.05020845535, -85165.73431083374, -29597.75532457296, 0.0, 0.0, 0.0, 193.0, 0.0, 1.0, 1.0, 0.0, 0.0, 1.0, 1.0, 256.0, 1.0, 1.750525418085466E9, 0.0, 2025-06-21 19:03:38.085
54.0, -43062.64735015004, -40082.62337239068, -28186.712048853882, -68327.76288125073, -28344.738882152902, -28711.240435986572, -51661.184628151015, -98389.02633059339, -187500.02235174447, -187500.02235174447, -44112.464083726896, -43232.27473882136, -77289.87363456174, -46542.94807230808, -85155.78778455112, -29633.67457791264, 0.0, 0.0, 0.0, 193.0, 0.0, 1.0, 1.0, 0.0, 0.0, 1.0, 1.0, 256.0, 1.0, 1.750525418094489E9, 0.0, 2025-06-21 19:03:38.094
56.0, -43025.40934388749, -40054.46017437699, -28158.079464206632, -68280.15366556092, -28341.967265840445, -28811.84563777991, -51626.07003761173, -98354.49288540994, -187500.02235174447, -187500.02235174447, -44107.03260982426, -43213.83454964573, -77291.03592527342, -46534.2308919705, -85171.18813648084, -29623.929217330126, 0.0, 0.0, 0.0, 193.0, 0.0, 1.0, 1.0, 0.0, 0.0, 1.0, 1.0, 256.0, 1.0, 1.750525418100534E9, 0.0, 2025-06-21 19:03:38.100
58.0, -43038.61922486058, -40065.88191579365, -28163.935621253924, -68299.37616579249, -28313.44643991547, -28735.961465354143, -51641.7386104749, -98364.77468785939, -187500.02235174447, -187500.02235174447, -44071.87331579606, -43187.92887782203, -77263.6326865712, -46499.94331597607, -85143.96371173426, -29590.178083202612, 0.0, 0.0, 0.0, 193.0, 0.0, 1.0, 1.0, 0.0, 0.0, 1.0, 1.0, 256.0, 1.0, 1.750525418109564E9, 0.0, 2025-06-21 19:03:38.109
60.0, -43057.52880066977, -40077.6612851216, -28184.610984875082, -68314.88827644447, -28329.51734417884, -28751.07124460593, -51653.138000147104, -98373.55892343032, -187500.02235174447, -187500.02235174447, -44109.245432525335, -43225.41275327358, -77281.80465481337, -46539.52825540641, -85146.62356932445, -29625.493839442, 0.0, 0.0, 0.0, 193.0, 0.0, 1.0, 1.0, 0.0, 0.0, 1.0, 1.0, 256.0, 1.0, 1.75052541811758E9, 0.0, 2025-06-21 19:03:38.117
62.0, -42998.54254705222, -40021.75957223887, -28132.911399949957, -68265.58032817606, -28302.65054734356, -28748.925477138222, -51600.231421021395, -98327.22375717446, -187500.02235174447, -187500.02235174447, -44076.7012925984, -43196.13196803713, -77276.57434661083, -46491.82963273879, -85151.45154612679, -29581.639716820686, 0.0, 0.0, 0.0, 193.0, 0.0, 1.0, 1.0, 0.0, 0.0, 1.0, 1.0, 256.0, 1.0, 1.75052541812662E9, 0.0, 2025-06-21 19:03:38.126
64.0, -43066.693015896446, -40091.07233179478, -28192.43409543444, -68335.36247436554, -28351.42205374504, -28751.630038217314, -51665.99025320891, -98389.02633059339, -187500.02235174447, -187500.02235174447, -44084.59145839113, -43210.146511810606, -77268.0359802289, -46514.49430161647, -85126.21642663675, -29602.784467075406, 0.0, 0.0, 0.0, 193.0, 0.0, 1.0, 1.0, 0.0, 0.0, 1.0, 1.0, 256.0, 1.0, 1.750525418134671E9, 0.0, 2025-06-21 19:03:38.134
66.0, -43059.04871929273, -40088.99361956044, -28197.9549763149, -68329.90864871844, -28357.635838703616, -28792.757248015077, -51649.852293712174, -98378.67747291058, -187500.02235174447, -187500.02235174447, -44130.54664499124, -43252.34660534222, -77322.28366402193, -46558.66134866016, -85192.9587355803, -29649.276095542446, 0.0, 0.0, 0.0, 193.0, 0.0, 1.0, 1.0, 0.0, 0.0, 1.0, 1.0, 256.0, 1.0, 1.750525418142681E9, 0.0, 2025-06-21 19:03:38.142
68.0, -43058.355815214614, -40086.087892781245, -28181.638202862527, -68322.75609049274, -28338.12276579413, -28773.93707918371, -51652.75802049137, -98383.61720843521, -187500.02235174447, -187500.02235174447, -44096.88491784155, -43223.87048290616, -77295.14864625319, -46529.62643261271, -85169.84703181351, -29622.118726029246, 0.0, 0.0, 0.0, 193.0, 0.0, 1.0, 1.0, 0.0, 0.0, 1.0, 1.0, 256.0, 1.0, 1.750525418151716E9, 0.0, 2025-06-21 19:03:38.151
70.0, -43047.20229473142, -40080.38819794515, -28194.04342103522, -68328.74635800676, -28341.296713506785, -28770.15963437076, -51648.01945066684, -98377.44812696555, -187500.02235174447, -187500.02235174447, -44120.37660126408, -43243.696480238024, -77298.43435268813, -46568.9431511096, -85171.2998952031, -29657.38977877972, 0.0, 0.0, 0.0, 193.0, 0.0, 1.0, 1.0, 0.0, 0.0, 1.0, 1.0, 256.0, 1.0, 1.750525418157693E9, 0.0, 2025-06-21 19:03:38.157
72.0, -43032.24897769082, -40069.30173269531, -28176.899633038003, -68310.39557580896, -28350.03624558881, -28810.303367412493, -51648.17591287803, -98368.08274603877, -187500.02235174447, -187500.02235174447, -44084.68086536895, -43210.99587809991, -77286.92320429363, -46527.07833374481, -85183.81687209808, -29618.609502149764, 0.0, 0.0, 0.0, 193.0, 0.0, 1.0, 1.0, 0.0, 0.0, 1.0, 1.0, 256.0, 1.0, 1.750525418165708E9, 0.0, 2025-06-21 19:03:38.165
74.0, -43057.886428581056, -40083.20451774651, -28185.19213023092, -68329.01457894023, -28331.149021524077, -28750.288933549993, -51666.07966018673, -98391.03798759438, -187500.02235174447, -187500.02235174447, -44106.362057490594, -43228.586700986234, -77287.86197756077, -46551.64290090119, -85156.12306071796, -29641.855316383284, 0.0, 0.0, 0.0, 193.0, 0.0, 1.0, 1.0, 0.0, 0.0, 1.0, 1.0, 256.0, 1.0, 1.750525418173783E9, 0.0, 2025-06-21 19:03:38.173
76.0, -43033.120695724574, -40066.26189544939, -28185.99679303131, -68319.20216312434, -28348.024588587832, -28800.312137640973, -51641.626851752626, -98373.84949610825, -187500.02235174447, -187500.02235174447, -44103.29986850022, -43226.485637007434, -77295.32746020883, -46544.535046164405, -85174.02680802665, -29635.932104102627, 0.0, 0.0, 0.0, 193.0, 0.0, 1.0, 1.0, 0.0, 0.0, 1.0, 1.0, 256.0, 1.0, 1.75052541818078E9, 0.0, 2025-06-21 19:03:38.180
78.0, -43055.40538494651, -40078.823575833274, -28197.083258281145, -68338.93875347839, -28358.976943370933, -28742.488174735092, -51662.83865724071, -98388.06520558182, -187500.02235174447, -187500.02235174447, -44101.757598132805, -43228.02790737485, -77298.70257362159, -46538.947110050576, -85179.30181971811, -29631.81938312285, 0.0, 0.0, 0.0, 193.0, 0.0, 1.0, 1.0, 0.0, 0.0, 1.0, 1.0, 256.0, 1.0, 1.750525418188848E9, 0.0, 2025-06-21 19:03:38.188
80.0, -43024.00118398681, -40046.68176730654, -28177.23490920483, -68317.05639565663, -28336.960475082455, -28732.273427519016, -51654.23323562542, -98375.74939438695, -187500.02235174447, -187500.02235174447, -44122.72353443188, -43246.84807620622, -77303.66466089066, -46567.51263946446, -85167.2542294567, -29656.607467723785, 0.0, 0.0, 0.0, 193.0, 0.0, 1.0, 1.0, 0.0, 0.0, 1.0, 1.0, 256.0, 1.0, 1.750525418197872E9, 0.0, 2025-06-21 19:03:38.197
82.0, -43024.69408806492, -40055.063671477285, -28187.24849072081, -68318.86688695752, -28334.010044814357, -28824.4520216527, -51643.77261922033, -98383.14782180164, -187500.02235174447, -187500.02235174447, -44077.9529902879, -43198.09892154919, -77280.1953292126, -46516.61771733972, -85173.02097952616, -29609.825266578828, 0.0, 0.0, 0.0, 193.0, 0.0, 1.0, 1.0, 0.0, 0.0, 1.0, 1.0, 256.0, 1.0, 1.750525418205847E9, 0.0, 2025-06-21 19:03:38.205
84.0, -43051.940864555945, -40071.78277632985, -28202.358269972596, -68345.17489018141, -28351.176184556032, -28731.49111646308, -51660.64818628409, -98387.88639162618, -187500.02235174447, -187500.02235174447, -44114.274575027775, -43235.98512840094, -77295.30510846438, -46565.16570629665, -85173.53506964864, -29654.528755489442, 0.0, 0.0, 0.0, 193.0, 0.0, 1.0, 1.0, 0.0, 0.0, 1.0, 1.0, 256.0, 1.0, 1.750525418213924E9, 0.0, 2025-06-21 19:03:38.213
86.0, -43013.98760247083, -40043.70898529398, -28171.49051087982, -68314.46359329982, -28340.22382977293, -28774.205300117173, -51642.47621804193, -98368.32861522777, -187500.02235174447, -187500.02235174447, -44106.11618830159, -43240.43312554755, -77302.50237017899, -46556.0908980478, -85187.16963376637, -29647.219735052557, 0.0, 0.0, 0.0, 193.0, 0.0, 1.0, 1.0, 0.0, 0.0, 1.0, 1.0, 256.0, 1.0, 1.750525418222926E9, 0.0, 2025-06-21 19:03:38.222
88.0, -43040.385012672545, -40062.395043658624, -28187.606118632095, -68329.9757039518, -28346.12469030913, -28771.120759382342, -51673.96982597945, -98404.47138601201, -187500.02235174447, -187500.02235174447, -44088.39125494853, -43215.75679966889, -77286.47616940453, -46534.320298948325, -85168.41652016838, -29626.589074920306, 0.0, 0.0, 0.0, 193.0, 0.0, 1.0, 1.0, 0.0, 0.0, 1.0, 1.0, 256.0, 1.0, 1.750525418230982E9, 0.0, 2025-06-21 19:03:38.230
90.0, -43031.77959105725, -40052.895552265116, -28190.735362855838, -68331.04858768565, -28328.422108700528, -28781.6931345097, -51676.853201014186, -98404.0243511229, -187500.02235174447, -187500.02235174447, -44115.97330760638, -43237.79561970182, -77297.1379515097, -46568.02672958693, -85163.52148813265, -29658.59677298031, 0.0, 0.0, 0.0, 193.0, 0.0, 1.0, 1.0, 0.0, 0.0, 1.0, 1.0, 256.0, 1.0, 1.750525418239067E9, 0.0, 2025-06-21 19:03:38.239
92.0, -43028.583291600145, -40062.77502331436, -28193.39522044602, -68330.13216616299, -28350.52798396683, -28784.42004733325, -51653.27211061384, -98383.34898750174, -187500.02235174447, -187500.02235174447, -44097.3096009862, -43221.45649450499, -77302.48001843454, -46535.370830937725, -85187.81783435558, -29629.62891216623, 0.0, 0.0, 0.0, 193.0, 0.0, 1.0, 1.0, 0.0, 0.0, 1.0, 1.0, 256.0, 1.0, 1.750525418245099E9, 0.0, 2025-06-21 19:03:38.245
94.0, -43045.43650691945, -40070.84400306273, -28198.37965945955, -68349.55583209466, -28336.021701815334, -28746.287971292495, -51665.118535175156, -98390.88152538319, -187500.02235174447, -187500.02235174447, -44118.23083379636, -43244.8587709497, -77304.62578590224, -46562.46114521756, -85168.9976655242, -29653.500575244496, 0.0, 0.0, 0.0, 193.0, 0.0, 1.0, 1.0, 0.0, 0.0, 1.0, 1.0, 256.0, 1.0, 1.750525418254054E9, 0.0, 2025-06-21 19:03:38.254
96.0, -43008.243204145816, -40042.68080504904, -28176.38554291553, -68320.72208174731, -28349.65626593307, -28790.544425314, -51648.91352044506, -98376.08467055377, -187500.02235174447, -187500.02235174447, -44104.2609935118, -43239.98609065844, -77307.46445744806, -46551.240569500995, -85180.77703485216, -29645.722168174052, 0.0, 0.0, 0.0, 193.0, 0.0, 1.0, 1.0, 0.0, 0.0, 1.0, 1.0, 256.0, 1.0, 1.750525418262087E9, 0.0, 2025-06-21 19:03:38.262
98.0, -43049.16924824348, -40074.1073577532, -28199.944281571425, -68349.7346460503, -28354.484242735416, -28774.160596628262, -51677.903733003586, -98401.58801097727, -187500.02235174447, -187500.02235174447, -44093.509804428795, -43231.96181439899, -77301.5412451674, -46540.176455995614, -85176.66431387237, -29634.97097909105, 0.0, 0.0, 0.0, 193.0, 0.0, 1.0, 1.0, 0.0, 0.0, 1.0, 1.0, 256.0, 1.0, 1.750525418269111E9, 0.0, 2025-06-21 19:03:38.269
100.0, -43028.449181133416, -40060.092813979725, -28191.67413612296, -68338.20114591136, -28323.772945853823, -28782.40839033227, -51671.824058511746, -98391.7755951614, -187500.02235174447, -187500.02235174447, -44123.32703153218, -43252.011329175395, -77310.32548073835, -46571.60300869978, -85169.82468006905, -29663.044770126915, 0.0, 0.0, 0.0, 193.0, 0.0, 1.0, 1.0, 0.0, 0.0, 1.0, 1.0, 256.0, 1.0, 1.750525418277176E9, 0.0, 2025-06-21 19:03:38.277
102.0, -43039.89327429453, -40071.134575740645, -28198.75963911529, -68339.72106453431, -28339.50857395036, -28800.110971940874, -51656.60252053768, -98384.26540902442, -187500.02235174447, -187500.02235174447, -44103.523385944776, -43233.213512088485, -77311.1971987721, -46545.853799087265, -85196.93734609334, -29640.514211715963, 0.0, 0.0, 0.0, 193.0, 0.0, 1.0, 1.0, 0.0, 0.0, 1.0, 1.0, 256.0, 1.0, 1.750525418286165E9, 0.0, 2025-06-21 19:03:38.286
104.0, -43052.94669305643, -40079.33766595575, -28195.71980186937, -68345.64427681497, -28362.575574228238, -28743.225782302117, -51671.80170676729, -98394.0778248403, -187500.02235174447, -187500.02235174447, -44113.849891883125, -43247.809201217795, -77299.2390154885, -46568.67493017614, -85170.13760449144, -29658.19444158011, 0.0, 0.0, 0.0, 193.0, 0.0, 1.0, 1.0, 0.0, 0.0, 1.0, 1.0, 256.0, 1.0, 1.750525418294191E9, 0.0, 2025-06-21 19:03:38.294
106.0, -43017.966212983876, -40044.62540681665, -28173.0998364806, -68304.56177050612, -28335.820536115236, -28817.545332616013, -51643.90672968706, -98371.5696181738, -187500.02235174447, -187500.02235174447, -44098.963630075894, -43227.08913410773, -77294.76866659745, -46548.75952586646, -85180.15118600741, -29637.407319236678, 0.0, 0.0, 0.0, 193.0, 0.0, 1.0, 1.0, 0.0, 0.0, 1.0, 1.0, 256.0, 1.0, 1.750525418302171E9, 0.0, 2025-06-21 19:03:38.302
108.0, -43057.729966369865, -40090.87116609469, -28203.408801961996, -68344.75020703676, -28339.396815228083, -28764.03525639001, -51695.91923903456, -98408.13707210268, -187500.02235174447, -187500.02235174447, -44099.05303705371, -43227.200892830006, -77298.25553873248, -46543.149238008176, -85182.72163661977, -29632.86991511225, 0.0, 0.0, 0.0, 193.0, 0.0, 1.0, 1.0, 0.0, 0.0, 1.0, 1.0, 256.0, 1.0, 1.75052541831125E9, 0.0, 2025-06-21 19:03:38.311
110.0, -43060.322768726684, -40091.40760796161, -28201.19597926092, -68343.00677096925, -28341.207306528966, -28776.909861196265, -51656.62487228213, -98396.84944115275, -187500.02235174447, -187500.02235174447, -44132.13361884757, -43261.84609673573, -77317.2992250084, -46577.816793658356, -85179.2571162292, -29665.995200395013, 0.0, 0.0, 0.0, 193.0, 0.0, 1.0, 1.0, 0.0, 0.0, 1.0, 1.0, 256.0, 1.0, 1.75052541831928E9, 0.0, 2025-06-21 19:03:38.319
112.0, -43037.814562060186, -40057.63412208964, -28187.24849072081, -68319.33627359108, -28356.27238229184, -28788.823340990944, -51642.90090118658, -98379.50448745543, -187500.02235174447, -187500.02235174447, -44101.422321965976, -43226.418581774065, -77308.91732083766, -46534.07442975932, -85193.09284604703, -29625.560894675364, 0.0, 0.0, 0.0, 193.0, 0.0, 1.0, 1.0, 0.0, 0.0, 1.0, 1.0, 256.0, 1.0, 1.750525418326306E9, 0.0, 2025-06-21 19:03:38.326
114.0, -43065.4636699514, -40079.20355548901, -28216.037537579246, -68360.17291071093, -28345.409434486563, -28741.437642745692, -51682.32937840574, -98410.68517097058, -187500.02235174447, -187500.02235174447, -44130.65840371352, -43251.65370126411, -77313.63353891773, -46574.08405233432, -85183.7051133758, -29661.48014801504, 0.0, 0.0, 0.0, 193.0, 0.0, 1.0, 1.0, 0.0, 0.0, 1.0, 1.0, 256.0, 1.0, 1.75052541833333E9, 0.0, 2025-06-21 19:03:38.333
116.0, -43027.7562770553, -40071.60396237421, -28173.077484736146, -68308.60743625253, -28321.56012315275, -28832.677463612257, -51642.9903081644, -98374.74356588646, -187500.02235174447, -187500.02235174447, -44101.80230162171, -43233.839360933234, -77303.10586727929, -46547.99956655497, -85176.61961038347, -29641.25181928299, 0.0, 0.0, 0.0, 193.0, 0.0, 1.0, 1.0, 0.0, 0.0, 1.0, 1.0, 256.0, 1.0, 1.750525418341383E9, 0.0, 2025-06-21 19:03:38.341
118.0, -43047.91755055399, -40080.18703224505, -28195.54098791373, -68340.16809942342, -28361.301524794286, -28756.860346419853, -51664.693852030505, -98392.93788587308, -187500.02235174447, -187500.02235174447, -44092.191051505935, -43222.730543938946, -77295.95330905358, -46536.555473393855, -85172.9092208039, -29628.243104010002, 0.0, 0.0, 0.0, 193.0, 0.0, 1.0, 1.0, 0.0, 0.0, 1.0, 1.0, 256.0, 1.0, 1.750525418349409E9, 0.0, 2025-06-21 19:03:38.349
120.0, -43045.771783086275, -40077.907154310604, -28196.323298969663, -68344.21376516983, -28348.337513010207, -28742.532878224003, -51662.235160140415, -98385.53945845837, -187500.02235174447, -187500.02235174447, -44128.57969147917, -43266.98699796045, -77318.28270176443, -46580.00726461497, -85182.87809883096, -29668.38683705173, 0.0, 0.0, 0.0, 193.0, 0.0, 1.0, 1.0, 0.0, 0.0, 1.0, 1.0, 256.0, 1.0, 1.750525418357468E9, 0.0, 2025-06-21 19:03:38.357
122.0, -43013.473512348355, -40056.69534882252, -28166.997810244302, -68310.5296862757, -28301.465904887427, -28832.208076978695, -51630.31686905824, -98365.98168205997, -187500.02235174447, -187500.02235174447, -44085.66434212498, -43228.251424819406, -77301.56359691186, -46525.513711632935, -85178.78772959563, -29619.30240622788, 0.0, 0.0, 0.0, 193.0, 0.0, 1.0, 1.0, 0.0, 0.0, 1.0, 1.0, 256.0, 1.0, 1.750525418365474E9, 0.0, 2025-06-21 19:03:38.365
124.0, -43037.50163763781, -40072.76625308589, -28183.605156374593, -68332.85907898654, -28311.255968958852, -28781.223747876138, -51649.82994196772, -98382.85724912373, -187500.02235174447, -187500.02235174447, -44096.504938185804, -43230.24073007593, -77288.46547466106, -46547.73134562151, -85150.04338622611, -29637.452022725585, 0.0, 0.0, 0.0, 193.0, 0.0, 1.0, 1.0, 0.0, 0.0, 1.0, 1.0, 256.0, 1.0, 1.750525418373513E9, 0.0, 2025-06-21 19:03:38.373
126.0, -43004.75633201079, -40038.85865674719, -28163.06390322017, -68299.57733149259, -28331.55135292427, -28812.22561743565, -51628.23815682389, -98351.22953071947, -187500.02235174447, -187500.02235174447, -44085.463176424884, -43220.003631115396, -77288.66664036115, -46532.39804892517, -85164.05792999959, -29625.806763864373, 0.0, 0.0, 0.0, 193.0, 0.0, 1.0, 1.0, 0.0, 0.0, 1.0, 1.0, 256.0, 1.0, 1.750525418382533E9, 0.0, 2025-06-21 19:03:38.382
128.0, -43036.22758820386, -40070.93341004055, -28180.92294703996, -68324.6783405159, -28330.836097101703, -28729.658273417746, -51649.13703788961, -98382.54432470136, -187500.02235174447, -187500.02235174447, -44076.81305132068, -43216.449703747, -77284.55391938137, -46520.7304383195, -85157.64297934092, -29613.15567650267, 0.0, 0.0, 0.0, 193.0, 0.0, 1.0, 1.0, 0.0, 0.0, 1.0, 1.0, 256.0, 1.0, 1.750525418390558E9, 0.0, 2025-06-21 19:03:38.390
130.0, -43014.14406468202, -40054.66134007709, -28176.854929549092, -68314.19537236636, -28286.60199482465, -28762.202413344672, -51644.487875042905, -98368.79800186135, -187500.02235174447, -187500.02235174447, -44105.37858073456, -43243.42825930456, -77295.7968468424, -46555.97913932552, -85158.53704911913, -29643.621104195252, 0.0, 0.0, 0.0, 193.0, 0.0, 1.0, 1.0, 0.0, 0.0, 1.0, 1.0, 256.0, 1.0, 1.750525418399554E9, 0.0, 2025-06-21 19:03:38.399
132.0, -43009.47255009086, -40054.59428484372, -28168.785949800727, -68306.08168912909, -28327.013948799846, -28814.080812225442, -51622.73962768789, -98351.1624754861, -187500.02235174447, -187500.02235174447, -44066.82182154916, -43200.46820646146, -77278.87657628972, -46501.70910378803, -85157.84414504102, -29592.90499602616, 0.0, 0.0, 0.0, 193.0, 0.0, 1.0, 1.0, 0.0, 0.0, 1.0, 1.0, 256.0, 1.0, 1.750525418406579E9, 0.0, 2025-06-21 19:03:38.406
134.0, -43031.734887568346, -40073.14623274162, -28181.90642379599, -68337.5752970666, -28334.47943144792, -28772.528919283024, -51652.735668746915, -98377.47047871, -187500.02235174447, -187500.02235174447, -44104.03747606724, -43239.11437262468, -77295.7968468424, -46544.42328744213, -85147.74115654721, -29634.032205823925, 0.0, 0.0, 0.0, 193.0, 0.0, 1.0, 1.0, 0.0, 0.0, 1.0, 1.0, 256.0, 1.0, 1.750525418413615E9, 0.0, 2025-06-21 19:03:38.413
136.0, -42999.97305869735, -40047.7546510404, -28169.031818989733, -68314.64240725547, -28302.829361299202, -28790.343259613903, -51637.71529647295, -98371.88254259617, -187500.02235174447, -187500.02235174447, -44088.63712413754, -43242.08715463724, -77302.30120447889, -46543.059831030354, -85170.67404635836, -29636.982636092027, 0.0, 0.0, 0.0, 193.0, 0.0, 1.0, 1.0, 0.0, 0.0, 1.0, 1.0, 256.0, 1.0, 1.750525418421614E9, 0.0, 2025-06-21 19:03:38.421
138.0, -43011.05952394719, -40050.101584208205, -28165.0979119656, -68316.81052646763, -28322.14126850859, -28779.748532742087, -51650.03110766782, -98377.91751359911, -187500.02235174447, -187500.02235174447, -44066.933580271434, -43212.40403800059, -77278.76481756745, -46521.110417975244, -85151.40684263788, -29614.899112570183, 0.0, 0.0, 0.0, 193.0, 0.0, 1.0, 1.0, 0.0, 0.0, 1.0, 1.0, 256.0, 1.0, 1.750525418429674E9, 0.0, 2025-06-21 19:03:38.429
140.0, -43015.015782715775, -40052.09088946473, -28184.968612786368, -68328.83576498459, -28330.523172679328, -28794.27716663804, -51651.17104663504, -98380.15268804463, -187500.02235174447, -187500.02235174447, -44101.422321965976, -43240.14255286963, -77297.56263465436, -46560.38243298321, -85156.77126130716, -29651.82419441035, 0.0, 0.0, 0.0, 193.0, 0.0, 1.0, 1.0, 0.0, 0.0, 1.0, 1.0, 256.0, 1.0, 1.750525418436692E9, 0.0, 2025-06-21 19:03:38.436
142.0, -42994.899212706, -40027.59337754171, -28175.558528370682, -68312.74250897676, -28321.69423361948, -28785.045896177995, -51634.630755738115, -98365.84757159324, -187500.02235174447, -187500.02235174447, -44081.03753102273, -43213.901604879095, -77295.05923927538, -46531.01224076894, -85180.3076482186, -29627.013758064957, 0.0, 0.0, 0.0, 193.0, 0.0, 1.0, 1.0, 0.0, 0.0, 1.0, 1.0, 256.0, 1.0, 1.750525418445739E9, 0.0, 2025-06-21 19:03:38.445
144.0, -43012.780608270245, -40044.714813794475, -28177.525481882753, -68334.11077667604, -28312.150038737065, -28716.314281977928, -51663.151581663085, -98388.84751663775, -187500.02235174447, -187500.02235174447, -44085.08319676915, -43224.51868349537, -77277.4460646446, -46557.90138934868, -85152.92676126084, -29649.47726124254, 0.0, 0.0, 0.0, 193.0, 0.0, 1.0, 1.0, 0.0, 0.0, 1.0, 1.0, 256.0, 1.0, 1.750525418453702E9, 0.0, 2025-06-21 19:03:38.453
146.0, -43012.04300070322, -40052.046185975814, -28185.39329593102, -68329.08163417359, -28323.0353382868, -28814.12551571435, -51669.18655266602, -98392.53555447288, -187500.02235174447, -187500.02235174447, -44091.74401661682, -43235.4039830451, -77300.62482364474, -46560.62830217223, -85186.2085087548, -29652.02536011045, 0.0, 0.0, 0.0, 193.0, 0.0, 1.0, 1.0, 0.0, 0.0, 1.0, 1.0, 256.0, 1.0, 1.750525418461802E9, 0.0, 2025-06-21 19:03:38.461
148.0, -43019.50848335129, -40056.47183137797, -28186.53323489824, -68332.05441618615, -28336.401681471074, -28764.147015112285, -51668.29248288781, -98395.46363299653, -187500.02235174447, -187500.02235174447, -44090.17939450496, -43232.76647719937, -77296.91443406515, -46550.92764507862, -85185.11327327648, -29639.977769849036, 0.0, 0.0, 0.0, 193.0, 0.0, 1.0, 1.0, 0.0, 0.0, 1.0, 1.0, 256.0, 1.0, 1.750525418470756E9, 0.0, 2025-06-21 19:03:38.470
150.0, -43003.43757908793, -40040.02094745886, -28183.0016592743, -68321.21382012533, -28328.533867422804, -28800.535655085525, -51644.21965410944, -98381.35968224522, -187500.02235174447, -187500.02235174447, -44105.043304567735, -43243.070631393275, -77296.2885852204, -46564.02576732943, -85173.73623534874, -29647.778528663937, 0.0, 0.0, 0.0, 193.0, 0.0, 1.0, 1.0, 0.0, 0.0, 1.0, 1.0, 256.0, 1.0, 1.750525418478864E9, 0.0, 2025-06-21 19:03:38.478
152.0, -42994.58628828362, -40034.500066578395, -28165.187318943423, -68308.85330544155, -28308.037317757287, -28771.746608227088, -51654.344994347695, -98377.76105138792, -187500.02235174447, -187500.02235174447, -44068.274684938755, -43209.81123564378, -77284.77743682593, -46503.74311253347, -85161.3980724094, -29593.24027219299, 0.0, 0.0, 0.0, 193.0, 0.0, 1.0, 1.0, 0.0, 0.0, 1.0, 1.0, 256.0, 1.0, 1.750525418486863E9, 0.0, 2025-06-21 19:03:38.486
154.0, -43007.70676227889, -40040.57974107024, -28178.933641783435, -68323.40429108194, -28307.679689846005, -28730.954674596152, -51674.90859924658, -98391.79794690585, -187500.02235174447, -187500.02235174447, -44099.56712717618, -43243.048279648814, -77295.95330905358, -46553.22987475752, -85159.58758110853, -29637.921409359147, 0.0, 0.0, 0.0, 193.0, 0.0, 1.0, 1.0, 0.0, 0.0, 1.0, 1.0, 256.0, 1.0, 1.750525418493869E9, 0.0, 2025-06-21 19:03:38.493
156.0, -42999.771892997254, -40039.7974300143, -28176.094970237613, -68308.74154671926, -28311.2336172144, -28809.61046333438, -51645.046668654286, -98378.74452814396, -187500.02235174447, -187500.02235174447, -44079.76348158878, -43219.154264826095, -77287.75021883848, -46529.40291516816, -85165.13081373344, -29617.760135860462, 0.0, 0.0, 0.0, 193.0, 0.0, 1.0, 1.0, 0.0, 0.0, 1.0, 1.0, 256.0, 1.0, 1.750525418500859E9, 0.0, 2025-06-21 19:03:38.500
158.0, -43025.54345435422, -40056.248313933414, -28188.746057599314, -68332.3226371196, -28350.595039200194, -28764.92932616822, -51665.78908750881, -98401.6774179551, -187500.02235174447, -187500.02235174447, -44075.471946653364, -43212.091113578215, -77280.46355014606, -46527.97240352302, -85163.99087476623, -29618.989481805504, 0.0, 0.0, 0.0, 193.0, 0.0, 1.0, 1.0, 0.0, 0.0, 1.0, 1.0, 256.0, 1.0, 1.750525418509868E9, 0.0, 2025-06-21 19:03:38.509
160.0, -43030.97492825687, -40056.874162778164, -28206.96272933039, -68343.632619814, -28351.064425833756, -28816.070117481962, -51663.55391306328, -98392.84847889525, -187500.02235174447, -187500.02235174447, -44122.20944430941, -43249.93261694105, -77308.58204467082, -46581.66129370467, -85188.15311052241, -29668.67740972965, 0.0, 0.0, 0.0, 193.0, 0.0, 1.0, 1.0, 0.0, 0.0, 1.0, 1.0, 256.0, 1.0, 1.750525418516952E9, 0.0, 2025-06-21 19:03:38.516
162.0, -43012.06535244767, -40043.86544750517, -28184.43217091944, -68322.75609049274, -28305.958605522945, -28793.807780004478, -51633.06613362624, -98368.3733187167, -187500.02235174447, -187500.02235174447, -44098.00250506431, -43236.4545150345, -77309.52081793796, -46542.366926952236, -85195.88681410394, -29635.306255257878, 0.0, 0.0, 0.0, 193.0, 0.0, 1.0, 1.0, 0.0, 0.0, 1.0, 1.0, 256.0, 1.0, 1.750525418524979E9, 0.0, 2025-06-21 19:03:38.524
164.0, -43036.831085304155, -40065.79250881583, -28200.570130416174, -68349.42172162792, -28359.066350348756, -28766.672762235736, -51644.8902064431, -98384.86890612471, -187500.02235174447, -187500.02235174447, -44103.16575803349, -43237.77326795737, -77290.70064910658, -46552.46991544604, -85154.75960430618, -29640.335397760322, 0.0, 0.0, 0.0, 193.0, 0.0, 1.0, 1.0, 0.0, 0.0, 1.0, 1.0, 256.0, 1.0, 1.75052541853303E9, 0.0, 2025-06-21 19:03:38.533
166.0, -43010.053695446695, -40048.6040173297, -28181.034705762235, -68324.63363702699, -28313.02175677082, -28795.350050371893, -51650.38873557911, -98376.71051939852, -187500.02235174447, -187500.02235174447, -44107.278479013265, -43248.99384367393, -77312.58300692833, -46557.49905794848, -85188.35427622251, -29649.454909498087, 0.0, 0.0, 0.0, 193.0, 0.0, 1.0, 1.0, 0.0, 0.0, 1.0, 1.0, 256.0, 1.0, 1.750525418542045E9, 0.0, 2025-06-21 19:03:38.542
168.0, -43033.970062013876, -40068.36295942819, -28186.712048853882, -68340.4810238458, -28327.79625985578, -28735.000340342565, -51655.08260191472, -98380.15268804463, -187500.02235174447, -187500.02235174447, -44083.786795590735, -43230.10661960919, -77292.57819564083, -46533.1803599811, -85162.96269452128, -29625.493839442, 0.0, 0.0, 0.0, 193.0, 0.0, 1.0, 1.0, 0.0, 0.0, 1.0, 1.0, 256.0, 1.0, 1.750525418549128E9, 0.0, 2025-06-21 19:03:38.549
170.0, -43008.869052990565, -40046.43589811753, -28175.245603948308, -68316.60936076753, -28305.578625867205, -28796.89232073931, -51633.60257549317, -98363.6123971477, -187500.02235174447, -187500.02235174447, -44102.674019655475, -43248.300939595814, -77298.36729745475, -46558.795459126886, -85159.38641540843, -29648.091453086312, 0.0, 0.0, 0.0, 193.0, 0.0, 1.0, 1.0, 0.0, 0.0, 1.0, 1.0, 256.0, 1.0, 1.750525418558108E9, 0.0, 2025-06-21 19:03:38.558
172.0, -43018.88263450654, -40057.14238371162, -28188.67900236595, -68323.67251201542, -28331.685463391004, -28814.527847114547, -51636.50830227236, -98369.222685006, -187500.02235174447, -187500.02235174447, -44079.11528099958, -43216.74027642492, -77294.23222473053, -46523.97144126552, -85180.5088139187, -29614.04974628088, 0.0, 0.0, 0.0, 193.0, 0.0, 1.0, 1.0, 0.0, 0.0, 1.0, 1.0, 256.0, 1.0, 1.750525418567148E9, 0.0, 2025-06-21 19:03:38.567
174.0, -43041.457896406406, -40069.83817456224, -28203.699374639917, -68349.95816349486, -28315.189875982986, -28752.099424850876, -51665.65497704208, -98388.46753698202, -187500.02235174447, -187500.02235174447, -44119.70604893041, -43253.79946873182, -77309.0514313044, -46568.11613656475, -85169.77997658015, -29656.49570900151, 0.0, 0.0, 0.0, 193.0, 0.0, 1.0, 1.0, 0.0, 0.0, 1.0, 1.0, 256.0, 1.0, 1.750525418573163E9, 0.0, 2025-06-21 19:03:38.573
176.0, -43019.12850369555, -40051.73326155344, -28191.942357056425, -68337.01650345523, -28347.21992578744, -28801.45207660819, -51654.30029085878, -98383.97483634649, -187500.02235174447, -187500.02235174447, -44107.65845866901, -43247.42922156206, -77314.79582962941, -46552.87224684623, -85183.61570639798, -29646.839755396817, 0.0, 0.0, 0.0, 193.0, 0.0, 1.0, 1.0, 0.0, 0.0, 1.0, 1.0, 256.0, 1.0, 1.750525418581177E9, 0.0, 2025-06-21 19:03:38.581
178.0, -43036.92049228198, -40073.70502635301, -28194.803380346704, -68350.5840123396, -28330.94785582398, -28777.915689696754, -51660.625834539635, -98393.0272928509, -187500.02235174447, -187500.02235174447, -44103.83631036715, -43247.56333202879, -77314.50525695148, -46557.87903760422, -85185.76147386568, -29652.852374655293, 0.0, 0.0, 0.0, 193.0, 0.0, 1.0, 1.0, 0.0, 0.0, 1.0, 1.0, 256.0, 1.0, 1.750525418589172E9, 0.0, 2025-06-21 19:03:38.589
180.0, -43019.70964905139, -40047.12880219565, -28197.664403636983, -68342.64914305796, -28319.861390574148, -28778.20626237467, -51654.680270514524, -98390.83682189428, -187500.02235174447, -187500.02235174447, -44116.04036283975, -43255.22998037696, -77308.67145164865, -46575.93924712411, -85174.89852606041, -29667.269249828965, 0.0, 0.0, 0.0, 193.0, 0.0, 1.0, 1.0, 0.0, 0.0, 1.0, 1.0, 256.0, 1.0, 1.750525418598252E9, 0.0, 2025-06-21 19:03:38.598
182.0, -43010.45602684689, -40044.983034727935, -28172.76456031377, -68316.09527064506, -28324.287035976296, -28789.98563170262, -51640.17398836303, -98367.3227867273, -187500.02235174447, -187500.02235174447, -44077.1036239986, -43220.67418344905, -77293.31580320785, -46535.571996637824, -85188.68955238933, -29629.494801699497, 0.0, 0.0, 0.0, 193.0, 0.0, 1.0, 1.0, 0.0, 0.0, 1.0, 1.0, 256.0, 1.0, 1.750525418604296E9, 0.0, 2025-06-21 19:03:38.604
184.0, -43047.40346043152, -40066.08308149375, -28206.40393571901, -68356.82014904263, -28344.917696108547, -28763.677628478723, -51684.58690459572, -98396.78238591939, -187500.02235174447, -187500.02235174447, -44104.21629002289, -43238.08619237974, -77293.02523052994, -46561.857648117264, -85163.32032243256, -29649.76783392046, 0.0, 0.0, 0.0, 193.0, 0.0, 1.0, 1.0, 0.0, 0.0, 1.0, 1.0, 256.0, 1.0, 1.750525418613318E9, 0.0, 2025-06-21 19:03:38.613
186.0, -43025.923434009965, -40056.181258700046, -28200.81599960518, -68340.12339593451, -28343.576591441226, -28801.183855674728, -51665.587921808714, -98387.03702533687, -187500.02235174447, -187500.02235174447, -44118.320240774185, -43258.69450076753, -77327.80454490239, -46572.139450566705, -85207.37561075397, -29663.31299106038, 0.0, 0.0, 0.0, 193.0, 0.0, 1.0, 1.0, 0.0, 0.0, 1.0, 1.0, 256.0, 1.0, 1.750525418621358E9, 0.0, 2025-06-21 19:03:38.621
188.0, -43042.843704562634, -40077.10249151022, -28197.15031351451, -68346.69480880437, -28342.593114685194, -28786.36464910086, -51672.0475759563, -98390.65800793863, -187500.02235174447, -187500.02235174447, -44105.467987712385, -43242.17656161506, -77311.68893715012, -46553.07341254633, -85189.47186344527, -29645.096319329303, 0.0, 0.0, 0.0, 193.0, 0.0, 1.0, 1.0, 0.0, 0.0, 1.0, 1.0, 256.0, 1.0, 1.750525418629359E9, 0.0, 2025-06-21 19:03:38.629
190.0, -43055.360681457605, -40077.147194999125, -28215.81402013469, -68353.78031179671, -28364.0954928512, -28815.868951781864, -51648.91352044506, -98381.98553108997, -187500.02235174447, -187500.02235174447, -44134.03351712627, -43267.56814331629, -77324.38472800073, -46581.34836928229, -85186.16380526588, -29671.046694641915, 0.0, 0.0, 0.0, 193.0, 0.0, 1.0, 1.0, 0.0, 0.0, 1.0, 1.0, 256.0, 1.0, 1.75052541863737E9, 0.0, 2025-06-21 19:03:38.637
192.0, -43059.31694022619, -40084.478567180464, -28216.372813746075, -68349.60053558357, -28357.568783470248, -28786.20818688967, -51654.92613970353, -98389.40631024913, -187500.02235174447, -187500.02235174447, -44121.78476116476, -43248.61386401819, -77328.11746932477, -46559.37660448273, -85221.45720976082, -29650.460737998575, 0.0, 0.0, 0.0, 193.0, 0.0, 1.0, 1.0, 0.0, 0.0, 1.0, 1.0, 256.0, 1.0, 1.750525418645408E9, 0.0, 2025-06-21 19:03:38.645
194.0, -43045.771783086275, -40073.61561937519, -28182.800493574203, -68334.06607318713, -28341.140251295597, -28760.324866810428, -51666.7949160093, -98387.12643231469, -187500.02235174447, -187500.02235174447, -44125.85277865562, -43262.94133221404, -77314.77347788496, -46577.950904125086, -85177.51368016168, -29669.48207253004, 0.0, 0.0, 0.0, 193.0, 0.0, 1.0, 1.0, 0.0, 0.0, 1.0, 1.0, 256.0, 1.0, 1.750525418654484E9, 0.0, 2025-06-21 19:03:38.654
196.0, -43057.79702160323, -40084.59032590274, -28212.48361021085, -68345.01842797022, -28349.432748488518, -28811.443306379715, -51661.206979895476, -98387.8193363928, -187500.02235174447, -187500.02235174447, -44093.91213582899, -43233.43702953304, -77299.14960851069, -46545.563226409344, -85180.73233136325, -29638.413147737167, 0.0, 0.0, 0.0, 193.0, 0.0, 1.0, 1.0, 0.0, 0.0, 1.0, 1.0, 256.0, 1.0, 1.750525418660503E9, 0.0, 2025-06-21 19:03:38.660
198.0, -43073.93498109996, -40096.995544075435, -28222.765412660294, -68361.15638746695, -28349.05276883278, -28799.41806786276, -51669.9465119775, -98394.61426670723, -187500.02235174447, -187500.02235174447, -44120.0636768417, -43252.0560326643, -77319.26617852047, -46569.12196506524, -85206.03450608665, -29660.899002659204, 0.0, 0.0, 0.0, 193.0, 0.0, 1.0, 1.0, 0.0, 0.0, 1.0, 1.0, 256.0, 1.0, 1.750525418669501E9, 0.0, 2025-06-21 19:03:38.669
200.0, -43074.42671947798, -40094.559203929806, -28222.340729515643, -68361.69282933389, -28389.643536763615, -28816.740669815623, -51679.80363128229, -98401.96799063301, -187500.02235174447, -187500.02235174447, -44148.249226599844, -43278.498146354934, -77338.37692002975, -46605.287087593926, -85212.33769802305, -29695.052468186914, 0.0, 0.0, 0.0, 193.0, 0.0, 1.0, 1.0, 0.0, 0.0, 1.0, 1.0, 256.0, 1.0, 1.750525418677516E9, 0.0, 2025-06-21 19:03:38.677
202.0, -43060.70274838242, -40084.81384334729, -28206.269825252275, -68341.46450060184, -28357.47937649243, -28793.763076515566, -51655.596692037194, -98376.79992637633, -187500.02235174447, -187500.02235174447, -44110.96651684839, -43241.036622647836, -77322.99891984451, -46555.867380603246, -85216.20454981382, -29648.2479152975, 0.0, 0.0, 0.0, 193.0, 0.0, 1.0, 1.0, 0.0, 0.0, 1.0, 1.0, 256.0, 1.0, 1.75052541868551E9, 0.0, 2025-06-21 19:03:38.685
204.0, -43085.44612949445, -40108.216119792, -28224.66531093899, -68370.7899893272, -28342.995446085388, -28790.656184036277, -51681.50236386089, -98394.94954287405, -187500.02235174447, -187500.02235174447, -44129.652575213026, -43262.22607639147, -77318.17094304216, -46578.21912505855, -85180.97820055226, -29668.00685739599, 0.0, 0.0, 0.0, 193.0, 0.0, 1.0, 1.0, 0.0, 0.0, 1.0, 1.0, 256.0, 1.0, 1.750525418692601E9, 0.0, 2025-06-21 19:03:38.692
206.0, -43057.75231811432, -40087.20548000401, -28210.87428461007, -68346.9853814823, -28372.365638299663, -28834.242085724127, -51645.02431690983, -98370.63084490667, -187500.02235174447, -187500.02235174447, -44143.153028864035, -43273.02196896338, -77344.94833289961, -46584.18704082812, -85220.56313998261, -29676.4558168001, 0.0, 0.0, 0.0, 193.0, 0.0, 1.0, 1.0, 0.0, 0.0, 1.0, 1.0, 256.0, 1.0, 1.750525418701589E9, 0.0, 2025-06-21 19:03:38.701
208.0, -43058.7134431259, -40087.51840442639, -28193.775200101758, -68344.72785529231, -28344.448309474985, -28753.10525335136, -51635.524825516324, -98363.3665279587, -187500.02235174447, -187500.02235174447, -44110.497130214826, -43247.250407606414, -77315.06405056287, -46556.135601536706, -85188.55544192261, -29646.88445888573, 0.0, 0.0, 0.0, 193.0, 0.0, 1.0, 1.0, 0.0, 0.0, 1.0, 1.0, 256.0, 1.0, 1.7505254187096E9, 0.0, 2025-06-21 19:03:38.709
210.0, -43064.14491702854, -40087.02666604837, -28209.600235176116, -68351.20986118435, -28338.927428594525, -28789.672707280246, -51654.81438098125, -98374.18477227507, -187500.02235174447, -187500.02235174447, -44127.70797344542, -43264.237733392445, -77319.78026864293, -46577.950904125086, -85181.02290404117, -29666.933973662137, 0.0, 0.0, 0.0, 193.0, 0.0, 1.0, 1.0, 0.0, 0.0, 1.0, 1.0, 256.0, 1.0, 1.750525418718684E9, 0.0, 2025-06-21 19:03:38.718
212.0, -43064.301379239725, -40094.64861090763, -28211.813057877192, -68348.75116929426, -28341.676693162524, -28830.08466125544, -51679.37894813764, -98394.88248764069, -187500.02235174447, -187500.02235174447, -44112.08410407115, -43244.545846527326, -77323.37889950024, -46545.83144734281, -85202.2123577848, -29638.01081633697, 0.0, 0.0, 0.0, 193.0, 0.0, 1.0, 1.0, 0.0, 0.0, 1.0, 1.0, 256.0, 1.0, 1.750525418725724E9, 0.0, 2025-06-21 19:03:38.725
214.0, -43079.545268958245, -40103.61166043421, -28215.948130601424, -68360.4858351333, -28368.476434764438, -28769.198509359183, -51696.58979136823, -98412.69682797157, -187500.02235174447, -187500.02235174447, -44142.03544164127, -43270.250352650924, -77329.86090539228, -46580.387244270714, -85184.91210757638, -29668.185671351635, 0.0, 0.0, 0.0, 193.0, 0.0, 1.0, 1.0, 0.0, 0.0, 1.0, 1.0, 256.0, 1.0, 1.750525418734724E9, 0.0, 2025-06-21 19:03:38.734
216.0, -43050.5103529108, -40067.89357279463, -28198.53612167074, -68325.10302366054, -28368.029399875333, -28818.08177448294, -51665.27499738634, -98381.87377236769, -187500.02235174447, -187500.02235174447, -44126.59038622265, -43251.586646030744, -77328.83272514734, -46556.22500851453, -85200.7594943952, -29646.549182718896, 0.0, 0.0, 0.0, 193.0, 0.0, 1.0, 1.0, 0.0, 0.0, 1.0, 1.0, 256.0, 1.0, 1.750525418741723E9, 0.0, 2025-06-21 19:03:38.741
218.0, -43093.53746098727, -40105.44450347954, -28223.905351627513, -68365.44792240238, -28375.830158690234, -28754.15578534076, -51693.214677955475, -98410.37224654821, -187500.02235174447, -187500.02235174447, -44123.59525246564, -43246.73631748394, -77322.14955355521, -46551.508790434455, -85193.6069361695, -29642.10118557229, 0.0, 0.0, 0.0, 193.0, 0.0, 1.0, 1.0, 0.0, 0.0, 1.0, 1.0, 256.0, 1.0, 1.750525418748782E9, 0.0, 2025-06-21 19:03:38.748
220.0, -43071.00690257632, -40091.69818063953, -28209.220255520377, -68348.52765184971, -28339.687387906004, -28796.042954450008, -51666.7949160093, -98390.5686009608, -187500.02235174447, -187500.02235174447, -44148.182171366476, -43281.716797556495, -77337.39344327372, -46585.1928693286, -85197.4067327269, -29676.20994761109, 0.0, 0.0, 0.0, 193.0, 0.0, 1.0, 1.0, 0.0, 0.0, 1.0, 1.0, 256.0, 1.0, 1.75052541875784E9, 0.0, 2025-06-21 19:03:38.757
222.0, -43066.402443218525, -40094.60390741872, -28198.558473415196, -68337.17296566641, -28356.786472414315, -28812.024451735553, -51663.08452642972, -98381.56084794532, -187500.02235174447, -187500.02235174447, -44110.87710987057, -43241.036622647836, -77321.30018726591, -46540.891711818185, -85200.33481125055, -29636.557952947376, 0.0, 0.0, 0.0, 193.0, 0.0, 1.0, 1.0, 0.0, 0.0, 1.0, 1.0, 256.0, 1.0, 1.750525418765867E9, 0.0, 2025-06-21 19:03:38.765
224.0, -43091.65991445302, -40101.4658929665, -28213.757659644805, -68362.25162294527, -28348.13634731011, -28756.994456886587, -51672.248741656396, -98386.85821138123, -187500.02235174447, -187500.02235174447, -44132.9159299035, -43260.527343812864, -77318.93090235363, -46569.50194472098, -85171.03167426965, -29661.949534648604, 0.0, 0.0, 0.0, 193.0, 0.0, 1.0, 1.0, 0.0, 0.0, 1.0, 1.0, 256.0, 1.0, 1.750525418772883E9, 0.0, 2025-06-21 19:03:38.772
226.0, -43061.10507978262, -40097.59904117573, -28213.332976500154, -68347.07478846012, -28346.99640834289, -28813.432611636235, -51640.26339534085, -98381.78436538987, -187500.02235174447, -187500.02235174447, -44131.93245314747, -43266.09292818224, -77337.21462931808, -46559.30954924936, -85199.79836938363, -29655.333418289832, 0.0, 0.0, 0.0, 193.0, 0.0, 1.0, 1.0, 0.0, 0.0, 1.0, 1.0, 256.0, 1.0, 1.750525418780877E9, 0.0, 2025-06-21 19:03:38.780
228.0, -43086.83193765068, -40110.04896283734, -28212.617720677583, -68357.15542520946, -28344.582419941715, -28792.39962010379, -51673.299273645796, -98388.4228334931, -187500.02235174447, -187500.02235174447, -44128.89261590155, -43258.42627983407, -77329.57033271437, -46556.627339914725, -85195.104503048, -29650.661903698674, 0.0, 0.0, 0.0, 193.0, 0.0, 1.0, 1.0, 0.0, 0.0, 1.0, 1.0, 256.0, 1.0, 1.750525418789946E9, 0.0, 2025-06-21 19:03:38.789
230.0, -43060.389823960046, -40068.36295942819, -28203.05117405071, -68346.85127101556, -28351.46675723395, -28742.82345090192, -51662.34691886269, -98371.83783910726, -187500.02235174447, -187500.02235174447, -44149.7691452228, -43276.93352424306, -77337.751071185, -46577.92855238063, -85185.91793607688, -29672.432502798143, 0.0, 0.0, 0.0, 193.0, 0.0, 1.0, 1.0, 0.0, 0.0, 1.0, 1.0, 256.0, 1.0, 1.750525418796992E9, 0.0, 2025-06-21 19:03:38.796
232.0, -43060.36747221559, -40093.93335508506, -28205.085182796145, -68349.28761116118, -28345.70000716448, -28829.704681599702, -51637.5364825173, -98368.44037395006, -187500.02235174447, -187500.02235174447, -44097.980153319855, -43234.50991326689, -77311.3536609833, -46530.98988902449, -85187.81783435558, -29629.33833948831, 0.0, 0.0, 0.0, 193.0, 0.0, 1.0, 1.0, 0.0, 0.0, 1.0, 1.0, 256.0, 1.0, 1.750525418805017E9, 0.0, 2025-06-21 19:03:38.805
234.0, -43104.020429136806, -40130.769029947405, -28221.893694626535, -68365.55968112465, -28348.941010110502, -28773.490044294602, -51663.53156131883, -98395.3742260187, -187500.02235174447, -187500.02235174447, -44154.485363302876, -43285.628352836175, -77341.28264680895, -46589.03736937492, -85191.95290707982, -29684.167168637177, 0.0, 0.0, 0.0, 193.0, 0.0, 1.0, 1.0, 0.0, 0.0, 1.0, 1.0, 256.0, 1.0, 1.750525418813009E9, 0.0, 2025-06-21 19:03:38.813
236.0, -43071.20806827641, -40105.98094534647, -28187.181435487444, -68320.69973000286, -28325.85165808817, -28827.223637965162, -51635.03308713831, -98369.51325768391, -187500.02235174447, -187500.02235174447, -44101.22115626588, -43229.436067275536, -77305.87748359174, -46530.98988902449, -85172.52924114815, -29625.650301653186, 0.0, 0.0, 0.0, 193.0, 0.0, 1.0, 1.0, 0.0, 0.0, 1.0, 1.0, 256.0, 1.0, 1.750525418822094E9, 0.0, 2025-06-21 19:03:38.822
238.0, -43125.612214280634, -40161.457975084544, -28222.899523127024, -68369.69475384889, -28343.84481237469, -28787.906919468274, -51671.332320133726, -98398.30230454235, -187500.02235174447, -187500.02235174447, -44139.82261894019, -43270.27270439538, -77340.8579636643, -46566.50681096397, -85202.99466884074, -29660.854299170293, 0.0, 0.0, 0.0, 193.0, 0.0, 1.0, 1.0, 0.0, 0.0, 1.0, 1.0, 256.0, 1.0, 1.750525418829091E9, 0.0, 2025-06-21 19:03:38.829
240.0, -43098.410141278524, -40142.21312310852, -28198.24554899282, -68341.77742502421, -28339.75444313937, -28773.713561739158, -51649.874645456635, -98378.02927232138, -187500.02235174447, -187500.02235174447, -44135.4193252825, -43277.49231785445, -77329.9503123701, -46571.714767422054, -85183.54865116462, -29664.989371894524, 0.0, 0.0, 0.0, 193.0, 0.0, 1.0, 1.0, 0.0, 0.0, 1.0, 1.0, 256.0, 1.0, 1.750525418837103E9, 0.0, 2025-06-21 19:03:38.837
242.0, -43083.90385912703, -40109.51252097041, -28180.990002273324, -68326.3770730945, -28338.458041960963, -28798.546349829, -51630.27216556933, -98358.717365112, -187500.02235174447, -187500.02235174447, -44098.5612986757, -43243.964701171484, -77315.06405056287, -46528.33003143431, -85189.78478786764, -29626.365557475754, 0.0, 0.0, 0.0, 193.0, 0.0, 1.0, 1.0, 0.0, 0.0, 1.0, 1.0, 256.0, 1.0, 1.750525418845171E9, 0.0, 2025-06-21 19:03:38.845
244.0, -43097.225498822394, -40129.85260842474, -28198.75963911529, -68349.62288732802, -28329.383233712106, -28769.35497157037, -51660.60348279518, -98385.36064450273, -187500.02235174447, -187500.02235174447, -44112.12880756007, -43254.78294548785, -77304.6928411356, -46554.16864802464, -85164.21439221078, -29646.929162374636, 0.0, 0.0, 0.0, 193.0, 0.0, 1.0, 1.0, 0.0, 0.0, 1.0, 1.0, 256.0, 1.0, 1.750525418853211E9, 0.0, 2025-06-21 19:03:38.853
246.0, -43061.373300716084, -40090.848814350225, -28170.283516679232, -68312.72015723231, -28315.838076572192, -28803.46373360917, -51652.33333734672, -98364.4170599481, -187500.02235174447, -187500.02235174447, -44102.22698476636, -43244.098811638214, -77313.81235287337, -46542.67985137461, -85185.1579767654, -29640.71537741606, 0.0, 0.0, 0.0, 193.0, 0.0, 1.0, 1.0, 0.0, 0.0, 1.0, 1.0, 256.0, 1.0, 1.750525418861237E9, 0.0, 2025-06-21 19:03:38.861
248.0, -43098.25367906734, -40127.52802700139, -28190.95888030039, -68350.65106757297, -28329.76321336785, -28785.716448511655, -51664.626796797136, -98376.48700195397, -187500.02235174447, -187500.02235174447, -44087.65364738151, -43231.872407421164, -77296.10977126478, -46527.123037233716, -85158.58175260804, -29626.946702831592, 0.0, 0.0, 0.0, 193.0, 0.0, 1.0, 1.0, 0.0, 0.0, 1.0, 1.0, 256.0, 1.0, 1.750525418869234E9, 0.0, 2025-06-21 19:03:38.869
250.0, -43065.351911229125, -40096.14617778613, -28185.19213023092, -68330.9815324523, -28326.388099955097, -28801.161503930274, -51647.43830531101, -98376.28583625387, -187500.02235174447, -187500.02235174447, -44111.63706918205, -43259.700329268024, -77310.3031289939, -46553.81102011335, -85161.26396194268, -29652.00300836599, 0.0, 0.0, 0.0, 193.0, 0.0, 1.0, 1.0, 0.0, 0.0, 1.0, 1.0, 256.0, 1.0, 1.75052541887831E9, 0.0, 2025-06-21 19:03:38.878
252.0, -43062.40148096102, -40093.083988795755, -28185.080371508644, -68333.10494817555, -28341.341416995696, -28806.83884702192, -51647.46065705546, -98375.41411822011, -187500.02235174447, -187500.02235174447, -44090.33585671614, -43241.55071277031, -77313.00769007298, -46533.001546025465, -85192.10936929099, -29634.836868624316, 0.0, 0.0, 0.0, 193.0, 0.0, 1.0, 1.0, 0.0, 0.0, 1.0, 1.0, 256.0, 1.0, 1.750525418885305E9, 0.0, 2025-06-21 19:03:38.885
254.0, -43072.57152468819, -40099.83421562126, -28189.930700055447, -68340.36926512352, -28315.055765516256, -28704.44550567216, -51652.534503046816, -98378.67747291058, -187500.02235174447, -187500.02235174447, -44102.00346732181, -43248.61386401819, -77299.01549804395, -46555.509752691956, -85159.27465668615, -29650.43838625412, 0.0, 0.0, 0.0, 193.0, 0.0, 1.0, 1.0, 0.0, 0.0, 1.0, 1.0, 256.0, 1.0, 1.750525418893324E9, 0.0, 2025-06-21 19:03:38.893
0.0, -43042.62018711808, -40082.91394506859, -28172.85396729159, -68314.35183457755, -28299.677765331006, -28826.08369899794, -51610.155595559554, -98350.76014408591, -187500.02235174447, -187500.02235174447, -44096.32612423017, -43242.19891335951, -77309.83374236032, -46535.41553442664, -85176.82077608356, -29635.172144791144, 0.0, 0.0, 0.0, 193.0, 0.0, 1.0, 1.0, 0.0, 0.0, 1.0, 1.0, 256.0, 1.0, 1.750525418903369E9, 0.0, 2025-06-21 19:03:38.903
2.0, -43061.015672804795, -40091.07233179478, -28178.598365616606, -68331.20504989685, -28300.348317664662, -28765.801044201977, -51633.11083711515, -98361.75720235791, -187500.02235174447, -187500.02235174447, -44074.555525130694, -43217.14260782512, -77285.15741648167, -46520.126941219205, -85150.46806937076, -29620.375289961732, 0.0, 0.0, 0.0, 193.0, 0.0, 1.0, 1.0, 0.0, 0.0, 1.0, 1.0, 256.0, 1.0, 1.750525418909341E9, 0.0, 2025-06-21 19:03:38.909
4.0, -43063.34025422815, -40103.05286682283, -28193.730496612847, -68344.59374482557, -28331.707815135458, -28808.42582087825, -51649.449962311985, -98376.24113276496, -187500.02235174447, -187500.02235174447, -44113.80518839422, -43263.23190489196, -77315.44403021861, -46570.91010462167, -85175.83729932754, -29672.074874886857, 0.0, 0.0, 0.0, 193.0, 0.0, 1.0, 1.0, 0.0, 0.0, 1.0, 1.0, 256.0, 1.0, 1.750525418917415E9, 0.0, 2025-06-21 19:03:38.917
6.0, -43050.3091872107, -40088.70304688252, -28176.229080704343, -68327.38290159499, -28320.733108607903, -28798.769867273557, -51646.20895936596, -98373.04483330785, -187500.02235174447, -187500.02235174447, -44076.7012925984, -43227.960852141485, -77300.37895445574, -46523.12207497622, -85180.5535174076, -29627.684310398618, 0.0, 0.0, 0.0, 193.0, 0.0, 1.0, 1.0, 0.0, 0.0, 1.0, 1.0, 256.0, 1.0, 1.750525418925476E9, 0.0, 2025-06-21 19:03:38.925
8.0, -43081.44516723695, -40108.75256165893, -28199.96663331588, -68357.08836997609, -28304.79631481127, -28753.440529518193, -51673.0981079457, -98387.95344685954, -187500.02235174447, -187500.02235174447, -44106.11618830159, -43258.82861123426, -77305.87748359174, -46561.81294462836, -85165.3990346669, -29661.457796270588, 0.0, 0.0, 0.0, 193.0, 0.0, 1.0, 1.0, 0.0, 0.0, 1.0, 1.0, 256.0, 1.0, 1.750525418933502E9, 0.0, 2025-06-21 19:03:38.933
10.0, -43043.84953306312, -40080.87993632316, -28174.977383014844, -68322.13024164799, -28319.21318998494, -28839.360635204393, -51641.67155524153, -98361.48898142445, -187500.02235174447, -187500.02235174447, -44091.98988580584, -43246.915131439586, -77309.40905921567, -46545.27265373143, -85190.88002334596, -29646.459775741074, 0.0, 0.0, 0.0, 193.0, 0.0, 1.0, 1.0, 0.0, 0.0, 1.0, 1.0, 256.0, 1.0, 1.750525418940502E9, 0.0, 2025-06-21 19:03:38.940
12.0, -43058.46757393689, -40088.948916071524, -28180.2523947063, -68336.39065461048, -28314.832248071703, -28726.46197396064, -51655.14965714808, -98370.1167547842, -187500.02235174447, -187500.02235174447, -44078.31061819919, -43227.37970678565, -77289.67246886164, -46528.35238317876, -85162.82858405454, -29628.041938309903, 0.0, 0.0, 0.0, 193.0, 0.0, 1.0, 1.0, 0.0, 0.0, 1.0, 1.0, 256.0, 1.0, 1.750525418949539E9, 0.0, 2025-06-21 19:03:38.949
