%OpenBCI Raw EXG Data
%Number of channels = 16
%Sample Rate = 125 Hz
%Board = OpenBCI_GUI$BoardCytonSerialDaisy
Sample Index, EXG Channel 0, EXG Channel 1, EXG Channel 2, EXG Channel 3, EXG Channel 4, EXG Channel 5, EXG Channel 6, EXG Channel 7, EXG Channel 8, EXG Channel 9, EXG Channel 10, EXG Channel 11, EXG Channel 12, EXG Channel 13, EXG Channel 14, EXG Channel 15, Accel Channel 0, Accel Channel 1, Accel Channel 2, Not Used, Digital Channel 0 (D11), Digital Channel 1 (D12), Digital Channel 2 (D13), Digital Channel 3 (D17), Not Used, Digital Channel 4 (D18), Analog Channel 0, Analog Channel 1, Analog Channel 2, Timestamp, Marker Channel, Timestamp (Formatted)
222.0, -43436.05559302039, -38818.431057742964, -29576.74468478497, -71582.78037104373, -28360.18393757152, -28358.574611970736, -52188.77520427408, -98901.66358967587, -187500.02235174447, -187500.02235174447, -47183.88434456401, -45732.42911486973, -78310.11901022423, -48382.49664097984, -87718.14706541861, -31329.43437450342, 0.0, 0.0, 0.0, 193.0, 0.0, 1.0, 1.0, 0.0, 0.0, 1.0, 1.0, 256.0, 1.0, 1.750527423250108E9, 0.0, 2025-06-21 19:37:03.250
224.0, -43454.965168829585, -38825.36009852411, -29582.15380694316, -71598.87362705155, -28358.619315459648, -28287.40665762504, -52210.814024307016, -98915.7004851938, -187500.02235174447, -187500.02235174447, -47221.032943848724, -45765.64380713032, -78308.77790555691, -48422.7297809994, -87687.59223074821, -31370.561584301187, 0.0, 0.0, 0.0, 193.0, 0.0, 1.0, 1.0, 0.0, 0.0, 1.0, 1.0, 256.0, 1.0, 1.750527423250753E9, 0.0, 2025-06-21 19:37:03.250
0.0, -21600.591731142013, -19137.518899144998, -14679.754040211921, -35740.41703229154, -13905.84724019137, -14069.59612007095, -26029.43343274992, -49386.84992633462, -93750.01117587223, -93750.01117587223, -23605.409098316326, -22880.743191330814, -39151.71791931605, -24212.03544283336, -43843.170266529356, -15685.716651167471, 0.0, 0.0, 0.0, 193.0, 0.0, 1.0, 1.0, 0.0, 0.0, 1.0, 1.0, 256.0, 1.0, 1.750527423348669E9, 0.0, 2025-06-21 19:37:03.348
2.0, -43207.93368910953, -38278.81524310294, -29368.560536928242, -71489.70770713183, -27814.39904146183, -28158.794720029204, -52064.47715335812, -98786.8203266645, -187500.02235174447, -187500.02235174447, -46964.546676224076, -45680.6848264557, -77833.75863239272, -48233.58931941859, -87497.06596101118, -31238.1722018924, 0.0, 0.0, 0.0, 193.0, 0.0, 1.0, 1.0, 0.0, 0.0, 1.0, 1.0, 256.0, 1.0, 1.750527423355612E9, 0.0, 2025-06-21 19:37:03.355
4.0, -43213.40986650108, -38279.374036714325, -29363.911374081537, -71490.06533504312, -27800.317442454987, -28105.262292058742, -52061.4373161122, -98780.38302426136, -187500.02235174447, -187500.02235174447, -46977.95772289726, -45698.05213189747, -77832.05989981412, -48255.18110456242, -87466.4440711074, -31260.501594603254, 0.0, 0.0, 0.0, 193.0, 0.0, 1.0, 1.0, 0.0, 0.0, 1.0, 1.0, 256.0, 1.0, 1.75052742336264E9, 0.0, 2025-06-21 19:37:03.362
6.0, -43202.68102916253, -38286.2360222621, -29359.753949612852, -71476.65428836993, -27814.086117039456, -28169.657667834483, -52053.033060197005, -98772.38109974636, -187500.02235174447, -187500.02235174447, -46961.73035642271, -45670.98416936209, -77816.03369903966, -48225.922671070424, -87454.01650119026, -31231.019643666703, 0.0, 0.0, 0.0, 193.0, 0.0, 1.0, 1.0, 0.0, 0.0, 1.0, 1.0, 256.0, 1.0, 1.75052742337063E9, 0.0, 2025-06-21 19:37:03.370
8.0, -43215.13095082414, -38299.53531021301, -29359.798653101763, -71487.0702012861, -27812.83441934996, -28148.46821409085, -52064.03011846902, -98794.86695466841, -187500.02235174447, -187500.02235174447, -46970.17931582681, -45684.082291612904, -77835.32325450459, -48235.69038339739, -87488.79581556271, -31240.161507148925, 0.0, 0.0, 0.0, 193.0, 0.0, 1.0, 1.0, 0.0, 0.0, 1.0, 1.0, 256.0, 1.0, 1.75052742337867E9, 0.0, 2025-06-21 19:37:03.378
10.0, -43225.36804978467, -38298.14950205678, -29373.09794105267, -71498.06725955811, -27819.092907797447, -28138.924019208436, -52071.16032495026, -98790.79893717753, -187500.02235174447, -187500.02235174447, -46982.808051444066, -45702.79070172199, -77834.56329519312, -48259.629101709026, -87458.59860880359, -31263.921411504914, 0.0, 0.0, 0.0, 193.0, 0.0, 1.0, 1.0, 0.0, 0.0, 1.0, 1.0, 256.0, 1.0, 1.750527423387673E9, 0.0, 2025-06-21 19:37:03.387
12.0, -43189.35938946717, -38266.74530109707, -29343.146603482557, -71455.62129683749, -27790.326212683467, -28157.2971531507, -52033.92231868772, -98754.63381464886, -187500.02235174447, -187500.02235174447, -46963.853772145965, -45677.35441653185, -77832.68574865887, -48215.864386065536, -87480.1456904585, -31218.41325979391, 0.0, 0.0, 0.0, 193.0, 0.0, 1.0, 1.0, 0.0, 0.0, 1.0, 1.0, 256.0, 1.0, 1.750527423394706E9, 0.0, 2025-06-21 19:37:03.394
14.0, -43215.95796536899, -38289.29821125248, -29356.982333300395, -71489.79711410965, -27803.424334934276, -28111.163152594945, -52067.785211537506, -98778.72899517167, -187500.02235174447, -187500.02235174447, -46963.67495819032, -45664.792736147974, -77805.68484135687, -48218.94892680037, -87433.49759978028, -31220.916655172907, 0.0, 0.0, 0.0, 193.0, 0.0, 1.0, 1.0, 0.0, 0.0, 1.0, 1.0, 256.0, 1.0, 1.750527423402747E9, 0.0, 2025-06-21 19:37:03.402
16.0, -43196.51194769287, -38275.238963990094, -29351.416748931024, -71479.78353259368, -27815.717794384695, -28173.34570566961, -52054.82119975343, -98777.94668411574, -187500.02235174447, -187500.02235174447, -46967.47475474772, -45702.90246044427, -77836.59730393854, -48253.61648245055, -87479.2963241692, -31259.026379469204, 0.0, 0.0, 0.0, 193.0, 0.0, 1.0, 1.0, 0.0, 0.0, 1.0, 1.0, 256.0, 1.0, 1.750527423410798E9, 0.0, 2025-06-21 19:37:03.410
18.0, -43199.68589540552, -38282.12330128233, -29349.740368096875, -71477.90598605943, -27799.60218663242, -28142.05326343218, -52055.82702825392, -98779.84658239444, -187500.02235174447, -187500.02235174447, -46940.71971663472, -45663.250465780555, -77813.79852459414, -48220.08886576758, -87469.41685311995, -31227.4210128094, 0.0, 0.0, 0.0, 193.0, 0.0, 1.0, 1.0, 0.0, 0.0, 1.0, 1.0, 256.0, 1.0, 1.750527423418768E9, 0.0, 2025-06-21 19:37:03.418
20.0, -43214.37099151266, -38288.00181007407, -29364.760740370843, -71493.30633798914, -27806.03948903555, -28135.191277884398, -52075.608322096865, -98790.84364066646, -187500.02235174447, -187500.02235174447, -46967.47475474772, -45689.31259981544, -77822.22513225379, -48258.846790653086, -87451.28958836671, -31266.849490028562, 0.0, 0.0, 0.0, 193.0, 0.0, 1.0, 1.0, 0.0, 0.0, 1.0, 1.0, 256.0, 1.0, 1.750527423426796E9, 0.0, 2025-06-21 19:37:03.426
22.0, -43188.73354062242, -38259.369225426824, -29340.598504614652, -71461.72332307379, -27798.082268009457, -28154.43612986042, -52039.77847573501, -98764.20036127573, -187500.02235174447, -187500.02235174447, -46957.550580209565, -45671.69942518466, -77826.15903927792, -48226.23559549279, -87487.52176612876, -31230.684367499874, 0.0, 0.0, 0.0, 193.0, 0.0, 1.0, 1.0, 0.0, 0.0, 1.0, 1.0, 256.0, 1.0, 1.750527423434844E9, 0.0, 2025-06-21 19:37:03.434
24.0, -43235.98512840094, -38307.80545566147, -29375.3331154982, -71501.08474505959, -27810.152210015323, -28128.75397548127, -52072.9931679956, -98792.52002150059, -187500.02235174447, -187500.02235174447, -46962.82559190102, -45682.674131712214, -77820.369937464, -48238.6855171544, -87456.56460005816, -31241.144983904956, 0.0, 0.0, 0.0, 193.0, 0.0, 1.0, 1.0, 0.0, 0.0, 1.0, 1.0, 256.0, 1.0, 1.750527423443947E9, 0.0, 2025-06-21 19:37:03.443
26.0, -43201.474034961946, -38282.68209489371, -29360.268039735325, -71479.71647736031, -27811.448611193733, -28163.980324742835, -52048.49565607258, -98771.6658439238, -187500.02235174447, -187500.02235174447, -46986.67490323483, -45701.31548658794, -77846.18620230988, -48253.14709581698, -87484.23605969382, -31256.254763156747, 0.0, 0.0, 0.0, 193.0, 0.0, 1.0, 1.0, 0.0, 0.0, 1.0, 1.0, 256.0, 1.0, 1.750527423450888E9, 0.0, 2025-06-21 19:37:03.450
28.0, -43207.24078503141, -38284.06790304994, -29350.947362297462, -71486.31024197463, -27802.21734073369, -28129.491583048297, -52055.84937999838, -98775.55504745901, -187500.02235174447, -187500.02235174447, -46953.43785922979, -45678.80727992145, -77825.71200438881, -48219.46301692284, -87473.75309154429, -31224.60469300803, 0.0, 0.0, 0.0, 193.0, 0.0, 1.0, 1.0, 0.0, 0.0, 1.0, 1.0, 256.0, 1.0, 1.750527423458953E9, 0.0, 2025-06-21 19:37:03.458
30.0, -43215.26506129087, -38284.604344916865, -29354.99302804387, -71487.45018094184, -27810.88981758235, -28140.62275178704, -52055.134124175805, -98782.72995742917, -187500.02235174447, -187500.02235174447, -46970.15696408236, -45701.42724531022, -77829.78002187968, -48251.9401016164, -87448.20504763187, -31258.221716668813, 0.0, 0.0, 0.0, 193.0, 0.0, 1.0, 1.0, 0.0, 0.0, 1.0, 1.0, 256.0, 1.0, 1.750527423467008E9, 0.0, 2025-06-21 19:37:03.467
32.0, -43214.21452930147, -38287.97945832962, -29358.18932750098, -71474.77674183568, -27814.130820528368, -28176.072618493155, -52035.86692045533, -98759.23827400664, -187500.02235174447, -187500.02235174447, -46966.3348157805, -45684.88695441329, -77840.12887956249, -48226.615575148535, -87493.02029526477, -31230.66201575542, 0.0, 0.0, 0.0, 193.0, 0.0, 1.0, 1.0, 0.0, 0.0, 1.0, 1.0, 256.0, 1.0, 1.750527423475007E9, 0.0, 2025-06-21 19:37:03.475
34.0, -43240.053145891805, -38316.20971157667, -29378.775284144318, -71504.43750672787, -27803.245520978635, -28125.647083001983, -52068.768688293545, -98785.814498164, -187500.02235174447, -187500.02235174447, -46971.27455130513, -45682.56237298994, -77824.7732311217, -48236.80797062015, -87452.47423082283, -31240.161507148925, 0.0, 0.0, 0.0, 193.0, 0.0, 1.0, 1.0, 0.0, 0.0, 1.0, 1.0, 256.0, 1.0, 1.750527423483055E9, 0.0, 2025-06-21 19:37:03.483
36.0, -43209.40890424358, -38280.31280998144, -29363.28552523679, -71482.97983205078, -27815.40486996232, -28164.986153243324, -52047.19925489417, -98764.13330604236, -187500.02235174447, -187500.02235174447, -46993.20161261578, -45700.04143715399, -77851.75178667925, -48260.389061020505, -87491.65683885298, -31264.32374290511, 0.0, 0.0, 0.0, 193.0, 0.0, 1.0, 1.0, 0.0, 0.0, 1.0, 1.0, 256.0, 1.0, 1.750527423491044E9, 0.0, 2025-06-21 19:37:03.491
38.0, -43235.06870687827, -38293.209766532156, -29376.09307480968, -71506.31505326212, -27829.97820734718, -28149.988132713814, -52061.68318530121, -98787.22265806468, -187500.02235174447, -187500.02235174447, -46966.223057058225, -45682.830593923405, -77837.40196673894, -48236.27152875323, -87491.58978361962, -31240.742652504763, 0.0, 0.0, 0.0, 193.0, 0.0, 1.0, 1.0, 0.0, 0.0, 1.0, 1.0, 256.0, 1.0, 1.750527423499095E9, 0.0, 2025-06-21 19:37:03.499
40.0, -43244.948177927516, -38307.179606816724, -29384.497330724877, -71513.28879753218, -27819.472887453187, -28142.992036699303, -52061.50437134557, -98776.7620416596, -187500.02235174447, -187500.02235174447, -46999.34834234099, -45716.6934867732, -77850.96947562331, -48273.4424797824, -87473.48487061082, -31277.91360353394, 0.0, 0.0, 0.0, 193.0, 0.0, 1.0, 1.0, 0.0, 0.0, 1.0, 1.0, 256.0, 1.0, 1.750527423506106E9, 0.0, 2025-06-21 19:37:03.506
42.0, -43218.19313981452, -38290.19228103069, -29365.408940960046, -71487.76310536423, -27805.994785546638, -28168.96476375637, -52041.90189145826, -98770.16827704529, -187500.02235174447, -187500.02235174447, -46973.64383621739, -45694.47585278462, -77847.08027208809, -48231.46590369534, -87496.61892612207, -31236.2723036137, 0.0, 0.0, 0.0, 193.0, 0.0, 1.0, 1.0, 0.0, 0.0, 1.0, 1.0, 256.0, 1.0, 1.750527423516145E9, 0.0, 2025-06-21 19:37:03.516
44.0, -43259.25329437891, -38329.710165227676, -29393.01334536235, -71529.11383260654, -27825.26198926711, -28129.84921095958, -52081.26331344406, -98798.04090238106, -187500.02235174447, -187500.02235174447, -47006.7467697557, -45718.81690249645, -77859.2843245607, -48267.27339831274, -87482.91730677096, -31271.677466830908, 0.0, 0.0, 0.0, 193.0, 0.0, 1.0, 1.0, 0.0, 0.0, 1.0, 1.0, 256.0, 1.0, 1.750527423523149E9, 0.0, 2025-06-21 19:37:03.523
46.0, -43214.952136868495, -38292.3380484984, -29363.754911870354, -71488.07602978659, -27818.98114907517, -28169.63531609003, -52047.62393803882, -98773.49868696913, -187500.02235174447, -187500.02235174447, -46981.77987119912, -45711.30671635947, -77851.64002795696, -48257.729203430325, -87486.27006843926, -31261.529774848197, 0.0, 0.0, 0.0, 193.0, 0.0, 1.0, 1.0, 0.0, 0.0, 1.0, 1.0, 256.0, 1.0, 1.750527423530202E9, 0.0, 2025-06-21 19:37:03.530
48.0, -43232.05122137681, -38301.21169104716, -29367.465301449934, -71497.28494850219, -27811.850942593926, -28137.918190707947, -52050.172036906726, -98777.05261433752, -187500.02235174447, -187500.02235174447, -46961.01510060014, -45681.221268322624, -77833.4233562259, -48228.850749594065, -87487.00767600628, -31232.2713413562, 0.0, 0.0, 0.0, 193.0, 0.0, 1.0, 1.0, 0.0, 0.0, 1.0, 1.0, 256.0, 1.0, 1.750527423538231E9, 0.0, 2025-06-21 19:37:03.538
50.0, -43233.95111965551, -38294.2379467771, -29374.081417808702, -71500.2800822592, -27816.25423625162, -28137.784080241214, -52062.465496357145, -98779.73482367216, -187500.02235174447, -187500.02235174447, -46992.28519109311, -45710.502053559074, -77843.05695808613, -48266.26756981225, -87469.8415362646, -31269.531699363197, 0.0, 0.0, 0.0, 193.0, 0.0, 1.0, 1.0, 0.0, 0.0, 1.0, 1.0, 256.0, 1.0, 1.750527423547265E9, 0.0, 2025-06-21 19:37:03.547
52.0, -43228.31848005277, -38290.4381502197, -29371.48861545189, -71489.32772747609, -27822.445669465742, -28174.217423703365, -52045.344060104384, -98780.13715507236, -187500.02235174447, -187500.02235174447, -46970.02285361563, -45680.19308807768, -77839.88301037348, -48235.51156944175, -87503.77148434776, -31238.03809142567, 0.0, 0.0, 0.0, 193.0, 0.0, 1.0, 1.0, 0.0, 0.0, 1.0, 1.0, 256.0, 1.0, 1.750527423555261E9, 0.0, 2025-06-21 19:37:03.555
54.0, -43247.56333202879, -38314.55568248698, -29383.62561269112, -71507.81262014063, -27824.546733444542, -28126.787021969205, -52071.763822050554, -98793.12351860089, -187500.02235174447, -187500.02235174447, -46990.22883060323, -45702.70129474417, -77843.23577204178, -48265.194686078394, -87484.79485330521, -31267.18476619539, 0.0, 0.0, 0.0, 193.0, 0.0, 1.0, 1.0, 0.0, 0.0, 1.0, 1.0, 256.0, 1.0, 1.750527423562287E9, 0.0, 2025-06-21 19:37:03.562
56.0, -43214.84037814622, -38283.77733037202, -29359.61983914612, -71472.80978832362, -27806.59828264693, -28167.310734666677, -52050.239092140095, -98768.58130318897, -187500.02235174447, -187500.02235174447, -46990.31823758104, -45697.649800497275, -77843.54869646415, -48255.3375667736, -87490.42749290794, -31256.03124571219, 0.0, 0.0, 0.0, 193.0, 0.0, 1.0, 1.0, 0.0, 0.0, 1.0, 1.0, 256.0, 1.0, 1.750527423570256E9, 0.0, 2025-06-21 19:37:03.570
58.0, -43218.08138109224, -38284.22436526112, -29336.95517026844, -71469.45702665532, -27811.06863153799, -28137.694673263395, -52042.59479553638, -98765.20618977622, -187500.02235174447, -187500.02235174447, -46942.26198700214, -45656.85786686634, -77809.28347221417, -48209.78471157369, -87466.6452368075, -31213.115896358002, 0.0, 0.0, 0.0, 193.0, 0.0, 1.0, 1.0, 0.0, 0.0, 1.0, 1.0, 256.0, 1.0, 1.750527423579307E9, 0.0, 2025-06-21 19:37:03.579
60.0, -43242.66829999308, -38305.8385021494, -29369.38755147309, -71500.74946889275, -27819.74110838665, -28142.209725643366, -52060.14091493379, -98779.57836146097, -187500.02235174447, -187500.02235174447, -46981.62340898793, -45707.082236657414, -77836.75376614973, -48256.92454062993, -87452.87656222303, -31263.027341726705, 0.0, 0.0, 0.0, 193.0, 0.0, 1.0, 1.0, 0.0, 0.0, 1.0, 1.0, 256.0, 1.0, 1.750527423586326E9, 0.0, 2025-06-21 19:37:03.586
62.0, -43221.97058462746, -38297.30013576748, -29368.314667739236, -71488.29954723114, -27811.582721660463, -28165.23202243233, -52035.129312888304, -98770.97293984568, -187500.02235174447, -187500.02235174447, -46973.710891450755, -45685.64691372477, -77843.3251790196, -48225.25211873676, -87486.82886205064, -31231.46667855581, 0.0, 0.0, 0.0, 193.0, 0.0, 1.0, 1.0, 0.0, 0.0, 1.0, 1.0, 256.0, 1.0, 1.750527423594367E9, 0.0, 2025-06-21 19:37:03.594
64.0, -43238.108544124196, -38287.21949901814, -29386.307822025756, -71520.35194878007, -27827.899495112837, -28130.27389410423, -52070.35566214987, -98804.00881815063, -187500.02235174447, -187500.02235174447, -46994.743882983195, -45709.675039014226, -77849.24839130025, -48256.41045050746, -87472.56844908815, -31261.596830081566, 0.0, 0.0, 0.0, 193.0, 0.0, 1.0, 1.0, 0.0, 0.0, 1.0, 1.0, 256.0, 1.0, 1.750527423603373E9, 0.0, 2025-06-21 19:37:03.603
66.0, -43214.43804674602, -38275.4848331791, -29369.99104857338, -71492.36756472201, -27811.090983282447, -28179.268917950263, -52046.036964182495, -98768.9612828447, -187500.02235174447, -187500.02235174447, -46997.046112662094, -45714.346553605385, -77857.33972279307, -48270.581456492124, -87500.82105407966, -31275.00787675475, 0.0, 0.0, 0.0, 193.0, 0.0, 1.0, 1.0, 0.0, 0.0, 1.0, 1.0, 256.0, 1.0, 1.750527423611368E9, 0.0, 2025-06-21 19:37:03.611
68.0, -43206.7490466534, -38294.34970549938, -29336.441080145967, -71468.16062547691, -27787.465189393188, -28130.832687715614, -52026.63564999529, -98754.6114629044, -187500.02235174447, -187500.02235174447, -46941.65848990184, -45666.692634426676, -77816.05605078413, -48213.763322086736, -87470.48973685381, -31216.93804465986, 0.0, 0.0, 0.0, 193.0, 0.0, 1.0, 1.0, 0.0, 0.0, 1.0, 1.0, 256.0, 1.0, 1.750527423618417E9, 0.0, 2025-06-21 19:37:03.618
70.0, -43215.086247335224, -38294.55087119948, -29359.28456297929, -71487.31607047512, -27798.730468598664, -28134.945408695392, -52054.01653695304, -98775.08566082545, -187500.02235174447, -187500.02235174447, -46976.504859507666, -45699.594402264884, -77831.14347829146, -48253.59413070609, -87455.02232969074, -31255.986542223283, 0.0, 0.0, 0.0, 193.0, 0.0, 1.0, 1.0, 0.0, 0.0, 1.0, 1.0, 256.0, 1.0, 1.750527423626422E9, 0.0, 2025-06-21 19:37:03.626
72.0, -43214.10277057919, -38303.67038293724, -29373.612031175144, -71496.74850663525, -27834.962646360716, -28203.319394984173, -52078.37993840932, -98801.70658847173, -187500.02235174447, -187500.02235174447, -46961.41743200034, -45684.171698590726, -77837.26785627221, -48227.666107137935, -87494.94254528792, -31229.052690154636, 0.0, 0.0, 0.0, 193.0, 0.0, 1.0, 1.0, 0.0, 0.0, 1.0, 1.0, 256.0, 1.0, 1.75052742363555E9, 0.0, 2025-06-21 19:37:03.635
74.0, -43229.16784634207, -38312.834598163914, -29371.19804277397, -71507.16441955142, -27807.492352425143, -28137.56056279666, -52101.42458694275, -98813.46360605521, -187500.02235174447, -187500.02235174447, -46981.62340898793, -45711.17260589273, -77843.72751041979, -48266.26756981225, -87484.03489399372, -31269.643458085473, 0.0, 0.0, 0.0, 193.0, 0.0, 1.0, 1.0, 0.0, 0.0, 1.0, 1.0, 256.0, 1.0, 1.750527423643518E9, 0.0, 2025-06-21 19:37:03.643
76.0, -43176.77535733883, -38263.10196675086, -29330.875495776596, -71463.6679248414, -27803.1114105119, -28165.075560221143, -52065.81825802544, -98779.8689341389, -187500.02235174447, -187500.02235174447, -46959.40577499936, -45694.20763185115, -77827.81306836761, -48254.6893661844, -87484.28076318273, -31260.211021925334, 0.0, 0.0, 0.0, 193.0, 0.0, 1.0, 1.0, 0.0, 0.0, 1.0, 1.0, 256.0, 1.0, 1.75052742365157E9, 0.0, 2025-06-21 19:37:03.651
78.0, -43199.015343071864, -38283.73262688311, -29353.76368209883, -71490.4676664433, -27802.664375622797, -28151.351589125585, -52079.47517388764, -98804.50055652864, -187500.02235174447, -187500.02235174447, -46925.16290249382, -45653.527456942495, -77798.17465521987, -48212.44456916387, -87471.18264093193, -31218.45796328282, 0.0, 0.0, 0.0, 193.0, 0.0, 1.0, 1.0, 0.0, 0.0, 1.0, 1.0, 256.0, 1.0, 1.750527423658581E9, 0.0, 2025-06-21 19:37:03.658
80.0, -43191.885136590616, -38274.50135642307, -29345.202963972446, -71485.46087568533, -27773.897680508817, -28149.406987357976, -52055.558807320456, -98772.69402416874, -187500.02235174447, -187500.02235174447, -46950.1298010504, -45689.692579471186, -77811.27277747069, -48250.531941715715, -87451.15547789997, -31258.266420157724, 0.0, 0.0, 0.0, 193.0, 0.0, 1.0, 1.0, 0.0, 0.0, 1.0, 1.0, 256.0, 1.0, 1.750527423666617E9, 0.0, 2025-06-21 19:37:03.666
82.0, -43177.95999979496, -38262.54317313948, -29348.04163551827, -71479.20238723783, -27787.26402369309, -28189.438961677428, -52036.895100700276, -98761.04876530753, -187500.02235174447, -187500.02235174447, -46952.029699329105, -45684.10464335736, -77830.89760910245, -48222.078171024106, -87488.19231846242, -31228.829172710084, 0.0, 0.0, 0.0, 193.0, 0.0, 1.0, 1.0, 0.0, 0.0, 1.0, 1.0, 256.0, 1.0, 1.750527423675643E9, 0.0, 2025-06-21 19:37:03.675
84.0, -43189.8958313341, -38279.61990590333, -29353.96484779893, -71496.79321012416, -27778.613898588887, -28139.393405841998, -52044.427638581714, -98770.95058810123, -187500.02235174447, -187500.02235174447, -46963.697309934774, -45703.39419882229, -77827.9248270899, -48242.127685800515, -87461.95137047188, -31249.10220493105, 0.0, 0.0, 0.0, 193.0, 0.0, 1.0, 1.0, 0.0, 0.0, 1.0, 1.0, 256.0, 1.0, 1.750527423682634E9, 0.0, 2025-06-21 19:37:03.682
86.0, -43162.49259263189, -38259.45863240465, -29335.09997547865, -71471.04400051165, -27784.470055636175, -28194.736325113336, -52028.51319652954, -98758.81359086199, -187500.02235174447, -187500.02235174447, -46950.86740861743, -45690.96662890514, -77822.18042876487, -48231.80117986217, -87464.25360015078, -31238.395719336957, 0.0, 0.0, 0.0, 193.0, 0.0, 1.0, 1.0, 0.0, 0.0, 1.0, 1.0, 256.0, 1.0, 1.750527423690688E9, 0.0, 2025-06-21 19:37:03.690
88.0, -43171.07566250273, -38269.04753077597, -29333.289484177767, -71475.96138429182, -27776.40107588781, -28150.27870539173, -52026.16626336173, -98754.6114629044, -187500.02235174447, -187500.02235174447, -46917.29508844556, -45661.864657624326, -77800.43218140987, -48203.81679580412, -87461.21376290487, -31211.595977735044, 0.0, 0.0, 0.0, 193.0, 0.0, 1.0, 1.0, 0.0, 0.0, 1.0, 1.0, 256.0, 1.0, 1.750527423698717E9, 0.0, 2025-06-21 19:37:03.698
90.0, -43175.680121860525, -38266.05239701896, -29339.23504820288, -71477.86128257052, -27784.58181435845, -28164.09208346511, -52042.192464136184, -98764.87091360938, -187500.02235174447, -187500.02235174447, -46931.01905954112, -45678.27083805452, -77795.49244588523, -48236.49504619778, -87435.77747771473, -31244.542449062166, 0.0, 0.0, 0.0, 193.0, 0.0, 1.0, 1.0, 0.0, 0.0, 1.0, 1.0, 256.0, 1.0, 1.750527423707754E9, 0.0, 2025-06-21 19:37:03.707
92.0, -43166.27003744484, -38258.00576901505, -29336.70930107943, -71469.85935805552, -27791.242634206134, -28190.1542175, -52032.760027976045, -98762.03224206356, -187500.02235174447, -187500.02235174447, -46938.23867300018, -45673.46521299663, -77819.47586768579, -48223.06164778014, -87488.37113241806, -31231.019643666703, 0.0, 0.0, 0.0, 193.0, 0.0, 1.0, 1.0, 0.0, 0.0, 1.0, 1.0, 256.0, 1.0, 1.750527423714803E9, 0.0, 2025-06-21 19:37:03.714
94.0, -43170.360406680156, -38259.70450159365, -29333.37889115559, -71481.86224482802, -27765.716942038172, -28116.54992300867, -52043.041830425485, -98780.69594868374, -187500.02235174447, -187500.02235174447, -46930.03558278508, -45670.91711412872, -77797.72762033077, -48221.54172915718, -87438.12441088253, -31232.159582633925, 0.0, 0.0, 0.0, 193.0, 0.0, 1.0, 1.0, 0.0, 0.0, 1.0, 1.0, 256.0, 1.0, 1.750527423722752E9, 0.0, 2025-06-21 19:37:03.722
96.0, -43147.62868256911, -38241.01844322902, -29326.98629224137, -71465.59017486456, -27771.88602350784, -28166.796644544203, -52027.10503662885, -98751.70573612521, -187500.02235174447, -187500.02235174447, -46935.33294622099, -45683.54584974598, -77813.4632484273, -48236.964432831344, -87464.92415248444, -31248.18578340838, 0.0, 0.0, 0.0, 193.0, 0.0, 1.0, 1.0, 0.0, 0.0, 1.0, 1.0, 256.0, 1.0, 1.750527423730822E9, 0.0, 2025-06-21 19:37:03.730
98.0, -43184.08437777572, -38272.48969942209, -29355.23889723288, -71491.78641936618, -27802.016175033594, -28175.424417903952, -52053.48009508611, -98782.19351556225, -187500.02235174447, -187500.02235174447, -46930.95200430775, -45663.58574194738, -77807.62944312448, -48213.71861859782, -87471.56262058766, -31223.37534706299, 0.0, 0.0, 0.0, 193.0, 0.0, 1.0, 1.0, 0.0, 0.0, 1.0, 1.0, 256.0, 1.0, 1.750527423738803E9, 0.0, 2025-06-21 19:37:03.738
100.0, -43176.28361896081, -38258.76572832653, -29349.80742333024, -71488.85834084253, -27784.134779469347, -28153.452653104385, -52052.3848596078, -98776.89615212634, -187500.02235174447, -187500.02235174447, -46961.01510060014, -45698.90149818677, -77822.98509156526, -48265.775831434235, -87464.43241410643, -31274.471434887822, 0.0, 0.0, 0.0, 193.0, 0.0, 1.0, 1.0, 0.0, 0.0, 1.0, 1.0, 256.0, 1.0, 1.750527423746882E9, 0.0, 2025-06-21 19:37:03.746
102.0, -43153.440136127494, -38254.65300734675, -29326.00281548534, -71462.10330272953, -27781.005535245604, -28191.67413612296, -52021.53945225948, -98751.9069018253, -187500.02235174447, -187500.02235174447, -46932.91895781982, -45666.267951282025, -77812.39036469345, -48214.70209535386, -87481.24092593681, -31221.788373206662, 0.0, 0.0, 0.0, 193.0, 0.0, 1.0, 1.0, 0.0, 0.0, 1.0, 1.0, 256.0, 1.0, 1.750527423754921E9, 0.0, 2025-06-21 19:37:03.754
104.0, -43186.5430696658, -38277.272972735525, -29349.561554141234, -71499.98950958127, -27797.858750564905, -28137.985245941312, -52058.59864456638, -98786.14977433083, -187500.02235174447, -187500.02235174447, -46934.0812485315, -45684.73049220211, -77807.16005649092, -48233.14228452949, -87454.39648084599, -31239.98269319328, 0.0, 0.0, 0.0, 193.0, 0.0, 1.0, 1.0, 0.0, 0.0, 1.0, 1.0, 256.0, 1.0, 1.750527423762984E9, 0.0, 2025-06-21 19:37:03.762
106.0, -43158.22340944093, -38257.29051319248, -29337.29044643527, -71464.38318066396, -27785.02884924756, -28181.973479029355, -52026.054504639455, -98749.82818959096, -187500.02235174447, -187500.02235174447, -46936.98697531068, -45681.020102622526, -77810.28930071465, -48223.620441391526, -87457.21280064736, -31228.158620376424, 0.0, 0.0, 0.0, 193.0, 0.0, 1.0, 1.0, 0.0, 0.0, 1.0, 1.0, 256.0, 1.0, 1.750527423769972E9, 0.0, 2025-06-21 19:37:03.769
108.0, -43182.653866130575, -38278.41291170275, -29340.79967031475, -71483.49392217326, -27801.524436655574, -28164.896746265502, -52040.516083302035, -98770.39179448984, -187500.02235174447, -187500.02235174447, -46955.29305401958, -45686.608038736355, -77827.47779220078, -48216.44553142137, -87479.4974898693, -31221.36369006201, 0.0, 0.0, 0.0, 193.0, 0.0, 1.0, 1.0, 0.0, 0.0, 1.0, 1.0, 256.0, 1.0, 1.750527423780075E9, 0.0, 2025-06-21 19:37:03.780
110.0, -43178.85406957317, -38261.98437952809, -29339.23504820288, -71482.97983205078, -27798.149323242826, -28151.15042342549, -52046.50635081606, -98772.98459684665, -187500.02235174447, -187500.02235174447, -46940.40679221234, -45699.08031214241, -77810.69163211485, -48239.11020029905, -87441.9912626733, -31245.302408373645, 0.0, 0.0, 0.0, 193.0, 0.0, 1.0, 1.0, 0.0, 0.0, 1.0, 1.0, 256.0, 1.0, 1.750527423787049E9, 0.0, 2025-06-21 19:37:03.787
112.0, -43136.34105161918, -38232.725946036095, -29319.27494040429, -71448.58049733407, -27769.65084906231, -28183.180473229942, -52014.521004500515, -98740.52986389755, -187500.02235174447, -187500.02235174447, -46929.99087929617, -45676.46034675364, -77815.98899555075, -48209.40473191795, -87475.27301016725, -31216.759230704218, 0.0, 0.0, 0.0, 193.0, 0.0, 1.0, 1.0, 0.0, 0.0, 1.0, 1.0, 256.0, 1.0, 1.750527423794079E9, 0.0, 2025-06-21 19:37:03.794
114.0, -43182.5421074083, -38268.15346099776, -29347.840469818173, -71483.89625357345, -27789.342735927432, -28139.1922401419, -52044.427638581714, -98773.9680736027, -187500.02235174447, -187500.02235174447, -46924.46999841571, -45656.969625588616, -77787.17759694786, -48201.55926961414, -87421.07002986313, -31207.907939899917, 0.0, 0.0, 0.0, 193.0, 0.0, 1.0, 1.0, 0.0, 0.0, 1.0, 1.0, 256.0, 1.0, 1.750527423802117E9, 0.0, 2025-06-21 19:37:03.802
116.0, -43174.7413485934, -38263.772519084516, -29346.678179106497, -71478.50948315972, -27812.74501237214, -28195.071601280168, -52041.16428389124, -98769.34126250044, -187500.02235174447, -187500.02235174447, -46957.75174590966, -45695.973419663125, -77833.04337657016, -48243.35703174556, -87471.83084152114, -31248.09637643056, 0.0, 0.0, 0.0, 193.0, 0.0, 1.0, 1.0, 0.0, 0.0, 1.0, 1.0, 256.0, 1.0, 1.750527423811106E9, 0.0, 2025-06-21 19:37:03.811
118.0, -43156.21175243995, -38247.81337354343, -29332.19424869946, -71471.44633191185, -27783.106599224404, -28146.36715011205, -52034.25759485455, -98751.81749484748, -187500.02235174447, -187500.02235174447, -46928.18038799529, -45664.90449487025, -77811.07161177059, -48208.7788830732, -87466.0417397072, -31212.065364368602, 0.0, 0.0, 0.0, 193.0, 0.0, 1.0, 1.0, 0.0, 0.0, 1.0, 1.0, 256.0, 1.0, 1.750527423819124E9, 0.0, 2025-06-21 19:37:03.819
120.0, -43180.37398819614, -38263.99603652907, -29370.4827869514, -71504.63867242797, -27811.426259449276, -28159.465272362864, -52056.11760093184, -98777.99138760465, -187500.02235174447, -187500.02235174447, -46963.80906865705, -45700.0861406429, -77822.94038807636, -48258.623273208534, -87456.16226865796, -31262.22267892631, 0.0, 0.0, 0.0, 193.0, 0.0, 1.0, 1.0, 0.0, 0.0, 1.0, 1.0, 256.0, 1.0, 1.750527423826169E9, 0.0, 2025-06-21 19:37:03.826
122.0, -43131.20015039446, -38230.200198912644, -29343.973618027405, -71475.58140463608, -27801.300919211022, -28175.446769648406, -52035.911623944245, -98759.28297749556, -187500.02235174447, -187500.02235174447, -46952.72260340722, -45689.73728296009, -77834.80916438212, -48241.233616022306, -87506.09606577111, -31243.17899265039, 0.0, 0.0, 0.0, 193.0, 0.0, 1.0, 1.0, 0.0, 0.0, 1.0, 1.0, 256.0, 1.0, 1.75052742383421E9, 0.0, 2025-06-21 19:37:03.834
124.0, -43194.07560754724, -38275.931868068204, -29347.259324462335, -71496.21206476833, -27804.430163434765, -28121.71317597785, -52063.247807413085, -98779.2654370386, -187500.02235174447, -187500.02235174447, -46928.58271939549, -45678.71787294363, -77804.74606808973, -48235.62332816402, -87452.25071337828, -31239.580361793087, 0.0, 0.0, 0.0, 193.0, 0.0, 1.0, 1.0, 0.0, 0.0, 1.0, 1.0, 256.0, 1.0, 1.750527423843196E9, 0.0, 2025-06-21 19:37:03.843
126.0, -43147.47222035792, -38243.70065256365, -29327.03099573028, -71457.9682300053, -27783.15130271331, -28175.469121392864, -52036.604528022355, -98760.10999204041, -187500.02235174447, -187500.02235174447, -46948.38636498289, -45695.72755047412, -77825.68965264436, -48246.039241080194, -87471.40615837649, -31251.024454954204, 0.0, 0.0, 0.0, 193.0, 0.0, 1.0, 1.0, 0.0, 0.0, 1.0, 1.0, 256.0, 1.0, 1.750527423850296E9, 0.0, 2025-06-21 19:37:03.850
128.0, -43171.23212471392, -38269.31575170944, -29353.316647209722, -71484.94678556285, -27798.439895920743, -28159.062940962667, -52057.77163002153, -98778.0137393491, -187500.02235174447, -187500.02235174447, -46911.03659999807, -45648.65477665124, -77793.0114022507, -48195.88192652249, -87453.65887327897, -31199.235463051256, 0.0, 0.0, 0.0, 193.0, 0.0, 1.0, 1.0, 0.0, 0.0, 1.0, 1.0, 256.0, 1.0, 1.750527423858292E9, 0.0, 2025-06-21 19:37:03.858
130.0, -43186.47601443243, -38270.92507731022, -29355.86474607763, -71494.26746300071, -27799.713945354695, -28150.56927806965, -52067.1370109483, -98781.5676667175, -187500.02235174447, -187500.02235174447, -46971.22984781621, -45714.011277438556, -77833.73628064827, -48271.162601847966, -87470.0427019647, -31275.879594788505, 0.0, 0.0, 0.0, 193.0, 0.0, 1.0, 1.0, 0.0, 0.0, 1.0, 1.0, 256.0, 1.0, 1.750527423867304E9, 0.0, 2025-06-21 19:37:03.867
132.0, -43154.80359253926, -38241.44312637367, -29343.012493015827, -71473.368581935, -27804.40781169031, -28181.168816228965, -52039.24203386808, -98769.67653866728, -187500.02235174447, -187500.02235174447, -46935.75762936564, -45673.3311025299, -77815.92194031739, -48217.250194221764, -87482.33616141512, -31222.727146473786, 0.0, 0.0, 0.0, 193.0, 0.0, 1.0, 1.0, 0.0, 0.0, 1.0, 1.0, 256.0, 1.0, 1.750527423875355E9, 0.0, 2025-06-21 19:37:03.875
134.0, -43192.108654035175, -38284.35847572786, -29373.746141641874, -71514.92047487742, -27814.756669373117, -28149.51874608025, -52083.722005334144, -98806.8698414409, -187500.02235174447, -187500.02235174447, -46965.15017332437, -45699.21442260915, -77827.9248270899, -48256.56691271865, -87476.45765262339, -31260.099263203057, 0.0, 0.0, 0.0, 193.0, 0.0, 1.0, 1.0, 0.0, 0.0, 1.0, 1.0, 256.0, 1.0, 1.750527423882345E9, 0.0, 2025-06-21 19:37:03.882
136.0, -43169.98042702442, -38257.31286493693, -29353.316647209722, -71485.75144836324, -27798.12697149837, -28186.935566298434, -52061.97375797913, -98776.13619281485, -187500.02235174447, -187500.02235174447, -46968.10060359247, -45712.44665532668, -77837.26785627221, -48266.15581108997, -87492.26033595328, -31271.029266241705, 0.0, 0.0, 0.0, 193.0, 0.0, 1.0, 1.0, 0.0, 0.0, 1.0, 1.0, 256.0, 1.0, 1.750527423890398E9, 0.0, 2025-06-21 19:37:03.890
138.0, -43151.67434831552, -38244.99705374206, -29326.248684674345, -71475.11201800252, -27782.324288168467, -28141.159193653966, -52055.7376212761, -98776.9632073597, -187500.02235174447, -187500.02235174447, -46920.33492569148, -45664.03277683649, -77803.65083261143, -48224.134531514, -87479.22926893584, -31228.829172710084, 0.0, 0.0, 0.0, 193.0, 0.0, 1.0, 1.0, 0.0, 0.0, 1.0, 1.0, 256.0, 1.0, 1.750527423899385E9, 0.0, 2025-06-21 19:37:03.899
140.0, -43148.56745583624, -38243.767707797015, -29342.699568593453, -71489.05950654263, -27796.31648019749, -28146.970647212347, -52055.0894206869, -98766.32377699898, -187500.02235174447, -187500.02235174447, -46946.86644635993, -45699.884974942805, -77811.00455653723, -48265.52996224522, -87462.66662629445, -31271.744522064273, 0.0, 0.0, 0.0, 193.0, 0.0, 1.0, 1.0, 0.0, 0.0, 1.0, 1.0, 256.0, 1.0, 1.750527423906468E9, 0.0, 2025-06-21 19:37:03.906
142.0, -43151.85316227117, -38246.13699270928, -29338.430385402487, -71474.06148601312, -27805.056012279514, -28195.92096756947, -52036.470417555625, -98757.40543096131, -187500.02235174447, -187500.02235174447, -46910.38839940887, -45655.360299987835, -77798.48757964226, -48211.75166508576, -87471.27204790975, -31216.78158244867, 0.0, 0.0, 0.0, 193.0, 0.0, 1.0, 1.0, 0.0, 0.0, 1.0, 1.0, 256.0, 1.0, 1.750527423914552E9, 0.0, 2025-06-21 19:37:03.914
144.0, -43176.082453260715, -38256.23998120308, -29353.38370244309, -71496.83791361308, -27794.796561574527, -28128.95514118137, -52064.365394635846, -98782.70760568471, -187500.02235174447, -187500.02235174447, -46946.84409461547, -45685.60221023586, -77813.88793157195, -48254.97993886232, -87468.7910042752, -31261.172146936915, 0.0, 0.0, 0.0, 193.0, 0.0, 1.0, 1.0, 0.0, 0.0, 1.0, 1.0, 256.0, 1.0, 1.750527423922564E9, 0.0, 2025-06-21 19:37:03.922
146.0, -43137.59274930868, -38224.701669776645, -29325.37696664059, -71473.14506449045, -27782.100770723915, -28163.66740032046, -52038.39266757878, -98768.58130318897, -187500.02235174447, -187500.02235174447, -46933.81302759803, -45680.9306956447, -77810.17754199238, -48254.8905318845, -87474.17777468894, -31262.490899859775, 0.0, 0.0, 0.0, 193.0, 0.0, 1.0, 1.0, 0.0, 0.0, 1.0, 1.0, 256.0, 1.0, 1.750527423931572E9, 0.0, 2025-06-21 19:37:03.931
148.0, -43130.55194980526, -38220.432486585676, -29312.122382178593, -71460.13634921746, -27761.045427447014, -28140.935676209414, -52031.86595819783, -98765.76498338759, -187500.02235174447, -187500.02235174447, -46888.08135844247, -45648.38655571778, -77780.5614805891, -48201.91689752542, -87453.18948664541, -31210.679556212373, 0.0, 0.0, 0.0, 193.0, 0.0, 1.0, 1.0, 0.0, 0.0, 1.0, 1.0, 256.0, 1.0, 1.750527423938571E9, 0.0, 2025-06-21 19:37:03.938
150.0, -43157.44109838499, -38239.34206239487, -29337.402205157545, -71479.11298026002, -27783.17365445777, -28123.635426001005, -52057.72692653262, -98772.29169276854, -187500.02235174447, -187500.02235174447, -46931.91312931933, -45681.534192745, -77799.18048372037, -48240.09367705508, -87436.85036144858, -31246.822326996607, 0.0, 0.0, 0.0, 193.0, 0.0, 1.0, 1.0, 0.0, 0.0, 1.0, 1.0, 256.0, 1.0, 1.750527423946594E9, 0.0, 2025-06-21 19:37:03.946
152.0, -43153.12721170512, -38238.13506819428, -29339.23504820288, -71465.88074754247, -27804.854846579416, -28179.47008365036, -52065.28181615852, -98789.81546042151, -187500.02235174447, -187500.02235174447, -46928.895643817865, -45661.775250646504, -77811.60805363752, -48213.137473241986, -87481.03976023672, -31215.93221615937, 0.0, 0.0, 0.0, 193.0, 0.0, 1.0, 1.0, 0.0, 0.0, 1.0, 1.0, 256.0, 1.0, 1.750527423954667E9, 0.0, 2025-06-21 19:37:03.954
154.0, -43175.031921271315, -38254.85417304685, -29351.70732160894, -71489.01480305372, -27803.178465745266, -28121.51201027775, -52089.667569359255, -98787.11089934241, -187500.02235174447, -187500.02235174447, -46936.33877472148, -45674.85102115286, -77806.33304194607, -48236.11506654204, -87460.40910010447, -31236.94285594736, 0.0, 0.0, 0.0, 193.0, 0.0, 1.0, 1.0, 0.0, 0.0, 1.0, 1.0, 256.0, 1.0, 1.750527423962667E9, 0.0, 2025-06-21 19:37:03.962
156.0, -43146.95813023545, -38230.60253031284, -29346.231144217392, -71472.0721807566, -27797.098791253426, -28167.91423176697, -52060.230321911615, -98777.45494573771, -187500.02235174447, -187500.02235174447, -46952.923769107314, -45680.595419477875, -77822.38159446497, -48249.615520193045, -87480.3468561586, -31249.795109009163, 0.0, 0.0, 0.0, 193.0, 0.0, 1.0, 1.0, 0.0, 0.0, 1.0, 1.0, 256.0, 1.0, 1.750527423970691E9, 0.0, 2025-06-21 19:37:03.970
158.0, -43171.768566580846, -38252.82016430142, -29354.94832455496, -71492.7251926333, -27793.27664295157, -28149.071711191144, -52053.815371252946, -98786.68621619776, -187500.02235174447, -187500.02235174447, -46928.2250914842, -45666.15619255974, -77811.89862631544, -48226.883796082, -87481.97853350385, -31229.633835510474, 0.0, 0.0, 0.0, 193.0, 0.0, 1.0, 1.0, 0.0, 0.0, 1.0, 1.0, 256.0, 1.0, 1.75052742397866E9, 0.0, 2025-06-21 19:37:03.978
160.0, -43163.63253159911, -38249.71327182213, -29347.125213995605, -71490.91470133243, -27790.72854408366, -28139.37105409754, -52089.62286587035, -98803.0700448835, -187500.02235174447, -187500.02235174447, -46953.773135396616, -45698.633277253306, -77819.3194054746, -48269.4415175249, -87462.75603327228, -31272.616240098032, 0.0, 0.0, 0.0, 193.0, 0.0, 1.0, 1.0, 0.0, 0.0, 1.0, 1.0, 256.0, 1.0, 1.75052742398771E9, 0.0, 2025-06-21 19:37:03.987
162.0, -43141.25843539935, -38228.59087331186, -29333.84827778915, -71469.34526793305, -27775.618764831874, -28163.62269683155, -52018.54431850247, -98772.559913702, -187500.02235174447, -187500.02235174447, -46920.983126280684, -45666.111489070834, -77811.13866700395, -48220.938232056884, -87481.44209163691, -31223.75532671873, 0.0, 0.0, 0.0, 193.0, 0.0, 1.0, 1.0, 0.0, 0.0, 1.0, 1.0, 256.0, 1.0, 1.750527423994781E9, 0.0, 2025-06-21 19:37:03.994
164.0, -43182.83268008622, -38268.108757508846, -29362.39145545858, -71509.04196608567, -27796.204721475213, -28124.440088801395, -52062.77842077952, -98792.98940813416, -187500.02235174447, -187500.02235174447, -46940.33973697898, -45689.826689937916, -77812.88210307148, -48242.0382788227, -87457.14574541399, -31243.402510094944, 0.0, 0.0, 0.0, 193.0, 0.0, 1.0, 1.0, 0.0, 0.0, 1.0, 1.0, 256.0, 1.0, 1.750527424002787E9, 0.0, 2025-06-21 19:37:04.002
166.0, -43155.42944138401, -38245.08646071988, -29353.026074531805, -71478.24126222626, -27793.88014005186, -28174.373885914552, -52050.306147373456, -98783.55697197402, -187500.02235174447, -187500.02235174447, -46961.70800467825, -45698.16389061975, -77831.9704928363, -48252.3871365055, -87478.2010886909, -31250.398606109455, 0.0, 0.0, 0.0, 193.0, 0.0, 1.0, 1.0, 0.0, 0.0, 1.0, 1.0, 256.0, 1.0, 1.750527424010909E9, 0.0, 2025-06-21 19:37:04.010
168.0, -43165.800650811274, -38250.964969511624, -29344.53241163879, -71481.79518959466, -27789.4097911608, -28138.588743041604, -52057.01167071005, -98777.6114079489, -187500.02235174447, -187500.02235174447, -46934.260062487134, -45675.32040778642, -77817.866542085, -48224.35804895855, -87484.23605969382, -31220.827248195084, 0.0, 0.0, 0.0, 193.0, 0.0, 1.0, 1.0, 0.0, 0.0, 1.0, 1.0, 256.0, 1.0, 1.750527424018797E9, 0.0, 2025-06-21 19:37:04.018
170.0, -43158.11165071865, -38234.201161170145, -29345.158260483535, -71482.73396286178, -27775.39524738732, -28126.116469635544, -52071.003862739075, -98788.20613482072, -187500.02235174447, -187500.02235174447, -46937.702231133255, -45691.6818847277, -77804.83547506756, -48252.07421208313, -87449.52380055473, -31250.488013087277, 0.0, 0.0, 0.0, 193.0, 0.0, 1.0, 1.0, 0.0, 0.0, 1.0, 1.0, 256.0, 1.0, 1.750527424027873E9, 0.0, 2025-06-21 19:37:04.027
172.0, -43134.3293946182, -38218.890216218264, -29340.3749871701, -71470.08287550007, -27800.563311643997, -28169.165929456467, -52054.418868353234, -98782.28292254006, -187500.02235174447, -187500.02235174447, -46923.84414957096, -45663.89866636976, -77806.86948381299, -48227.01790654873, -87492.10387374209, -31224.939969174862, 0.0, 0.0, 0.0, 193.0, 0.0, 1.0, 1.0, 0.0, 0.0, 1.0, 1.0, 256.0, 1.0, 1.75052742403492E9, 0.0, 2025-06-21 19:37:04.034
174.0, -43189.35938946717, -38271.036836032494, -29363.643153148074, -71505.82331488411, -27794.170712729778, -28118.583931754107, -52088.773499581046, -98807.56274551901, -187500.02235174447, -187500.02235174447, -46942.37374572441, -45683.2329253236, -77812.30095771563, -48252.36478476105, -87470.80266127619, -31251.069158443115, 0.0, 0.0, 0.0, 193.0, 0.0, 1.0, 1.0, 0.0, 0.0, 1.0, 1.0, 256.0, 1.0, 1.750527424042945E9, 0.0, 2025-06-21 19:37:04.042
176.0, -43142.24191215538, -38234.46938210361, -29337.916295280018, -71478.44242792636, -27779.68678232274, -28161.454577619385, -52066.26529291455, -98795.13517560187, -187500.02235174447, -187500.02235174447, -46952.36497549593, -45698.45446329766, -77828.19304802336, -48260.97020637634, -87480.68213232543, -31263.943763249372, 0.0, 0.0, 0.0, 193.0, 0.0, 1.0, 1.0, 0.0, 0.0, 1.0, 1.0, 256.0, 1.0, 1.75052742405001E9, 0.0, 2025-06-21 19:37:04.050
178.0, -43149.97561573692, -38243.74535605256, -29329.065004475717, -71478.97886979328, -27766.34279088292, -28135.32538835113, -52057.34694687688, -98789.59194297696, -187500.02235174447, -187500.02235174447, -46905.828643539986, -45654.46623020962, -77792.25144293922, -48213.80802557564, -87464.65593155098, -31217.40743129342, 0.0, 0.0, 0.0, 193.0, 0.0, 1.0, 1.0, 0.0, 0.0, 1.0, 1.0, 256.0, 1.0, 1.750527424058984E9, 0.0, 2025-06-21 19:37:04.058
180.0, -43168.616970612646, -38250.60734160034, -29347.23697271788, -71489.10421003154, -27790.057991750004, -28123.724832978827, -52106.386674211826, -98798.19736459224, -187500.02235174447, -187500.02235174447, -46943.513684691636, -45689.469062026634, -77805.97541403478, -48267.094584357095, -87459.17975415943, -31269.889327274483, 0.0, 0.0, 0.0, 193.0, 0.0, 1.0, 1.0, 0.0, 0.0, 1.0, 1.0, 256.0, 1.0, 1.750527424072087E9, 0.0, 2025-06-21 19:37:04.072
182.0, -43135.93872021898, -38228.412059356226, -29327.723899808396, -71463.82438705259, -27778.546843355518, -28167.891880022515, -52058.71040328866, -98782.88641964036, -187500.02235174447, -187500.02235174447, -46927.15220775035, -45660.30003551245, -77802.91322504441, -48225.94502281488, -87486.2030132059, -31226.191666864357, 0.0, 0.0, 0.0, 193.0, 0.0, 1.0, 1.0, 0.0, 0.0, 1.0, 1.0, 256.0, 1.0, 1.750527424084018E9, 0.0, 2025-06-21 19:37:04.084
184.0, -43176.93181955002, -38262.36435918383, -29350.61208613063, -71498.29077700266, -27787.040506248537, -28117.354585809066, -52060.81146726746, -98785.38981501936, -187500.02235174447, -187500.02235174447, -46935.71292587673, -45682.65177996776, -77804.52255064518, -48238.6855171544, -87452.45187907838, -31240.116803660014, 0.0, 0.0, 0.0, 193.0, 0.0, 1.0, 1.0, 0.0, 0.0, 1.0, 1.0, 256.0, 1.0, 1.750527424084283E9, 0.0, 2025-06-21 19:37:04.084
186.0, -43147.94160699149, -38235.94459723766, -29340.777318570297, -71473.34623019055, -27790.035640005546, -28162.48275786433, -52058.86686549984, -98777.43259399326, -187500.02235174447, -187500.02235174447, -46947.22407427122, -45693.3359138174, -77820.54875141964, -48241.68065091141, -87464.07478619514, -31242.195515894357, 0.0, 0.0, 0.0, 193.0, 0.0, 1.0, 1.0, 0.0, 0.0, 1.0, 1.0, 256.0, 1.0, 1.750527424091117E9, 0.0, 2025-06-21 19:37:04.091
188.0, -43167.29821768978, -38254.85417304685, -29346.924048295507, -71484.16447450692, -27784.20183470271, -28135.548905795684, -52056.96696722114, -98791.02245462209, -187500.02235174447, -187500.02235174447, -46922.23482397018, -45660.948236101656, -77804.99193727874, -48221.60878439055, -87479.81041429167, -31221.162524361913, 0.0, 0.0, 0.0, 193.0, 0.0, 1.0, 1.0, 0.0, 0.0, 1.0, 1.0, 256.0, 1.0, 1.750527424099147E9, 0.0, 2025-06-21 19:37:04.099
190.0, -43156.90465651806, -38251.30024567846, -29333.04361498876, -71477.10132325903, -27782.30193642401, -28127.256408602767, -52079.22930469862, -98792.96705638971, -187500.02235174447, -187500.02235174447, -46943.20076026926, -45686.92096315872, -77805.26015821222, -48253.50472372827, -87449.41204183246, -31254.24310615577, 0.0, 0.0, 0.0, 193.0, 0.0, 1.0, 1.0, 0.0, 0.0, 1.0, 1.0, 256.0, 1.0, 1.750527424106186E9, 0.0, 2025-06-21 19:37:04.106
192.0, -43159.810383297256, -38244.684129319685, -29348.62278087411, -71479.24709072676, -27822.17744853228, -28179.04540050571, -52081.53153437752, -98807.69685598575, -187500.02235174447, -187500.02235174447, -46919.06087625753, -45663.58574194738, -77804.27668145618, -48226.6826303819, -87488.05820799568, -31226.683405242373, 0.0, 0.0, 0.0, 193.0, 0.0, 1.0, 1.0, 0.0, 0.0, 1.0, 1.0, 256.0, 1.0, 1.750527424114188E9, 0.0, 2025-06-21 19:37:04.114
194.0, -43197.98716282692, -38278.2340977471, -29370.549842184766, -71510.80775389764, -27798.082268009457, -28114.784135196704, -52102.43041544323, -98806.08753038498, -187500.02235174447, -187500.02235174447, -46954.66720517483, -45694.297038828976, -77820.7722688642, -48261.97603487683, -87477.77640554625, -31262.22267892631, 0.0, 0.0, 0.0, 193.0, 0.0, 1.0, 1.0, 0.0, 0.0, 1.0, 1.0, 256.0, 1.0, 1.750527424123288E9, 0.0, 2025-06-21 19:37:04.123
196.0, -43146.48874360189, -38235.36345188182, -29356.267077477823, -71486.93609081938, -27803.98312854566, -28152.245658903797, -52088.92996179223, -98804.00881815063, -187500.02235174447, -187500.02235174447, -46962.87029538993, -45701.695466243684, -77833.84803937055, -48272.41429953746, -87496.46246391088, -31272.99621975377, 0.0, 0.0, 0.0, 193.0, 0.0, 1.0, 1.0, 0.0, 0.0, 1.0, 1.0, 256.0, 1.0, 1.75052742413025E9, 0.0, 2025-06-21 19:37:04.130
198.0, -43168.70637759047, -38251.99314975657, -29355.283600721792, -71496.63674791298, -27798.819875576482, -28144.176679155433, -52097.66949387425, -98805.5734402625, -187500.02235174447, -187500.02235174447, -46931.063763030026, -45662.982244847095, -77808.38940243595, -48241.74770614478, -87496.52951914424, -31242.933123461382, 0.0, 0.0, 0.0, 193.0, 0.0, 1.0, 1.0, 0.0, 0.0, 1.0, 1.0, 256.0, 1.0, 1.750527424138288E9, 0.0, 2025-06-21 19:37:04.138
200.0, -43176.998874783385, -38245.75701305354, -29358.23403098989, -71490.13239027649, -27809.660471637308, -28128.642216758995, -52089.06407225896, -98796.45392852473, -187500.02235174447, -187500.02235174447, -46953.54961795206, -45690.00550389356, -77813.88793157195, -48265.44055526741, -87459.47032683734, -31265.933068505892, 0.0, 0.0, 0.0, 193.0, 0.0, 1.0, 1.0, 0.0, 0.0, 1.0, 1.0, 256.0, 1.0, 1.750527424147287E9, 0.0, 2025-06-21 19:37:04.147
202.0, -43150.221484925925, -38234.04469895896, -29347.5275453958, -71468.78647432166, -27797.16584648679, -28171.24464169081, -52052.56367356345, -98768.24602702213, -187500.02235174447, -187500.02235174447, -46949.83922837248, -45666.71498617113, -77819.67703338589, -48227.97903156031, -87492.90853654248, -31225.40935580842, 0.0, 0.0, 0.0, 193.0, 0.0, 1.0, 1.0, 0.0, 0.0, 1.0, 1.0, 256.0, 1.0, 1.750527424155351E9, 0.0, 2025-06-21 19:37:04.155
204.0, -43165.532429877814, -38252.10490847885, -29333.98238825588, -71481.75048610574, -27808.140553014346, -28130.51976329324, -52091.16513623776, -98794.86695466841, -187500.02235174447, -187500.02235174447, -46937.23284449969, -45676.59445722037, -77802.10856224402, -48228.649583893966, -87450.77549824423, -31227.80099246514, 0.0, 0.0, 0.0, 193.0, 0.0, 1.0, 1.0, 0.0, 0.0, 1.0, 1.0, 256.0, 1.0, 1.750527424162353E9, 0.0, 2025-06-21 19:37:04.162
206.0, -43144.11945868963, -38239.587931583876, -29314.42461185749, -71453.67669506988, -27782.100770723915, -28174.15036847, -52057.54811257698, -98774.77273640309, -187500.02235174447, -187500.02235174447, -46912.4224081543, -45669.978340861606, -77793.54784411762, -48226.14618851498, -87453.5918180456, -31226.32577733109, 0.0, 0.0, 0.0, 193.0, 0.0, 1.0, 1.0, 0.0, 0.0, 1.0, 1.0, 256.0, 1.0, 1.75052742417041E9, 0.0, 2025-06-21 19:37:04.170
208.0, -43173.75787183736, -38259.95037078266, -29345.404129672545, -71481.61637563902, -27801.770305844584, -28151.016312958756, -52075.69772907469, -98793.63760872337, -187500.02235174447, -187500.02235174447, -46916.803350067545, -45663.29516926946, -77800.90156804342, -48205.224955704805, -87466.6452368075, -31205.717468943298, 0.0, 0.0, 0.0, 193.0, 0.0, 1.0, 1.0, 0.0, 0.0, 1.0, 1.0, 256.0, 1.0, 1.750527424179396E9, 0.0, 2025-06-21 19:37:04.179
210.0, -43169.10870899066, -38249.020367744015, -29339.81619355872, -71477.61541338151, -27817.997672319136, -28121.51201027775, -52100.083482275426, -98810.15554787584, -187500.02235174447, -187500.02235174447, -46938.328079978004, -45680.595419477875, -77800.40982966541, -48245.65926142446, -87443.26531210725, -31246.263533385223, 0.0, 0.0, 0.0, 193.0, 0.0, 1.0, 1.0, 0.0, 0.0, 1.0, 1.0, 256.0, 1.0, 1.750527424186423E9, 0.0, 2025-06-21 19:37:04.186
212.0, -43163.364310665645, -38250.92026602272, -29341.157298226037, -71469.23350921077, -27812.297977483035, -28158.72766479584, -52109.89589809131, -98800.41018729332, -187500.02235174447, -187500.02235174447, -46947.15701903785, -45675.27570429751, -77823.27566424319, -48233.41050546295, -87498.60823137859, -31231.623140767, 0.0, 0.0, 0.0, 193.0, 0.0, 1.0, 1.0, 0.0, 0.0, 1.0, 1.0, 256.0, 1.0, 1.750527424194527E9, 0.0, 2025-06-21 19:37:04.194
214.0, -43183.45852893097, -38269.04753077597, -29344.04067326077, -71487.02549779719, -27785.922919025772, -28113.621844485027, -52077.06118548646, -98798.68910297027, -187500.02235174447, -187500.02235174447, -46925.34171644947, -45667.452593738155, -77793.99487900673, -48229.99068856129, -87447.2439226203, -31230.907884944427, 0.0, 0.0, 0.0, 193.0, 0.0, 1.0, 1.0, 0.0, 0.0, 1.0, 1.0, 256.0, 1.0, 1.750527424202531E9, 0.0, 2025-06-21 19:37:04.202
216.0, -43181.73744460791, -38260.822088816414, -29357.161147256036, -71487.51723617522, -27821.17162003179, -28173.122188225054, -52075.87654303033, -98801.50542277163, -187500.02235174447, -187500.02235174447, -46956.00830984215, -45693.20180335067, -77825.44378345535, -48243.044107323185, -87466.8464025076, -31243.201344394845, 0.0, 0.0, 0.0, 193.0, 0.0, 1.0, 1.0, 0.0, 0.0, 1.0, 1.0, 256.0, 1.0, 1.750527424211568E9, 0.0, 2025-06-21 19:37:04.211
218.0, -43176.6412468721, -38261.738510339084, -29348.063987262725, -71485.14795126294, -27813.527323428076, -28148.535269324217, -52107.481909690134, -98805.59579200695, -187500.02235174447, -187500.02235174447, -46942.55255968006, -45674.716910686126, -77817.75478336273, -48222.10052276856, -87478.55871660217, -31224.336472074567, 0.0, 0.0, 0.0, 193.0, 0.0, 1.0, 1.0, 0.0, 0.0, 1.0, 1.0, 256.0, 1.0, 1.750527424218554E9, 0.0, 2025-06-21 19:37:04.218
220.0, -43182.944438808496, -38260.50916439405, -29357.71994086742, -71491.33938447708, -27804.273701223578, -28135.48185056232, -52062.890179501796, -98784.00400686312, -187500.02235174447, -187500.02235174447, -46969.508763493155, -45702.120149388335, -77823.83445785457, -48265.73112794532, -87464.29830363969, -31265.91071676144, 0.0, 0.0, 0.0, 193.0, 0.0, 1.0, 1.0, 0.0, 0.0, 1.0, 1.0, 256.0, 1.0, 1.750527424226584E9, 0.0, 2025-06-21 19:37:04.226
222.0, -43157.86578152964, -38257.536382381484, -29340.33028368119, -71470.66402085591, -27802.50791341161, -28177.14550222701, -52054.642385797786, -98774.97390210319, -187500.02235174447, -187500.02235174447, -46944.340699236476, -45671.96764611812, -77818.04535604065, -48222.435798935396, -87483.23023119333, -31225.364652319513, 0.0, 0.0, 0.0, 193.0, 0.0, 1.0, 1.0, 0.0, 0.0, 1.0, 1.0, 256.0, 1.0, 1.750527424234623E9, 0.0, 2025-06-21 19:37:04.234
224.0, -43172.05913925876, -38267.21468773064, -29342.029016259792, -71488.99245130927, -27798.998689532127, -28125.75884172426, -52078.335234920414, -98813.66477175531, -187500.02235174447, -187500.02235174447, -46929.11916126242, -45679.07550085491, -77803.49437040024, -48230.08009553911, -87447.4450883204, -31233.61244602352, 0.0, 0.0, 0.0, 193.0, 0.0, 1.0, 1.0, 0.0, 0.0, 1.0, 1.0, 256.0, 1.0, 1.75052742424262E9, 0.0, 2025-06-21 19:37:04.242
226.0, -43172.103842747674, -38262.07378650591, -29348.779243085297, -71481.45991342783, -27810.375727459876, -28176.58670861563, -52085.10781349037, -98784.0710620965, -187500.02235174447, -187500.02235174447, -46941.971414324216, -45688.03855038149, -77815.34079496155, -48243.535845701204, -87466.2429054073, -31248.208135152836, 0.0, 0.0, 0.0, 193.0, 0.0, 1.0, 1.0, 0.0, 0.0, 1.0, 1.0, 256.0, 1.0, 1.750527424250657E9, 0.0, 2025-06-21 19:37:04.250
228.0, -43181.31276146326, -38272.020312788525, -29350.343865197166, -71493.7757246227, -27809.861637337406, -28153.206783915375, -52091.45570891568, -98809.14971937535, -187500.02235174447, -187500.02235174447, -46940.54090267908, -45683.56820149043, -77821.17460026439, -48222.36874370203, -87479.8551177806, -31225.543466275154, 0.0, 0.0, 0.0, 193.0, 0.0, 1.0, 1.0, 0.0, 0.0, 1.0, 1.0, 256.0, 1.0, 1.750527424258645E9, 0.0, 2025-06-21 19:37:04.258
230.0, -43188.800595855784, -38267.57231564192, -29352.53433615379, -71491.42879145489, -27825.954893345224, -28137.13587965201, -52097.46832817416, -98798.4208820368, -187500.02235174447, -187500.02235174447, -46960.25514128866, -45708.78096923602, -77823.09685028755, -48257.08100284112, -87452.58598954511, -31260.702760303353, 0.0, 0.0, 0.0, 193.0, 0.0, 1.0, 1.0, 0.0, 0.0, 1.0, 1.0, 256.0, 1.0, 1.750527424267739E9, 0.0, 2025-06-21 19:37:04.267
232.0, -43172.8414503147, -38256.79877481446, -29345.47118490591, -71470.10522724452, -27804.139590756848, -28163.086254964623, -52075.51891511904, -98788.42965226527, -187500.02235174447, -187500.02235174447, -46947.89462660487, -45673.398157763266, -77823.0744985431, -48222.413447190935, -87485.26423993877, -31223.46475404081, 0.0, 0.0, 0.0, 193.0, 0.0, 1.0, 1.0, 0.0, 0.0, 1.0, 1.0, 256.0, 1.0, 1.750527424273744E9, 0.0, 2025-06-21 19:37:04.273
234.0, -43185.64899988759, -38268.48873716459, -29352.735501853884, -71489.7747623652, -27807.22413149168, -28114.80648694116, -52095.72489210664, -98799.62787623738, -187500.02235174447, -187500.02235174447, -46948.27460626062, -45686.96566664764, -77816.45838218431, -48242.127685800515, -87463.20306816138, -31243.33545486158, 0.0, 0.0, 0.0, 193.0, 0.0, 1.0, 1.0, 0.0, 0.0, 1.0, 1.0, 256.0, 1.0, 1.750527424282781E9, 0.0, 2025-06-21 19:37:04.282
236.0, -43176.26126721636, -38258.07282424842, -29356.24472573337, -71483.98566055128, -27830.17937304728, -28153.43030135993, -52104.21855499966, -98812.21190836572, -187500.02235174447, -187500.02235174447, -46948.00638532715, -45682.56237298994, -77815.63136763948, -48243.804066634664, -87468.16515543046, -31245.302408373645, 0.0, 0.0, 0.0, 193.0, 0.0, 1.0, 1.0, 0.0, 0.0, 1.0, 1.0, 256.0, 1.0, 1.750527424290806E9, 0.0, 2025-06-21 19:37:04.290
238.0, -43178.42938642852, -38261.33617893889, -29351.595562886665, -71488.45600944234, -27816.433050207266, -28127.882257447513, -52083.163211722764, -98797.50446051413, -187500.02235174447, -187500.02235174447, -46942.61961491342, -45673.84519265237, -77817.10658277351, -48231.7341246288, -87489.30990568518, -31232.450155311843, 0.0, 0.0, 0.0, 193.0, 0.0, 1.0, 1.0, 0.0, 0.0, 1.0, 1.0, 256.0, 1.0, 1.750527424298867E9, 0.0, 2025-06-21 19:37:04.298
240.0, -43185.514889420854, -38268.108757508846, -29359.99981880186, -71498.13431479149, -27813.326157727977, -28122.31667307814, -52101.916325320766, -98804.70172222874, -187500.02235174447, -187500.02235174447, -46954.01900458563, -45694.74407371808, -77812.859751327, -48270.514401258755, -87466.01938796275, -31270.738693563784, 0.0, 0.0, 0.0, 193.0, 0.0, 1.0, 1.0, 0.0, 0.0, 1.0, 1.0, 256.0, 1.0, 1.750527424305841E9, 0.0, 2025-06-21 19:37:04.305
242.0, -43157.79872629628, -38248.43922238818, -29342.744272082364, -71475.26848021371, -27807.02296579158, -28165.880223021537, -52079.050490742986, -98793.43644302327, -187500.02235174447, -187500.02235174447, -46942.463152702236, -45676.03566360899, -77819.05118454114, -48239.7360491438, -87500.44107442393, -31242.150812405445, 0.0, 0.0, 0.0, 193.0, 0.0, 1.0, 1.0, 0.0, 0.0, 1.0, 1.0, 256.0, 1.0, 1.750527424314918E9, 0.0, 2025-06-21 19:37:04.314
244.0, -43196.13196803713, -38273.67434187822, -29358.412844945535, -71500.57065493711, -27814.39904146183, -28125.46826904634, -52101.4469386872, -98814.06710315551, -187500.02235174447, -187500.02235174447, -46938.10456253345, -45678.494355499075, -77802.39913492193, -48243.9381771014, -87461.10200418258, -31249.258667142236, 0.0, 0.0, 0.0, 193.0, 0.0, 1.0, 1.0, 0.0, 0.0, 1.0, 1.0, 256.0, 1.0, 1.750527424322938E9, 0.0, 2025-06-21 19:37:04.322
246.0, -43189.18057551153, -38282.68209489371, -29362.36910371412, -71493.55220717815, -27815.941311829247, -28168.58478410063, -52093.445014172205, -98803.9641146617, -187500.02235174447, -187500.02235174447, -46962.5350192231, -45702.81305346645, -77830.87525735798, -48261.55135173218, -87485.48775738332, -31265.262516172235, 0.0, 0.0, 0.0, 193.0, 0.0, 1.0, 1.0, 0.0, 0.0, 1.0, 1.0, 256.0, 1.0, 1.750527424329954E9, 0.0, 2025-06-21 19:37:04.329
248.0, -43167.16410722305, -38256.91053353674, -29335.770527812307, -71479.96234654932, -27789.78977081654, -28140.980379698325, -52087.11947049135, -98802.44419603875, -187500.02235174447, -187500.02235174447, -46929.6779548738, -45672.23586705159, -77811.00455653723, -48221.40761869045, -87480.68213232543, -31225.69992848634, 0.0, 0.0, 0.0, 193.0, 0.0, 1.0, 1.0, 0.0, 0.0, 1.0, 1.0, 256.0, 1.0, 1.750527424338032E9, 0.0, 2025-06-21 19:37:04.338
250.0, -43201.250517517394, -38282.793853615985, -29359.23985949038, -71503.0293468272, -27830.89462886985, -28149.943429224903, -52100.10583401988, -98808.1215391304, -187500.02235174447, -187500.02235174447, -46955.13659180839, -45703.39419882229, -77820.34758571954, -48263.92063664444, -87461.61609430505, -31267.743559806775, 0.0, 0.0, 0.0, 193.0, 0.0, 1.0, 1.0, 0.0, 0.0, 1.0, 1.0, 256.0, 1.0, 1.750527424347028E9, 0.0, 2025-06-21 19:37:04.347
252.0, -43183.25736323087, -38270.74626335457, -29355.596525144163, -71485.88555882998, -27805.815971590993, -28174.016258003267, -52078.73756632061, -98793.14587034534, -187500.02235174447, -187500.02235174447, -46947.3805364824, -45686.31746605843, -77830.94231259136, -48230.37066821702, -87493.24381270932, -31231.265512855713, 0.0, 0.0, 0.0, 193.0, 0.0, 1.0, 1.0, 0.0, 0.0, 1.0, 1.0, 256.0, 1.0, 1.75052742435407E9, 0.0, 2025-06-21 19:37:04.354
254.0, -43217.813160158774, -38297.14367355629, -29378.887042866594, -71525.85047791606, -27827.631274179374, -28113.51008576275, -52133.09700883592, -98830.80855975254, -187500.02235174447, -187500.02235174447, -46969.55346698206, -45710.636164025804, -77838.45249872834, -48258.98090111982, -87480.3468561586, -31259.071082958115, 0.0, 0.0, 0.0, 193.0, 0.0, 1.0, 1.0, 0.0, 0.0, 1.0, 1.0, 256.0, 1.0, 1.750527424362051E9, 0.0, 2025-06-21 19:37:04.362
0.0, -43188.75589236688, -38269.80749008745, -29367.48765319439, -71502.29173926017, -27828.59239919095, -28160.96283924137, -52127.08438957744, -98832.1273126754, -187500.02235174447, -187500.02235174447, -46972.14626933888, -45716.98405945111, -77847.370844766, -48274.20243909388, -87498.54117614523, -31274.069103487625, 0.0, 0.0, 0.0, 193.0, 0.0, 1.0, 1.0, 0.0, 0.0, 1.0, 1.0, 256.0, 1.0, 1.750527424371124E9, 0.0, 2025-06-21 19:37:04.371
2.0, -43214.01336360137, -38289.14174904129, -29389.682935438508, -71519.16730632393, -27852.1734895913, -28143.774347755236, -52161.41666906079, -98853.36146990795, -187500.02235174447, -187500.02235174447, -46969.642873959885, -45694.54290801798, -77844.53217322018, -48256.253988296274, -87519.41770546648, -31253.23727765528, 0.0, 0.0, 0.0, 193.0, 0.0, 1.0, 1.0, 0.0, 0.0, 1.0, 1.0, 256.0, 1.0, 1.750527424379148E9, 0.0, 2025-06-21 19:37:04.379
4.0, -43192.77920636883, -38272.10971976635, -29367.398246216566, -71503.4763817163, -27823.74207064415, -28121.646120744485, -52128.85017738941, -98836.9776412222, -187500.02235174447, -187500.02235174447, -46982.27160957713, -45715.888823972804, -77843.68280693088, -48287.65818925598, -87489.17579521846, -31284.842644315082, 0.0, 0.0, 0.0, 193.0, 0.0, 1.0, 1.0, 0.0, 0.0, 1.0, 1.0, 256.0, 1.0, 1.750527424386186E9, 0.0, 2025-06-21 19:37:04.386
6.0, -43179.21169748446, -38259.41392891573, -29360.066874035227, -71488.07602978659, -27822.64683516584, -28169.99294400131, -52105.604363155886, -98819.2303561247, -187500.02235174447, -187500.02235174447, -46956.70121392026, -45684.55167824646, -77834.89857135994, -48241.47948521131, -87507.0571907827, -31240.541486804665, 0.0, 0.0, 0.0, 193.0, 0.0, 1.0, 1.0, 0.0, 0.0, 1.0, 1.0, 256.0, 1.0, 1.750527424394205E9, 0.0, 2025-06-21 19:37:04.394
8.0, -43210.95117461099, -38289.25350776357, -29377.00949633235, -71516.06041384464, -27825.37374798939, -28128.306940592163, -52115.50618594959, -98832.08260918649, -187500.02235174447, -187500.02235174447, -46958.310539521044, -45697.11335863035, -77827.38838522296, -48257.97507261933, -87481.3526846591, -31257.417053868423, 0.0, 0.0, 0.0, 193.0, 0.0, 1.0, 1.0, 0.0, 0.0, 1.0, 1.0, 256.0, 1.0, 1.75052742440323E9, 0.0, 2025-06-21 19:37:04.403
10.0, -43194.65675290308, -38280.87160359283, -29364.112539781636, -71500.39184098147, -27834.493259727155, -28176.899633038003, -52093.75793859458, -98808.79209146406, -187500.02235174447, -187500.02235174447, -46976.86248741895, -45715.66530652825, -77847.08027208809, -48270.581456492124, -87498.6529348675, -31270.068141230124, 0.0, 0.0, 0.0, 193.0, 0.0, 1.0, 1.0, 0.0, 0.0, 1.0, 1.0, 256.0, 1.0, 1.750527424410263E9, 0.0, 2025-06-21 19:37:04.410
12.0, -43190.72284587895, -38279.61990590333, -29349.09216750767, -71491.0711635436, -27811.247445493635, -28150.70338853638, -52093.221496727645, -98812.54718453255, -187500.02235174447, -187500.02235174447, -46939.91505383433, -45680.237791566586, -77822.29218748715, -48230.23655775029, -87489.39931266301, -31231.17610587789, 0.0, 0.0, 0.0, 193.0, 0.0, 1.0, 1.0, 0.0, 0.0, 1.0, 1.0, 256.0, 1.0, 1.750527424418301E9, 0.0, 2025-06-21 19:37:04.418
14.0, -43189.96288656746, -38280.87160359283, -29347.594600629163, -71492.3228612331, -27805.54775065753, -28131.056205160166, -52101.08931077592, -98814.8717659559, -187500.02235174447, -187500.02235174447, -46955.20364704176, -45699.21442260915, -77817.59832115154, -48257.796258663686, -87451.80367848917, -31260.032207969693, 0.0, 0.0, 0.0, 193.0, 0.0, 1.0, 1.0, 0.0, 0.0, 1.0, 1.0, 256.0, 1.0, 1.750527424428273E9, 0.0, 2025-06-21 19:37:04.428
16.0, -43183.92791556453, -38273.070844777925, -29347.39343492907, -71479.40355293793, -27816.88008509637, -28179.559490628184, -52081.21860995515, -98792.81059417852, -187500.02235174447, -187500.02235174447, -46949.14632429437, -45683.16587009023, -77826.89664684495, -48236.182121775404, -87497.89297555602, -31235.981730935782, 0.0, 0.0, 0.0, 193.0, 0.0, 1.0, 1.0, 0.0, 0.0, 1.0, 1.0, 256.0, 1.0, 1.750527424435326E9, 0.0, 2025-06-21 19:37:04.435
18.0, -43229.21254983098, -38310.55472022948, -29375.10959805365, -71518.16147782344, -27830.2687800251, -28131.927923193925, -52111.66168590328, -98822.44900732626, -187500.02235174447, -187500.02235174447, -46954.46603947473, -45695.70519872966, -77825.19791426635, -48245.81572363564, -87466.4440711074, -31246.509402574233, 0.0, 0.0, 0.0, 193.0, 0.0, 1.0, 1.0, 0.0, 0.0, 1.0, 1.0, 256.0, 1.0, 1.750527424442359E9, 0.0, 2025-06-21 19:37:04.442
20.0, -43197.60718317118, -38280.201051259166, -29367.979391572404, -71495.04977405665, -27820.925750842784, -28166.52842361074, -52081.10685123287, -98791.11186159991, -187500.02235174447, -187500.02235174447, -46977.53303975261, -45713.519539060544, -77847.01321685473, -48261.66311045446, -87486.71710332837, -31260.926277747905, 0.0, 0.0, 0.0, 193.0, 0.0, 1.0, 1.0, 0.0, 0.0, 1.0, 1.0, 256.0, 1.0, 1.750527424450358E9, 0.0, 2025-06-21 19:37:04.450
22.0, -43211.91229962258, -38297.43424623421, -29377.05419982126, -71511.92534112041, -27833.532134715577, -28147.104757679077, -52101.4469386872, -98813.68712349977, -187500.02235174447, -187500.02235174447, -46955.89655111988, -45690.76546320504, -77835.63617892697, -48234.93042408591, -87498.09414125612, -31230.61731226651, 0.0, 0.0, 0.0, 193.0, 0.0, 1.0, 1.0, 0.0, 0.0, 1.0, 1.0, 256.0, 1.0, 1.750527424459419E9, 0.0, 2025-06-21 19:37:04.459
24.0, -43228.05025911931, -38302.73160967012, -29392.700420939975, -71526.31986454963, -27847.300809300043, -28138.298170363687, -52128.62665994486, -98833.42371385382, -187500.02235174447, -187500.02235174447, -47000.73415049722, -45742.50975161907, -77862.36886529552, -48294.40841608148, -87493.26616445377, -31292.03990602969, 0.0, 0.0, 0.0, 193.0, 0.0, 1.0, 1.0, 0.0, 0.0, 1.0, 1.0, 256.0, 1.0, 1.750527424466439E9, 0.0, 2025-06-21 19:37:04.466
26.0, -43213.83454964573, -38299.53531021301, -29385.346697014178, -71509.24313178577, -27859.393103050366, -28190.10951401109, -52119.70831390719, -98823.56659454902, -187500.02235174447, -187500.02235174447, -46978.382406041914, -45702.20955636616, -77852.98113262429, -48259.13736333101, -87523.41866772398, -31256.500632345753, 0.0, 0.0, 0.0, 193.0, 0.0, 1.0, 1.0, 0.0, 0.0, 1.0, 1.0, 256.0, 1.0, 1.750527424474473E9, 0.0, 2025-06-21 19:37:04.474
28.0, -43218.953099125996, -38312.29815629699, -29380.451664978467, -71524.0846901041, -27834.73912891616, -28132.151440638478, -52114.053322559994, -98831.34500161947, -187500.02235174447, -187500.02235174447, -46978.40475778637, -45716.96170770666, -77845.4262429984, -48269.396814035994, -87491.45567315289, -31269.017609240727, 0.0, 0.0, 0.0, 193.0, 0.0, 1.0, 1.0, 0.0, 0.0, 1.0, 1.0, 256.0, 1.0, 1.750527424482492E9, 0.0, 2025-06-21 19:37:04.482
30.0, -43204.42446523005, -38293.16506304325, -29376.115426554137, -71507.05266082915, -27837.0190068506, -28182.19699647391, -52098.51886016356, -98809.9767339202, -187500.02235174447, -187500.02235174447, -46982.18220259932, -45720.98502170861, -77851.5729727236, -48272.83898268211, -87496.44011216643, -31273.175033709413, 0.0, 0.0, 0.0, 193.0, 0.0, 1.0, 1.0, 0.0, 0.0, 1.0, 1.0, 256.0, 1.0, 1.750527424491492E9, 0.0, 2025-06-21 19:37:04.491
32.0, -43200.46820646146, -38292.67332466523, -29364.783092115296, -71504.45985847234, -27830.82757363648, -28161.320467152655, -52082.00092101109, -98813.44125431076, -187500.02235174447, -187500.02235174447, -46957.57293195402, -45698.92384993123, -77840.8217836406, -48240.138380544, -87499.9493360459, -31239.915637959915, 0.0, 0.0, 0.0, 193.0, 0.0, 1.0, 1.0, 0.0, 0.0, 1.0, 1.0, 256.0, 1.0, 1.750527424497545E9, 0.0, 2025-06-21 19:37:04.497
34.0, -43224.6527939621, -38306.0396678495, -29382.463321979445, -71519.63669295749, -27843.456309253732, -28150.256353647277, -52109.96295332468, -98825.08651317198, -187500.02235174447, -187500.02235174447, -46981.757519454666, -45730.797437524496, -77846.25325754324, -48284.17131712095, -87483.14082421552, -31284.105036748057, 0.0, 0.0, 0.0, 193.0, 0.0, 1.0, 1.0, 0.0, 0.0, 1.0, 1.0, 256.0, 1.0, 1.750527424506568E9, 0.0, 2025-06-21 19:37:04.506
36.0, -43214.616860701666, -38303.71508642615, -29375.735446898398, -71498.49194270276, -27839.94708537425, -28192.232929734342, -52089.55581063698, -98803.04769313904, -187500.02235174447, -187500.02235174447, -46964.45726924625, -45703.75182673357, -77846.45442324334, -48243.64760442348, -87511.84046409612, -31241.994350194258, 0.0, 0.0, 0.0, 193.0, 0.0, 1.0, 1.0, 0.0, 0.0, 1.0, 1.0, 256.0, 1.0, 1.750527424514593E9, 0.0, 2025-06-21 19:37:04.514
38.0, -43226.68680270753, -38310.97940337413, -29378.39530448858, -71520.19548656887, -27840.12589932989, -28137.605266285573, -52110.32058123596, -98826.47232132821, -187500.02235174447, -187500.02235174447, -46972.503897250164, -45715.35238210588, -77843.39223425297, -48261.35018603208, -87487.20884170638, -31261.060388214635, 0.0, 0.0, 0.0, 193.0, 0.0, 1.0, 1.0, 0.0, 0.0, 1.0, 1.0, 256.0, 1.0, 1.750527424523648E9, 0.0, 2025-06-21 19:37:04.523
40.0, -43208.045447831806, -38292.9415455987, -29376.361295743143, -71505.24216952827, -27855.213326837224, -28187.49435990982, -52104.03974104402, -98813.30714384404, -187500.02235174447, -187500.02235174447, -46979.34353105349, -45724.628356054825, -77853.0258361132, -48274.783584449724, -87500.9998680353, -31274.963173265838, 0.0, 0.0, 0.0, 193.0, 0.0, 1.0, 1.0, 0.0, 0.0, 1.0, 1.0, 256.0, 1.0, 1.750527424530637E9, 0.0, 2025-06-21 19:37:04.530
42.0, -43211.822892644755, -38292.62862117632, -29373.992010830883, -71509.28783527468, -27842.092852841957, -28166.72958931084, -52099.47998517514, -98817.3751613349, -187500.02235174447, -187500.02235174447, -46957.30471102056, -45699.0356086535, -77839.90536211793, -48241.79240963369, -87504.7549611038, -31241.569667049607, 0.0, 0.0, 0.0, 193.0, 0.0, 1.0, 1.0, 0.0, 0.0, 1.0, 1.0, 256.0, 1.0, 1.750527424538689E9, 0.0, 2025-06-21 19:37:04.538
44.0, -43222.81995091676, -38303.200996303676, -29384.944365613985, -71519.59198946858, -27845.311504043522, -28149.071711191144, -52116.512014450076, -98828.97571670721, -187500.02235174447, -187500.02235174447, -46983.63506598891, -45724.38248686582, -77844.26395228672, -48282.98667466482, -87482.4032166485, -31282.42865591391, 0.0, 0.0, 0.0, 193.0, 0.0, 1.0, 1.0, 0.0, 0.0, 1.0, 1.0, 256.0, 1.0, 1.750527424546701E9, 0.0, 2025-06-21 19:37:04.546
46.0, -43204.91620360806, -38300.31762126894, -29372.80736837475, -71499.38601248099, -27852.64287622486, -28195.161008257986, -52096.93188630723, -98805.46168154023, -187500.02235174447, -187500.02235174447, -46958.467001732235, -45692.37478880582, -77839.32421676209, -48248.07324982563, -87512.42160945197, -31247.112899674525, 0.0, 0.0, 0.0, 193.0, 0.0, 1.0, 1.0, 0.0, 0.0, 1.0, 1.0, 256.0, 1.0, 1.750527424553718E9, 0.0, 2025-06-21 19:37:04.553
48.0, -43256.191105388534, -38336.50509554209, -29404.47979026792, -71541.16142286795, -27862.187071107277, -28153.56441182666, -52127.285555277536, -98834.09426618747, -187500.02235174447, -187500.02235174447, -46989.02183640264, -45729.52338809054, -77858.43495827139, -48278.67278798494, -87499.79287383473, -31280.10407449056, 0.0, 0.0, 0.0, 193.0, 0.0, 1.0, 1.0, 0.0, 0.0, 1.0, 1.0, 256.0, 1.0, 1.750527424562738E9, 0.0, 2025-06-21 19:37:04.562
50.0, -43216.53911072482, -38302.61985094784, -29375.891909109585, -71506.67268117341, -27856.353265804442, -28195.809208847193, -52112.57810742594, -98814.31297234452, -187500.02235174447, -187500.02235174447, -46995.995580672694, -45727.914062489755, -77862.16769959542, -48279.052767640685, -87503.7044291144, -31279.746446579273, 0.0, 0.0, 0.0, 193.0, 0.0, 1.0, 1.0, 0.0, 0.0, 1.0, 1.0, 256.0, 1.0, 1.750527424570812E9, 0.0, 2025-06-21 19:37:04.570
52.0, -43218.61782295917, -38304.78797016, -29365.833624104696, -71505.28687301718, -27849.692445956764, -28177.14550222701, -52116.377903983346, -98829.80273125204, -187500.02235174447, -187500.02235174447, -46964.34551052398, -45699.460291798154, -77843.7722139087, -48243.13351430101, -87503.83853958113, -31244.296579873157, 0.0, 0.0, 0.0, 193.0, 0.0, 1.0, 1.0, 0.0, 0.0, 1.0, 1.0, 256.0, 1.0, 1.75052742457783E9, 0.0, 2025-06-21 19:37:04.577
54.0, -43247.49627679542, -38326.11153437037, -29390.129970327613, -71525.96223663834, -27866.41155080933, -28167.53425211123, -52139.288442050034, -98840.10688544594, -187500.02235174447, -187500.02235174447, -46987.56897301305, -45725.92475723324, -77847.39319651046, -48281.51145953077, -87480.12333871405, -31282.51806289173, 0.0, 0.0, 0.0, 193.0, 0.0, 1.0, 1.0, 0.0, 0.0, 1.0, 1.0, 256.0, 1.0, 1.750527424585902E9, 0.0, 2025-06-21 19:37:04.585
56.0, -43208.33602050973, -38294.81909213294, -29362.883193836595, -71491.56290192163, -27854.475719270198, -28204.571092673672, -52100.843441586905, -98817.21869912371, -187500.02235174447, -187500.02235174447, -46979.74586245369, -45710.367943092344, -77857.09385360406, -48255.96341561835, -87520.84821711162, -31255.450100356353, 0.0, 0.0, 0.0, 193.0, 0.0, 1.0, 1.0, 0.0, 0.0, 1.0, 1.0, 256.0, 1.0, 1.75052742459486E9, 0.0, 2025-06-21 19:37:04.594
58.0, -43242.08715463724, -38327.609101248876, -29376.71892365443, -71512.26061728723, -27842.204611564233, -28147.551792568185, -52119.64125867382, -98827.63461203988, -187500.02235174447, -187500.02235174447, -46959.04814708807, -45695.19110860719, -77824.14738227695, -48245.569854446636, -87466.8911059965, -31244.76596650672, 0.0, 0.0, 0.0, 193.0, 0.0, 1.0, 1.0, 0.0, 0.0, 1.0, 1.0, 256.0, 1.0, 1.750527424601901E9, 0.0, 2025-06-21 19:37:04.601
60.0, -43216.919090380565, -38303.51392072605, -29378.328249255213, -71500.03421307019, -27854.676884970297, -28193.05994427919, -52111.952258581194, -98815.45291131175, -187500.02235174447, -187500.02235174447, -46996.129691139424, -45724.0919141879, -77858.90434490495, -48275.52119201675, -87498.96585928988, -31273.242088942778, 0.0, 0.0, 0.0, 193.0, 0.0, 1.0, 1.0, 0.0, 0.0, 1.0, 1.0, 256.0, 1.0, 1.75052742460991E9, 0.0, 2025-06-21 19:37:04.609
62.0, -43229.637232975634, -38312.20874931917, -29377.925917855016, -71506.35975675103, -27850.050073868046, -28172.406932402486, -52112.22047951466, -98819.16330089132, -187500.02235174447, -187500.02235174447, -46964.01023435715, -45691.503070772065, -77839.50303071774, -48234.863368852544, -87497.44594066692, -31231.60078902254, 0.0, 0.0, 0.0, 193.0, 0.0, 1.0, 1.0, 0.0, 0.0, 1.0, 1.0, 256.0, 1.0, 1.75052742461797E9, 0.0, 2025-06-21 19:37:04.617
64.0, -43237.9073784241, -38321.954109901686, -29387.313650526245, -71522.78828892569, -27860.778911206595, -28160.448749118896, -52127.01733434408, -98830.87561498591, -187500.02235174447, -187500.02235174447, -47001.15883364187, -45736.76535329406, -77858.74788269376, -48286.384139822025, -87482.29145792621, -31286.13904549349, 0.0, 0.0, 0.0, 193.0, 0.0, 1.0, 1.0, 0.0, 0.0, 1.0, 1.0, 256.0, 1.0, 1.750527424626971E9, 0.0, 2025-06-21 19:37:04.626
66.0, -43219.847168904205, -38311.56054872996, -29375.377818987112, -71503.49873346076, -27860.018951895116, -28206.53804618574, -52098.898839819296, -98815.76583573411, -187500.02235174447, -187500.02235174447, -46971.453365260764, -45707.216347124144, -77853.0258361132, -48248.922616114934, -87511.03580129574, -31249.772757264705, 0.0, 0.0, 0.0, 193.0, 0.0, 1.0, 1.0, 0.0, 0.0, 1.0, 1.0, 256.0, 1.0, 1.750527424633973E9, 0.0, 2025-06-21 19:37:04.633
68.0, -43250.87139020817, -38335.16399087477, -29396.701383197473, -71533.42771928641, -27860.600097250954, -28151.776272270235, -52130.07952333445, -98840.24099591268, -187500.02235174447, -187500.02235174447, -46985.378502056425, -45721.74498102009, -77852.13176633499, -48270.15677334747, -87490.31573418567, -31271.2304319418, 0.0, 0.0, 0.0, 193.0, 0.0, 1.0, 1.0, 0.0, 0.0, 1.0, 1.0, 256.0, 1.0, 1.750527424641973E9, 0.0, 2025-06-21 19:37:04.641
70.0, -43223.334041039234, -38315.76267668756, -29383.826778391216, -71509.62311144151, -27854.45336752574, -28198.20084550391, -52109.04653180201, -98819.90090845835, -187500.02235174447, -187500.02235174447, -47000.86826096395, -45728.7410770346, -77864.1793565964, -48280.527982774736, -87502.13980700253, -31279.56763262363, 0.0, 0.0, 0.0, 193.0, 0.0, 1.0, 1.0, 0.0, 0.0, 1.0, 1.0, 256.0, 1.0, 1.750527424651085E9, 0.0, 2025-06-21 19:37:04.651
72.0, -43244.16586687158, -38337.57797927594, -29391.471074994934, -71524.24115231528, -27861.807091451537, -28182.644031363016, -52121.56350869698, -98837.53643483359, -187500.02235174447, -187500.02235174447, -46972.28037980561, -45701.58370752141, -77850.6789029454, -48251.76128766075, -87513.85212109711, -31249.795109009163, 0.0, 0.0, 0.0, 193.0, 0.0, 1.0, 1.0, 0.0, 0.0, 1.0, 1.0, 256.0, 1.0, 1.75052742465808E9, 0.0, 2025-06-21 19:37:04.658
74.0, -43266.763480515896, -38353.78299400604, -29406.022060635336, -71537.1828123549, -27871.038361911582, -28163.220365431353, -52142.41768627378, -98851.26040592915, -187500.02235174447, -187500.02235174447, -47013.65345879239, -45748.81294355547, -77871.28721133318, -48306.61246855408, -87497.06596101118, -31306.032098058713, 0.0, 0.0, 0.0, 193.0, 0.0, 1.0, 1.0, 0.0, 0.0, 1.0, 1.0, 256.0, 1.0, 1.750527424666101E9, 0.0, 2025-06-21 19:37:04.666
76.0, -43243.696480238024, -38341.28836885552, -29383.29033652429, -71510.74069866427, -27860.28717282858, -28214.495267211827, -52104.30796197748, -98825.95823120573, -187500.02235174447, -187500.02235174447, -46993.11220563796, -45719.71097227466, -77871.39897005547, -48266.379328534524, -87529.29717651573, -31262.937934748883, 0.0, 0.0, 0.0, 193.0, 0.0, 1.0, 1.0, 0.0, 0.0, 1.0, 1.0, 256.0, 1.0, 1.750527424674153E9, 0.0, 2025-06-21 19:37:04.674
78.0, -43296.133672730175, -38383.60022110942, -29404.256272823368, -71545.96704792583, -27857.739073960674, -28157.967705484356, -52143.24470081863, -98852.86973152992, -187500.02235174447, -187500.02235174447, -46991.68169399282, -45729.3445741349, -77861.0277606282, -48282.047901397695, -87497.28947845573, -31282.13808323599, 0.0, 0.0, 0.0, 193.0, 0.0, 1.0, 1.0, 0.0, 0.0, 1.0, 1.0, 256.0, 1.0, 1.750527424683179E9, 0.0, 2025-06-21 19:37:04.683
80.0, -43288.10939647072, -38386.327133932966, -29397.86367390915, -71528.80090818416, -27863.1258443744, -28210.67311890997, -52125.29625002101, -98837.35762087794, -187500.02235174447, -187500.02235174447, -47018.01204896117, -45750.13169647833, -77884.29592660618, -48303.32676211915, -87518.63539441055, -31302.791095112694, 0.0, 0.0, 0.0, 193.0, 0.0, 1.0, 1.0, 0.0, 0.0, 1.0, 1.0, 256.0, 1.0, 1.75052742469018E9, 0.0, 2025-06-21 19:37:04.690
82.0, -43336.63503368319, -38419.07243955999, -29388.47594123792, -71529.09148086209, -27854.609829736928, -28185.706220353393, -52121.71997090817, -98838.60931856744, -187500.02235174447, -187500.02235174447, -46991.458176548265, -45721.275594386534, -77871.53308052219, -48262.31131104366, -87521.67523165647, -31262.915583004426, 0.0, 0.0, 0.0, 193.0, 0.0, 1.0, 1.0, 0.0, 0.0, 1.0, 1.0, 256.0, 1.0, 1.750527424698264E9, 0.0, 2025-06-21 19:37:04.698
84.0, -43377.44931905858, -38453.918809165814, -29405.95500540197, -71546.16821362593, -27860.376579806398, -28168.56243235617, -52137.74617168262, -98848.26527217214, -187500.02235174447, -187500.02235174447, -47025.38812463142, -45759.76529833857, -77883.22304287233, -48304.399645853, -87489.01933300727, -31307.641423659497, 0.0, 0.0, 0.0, 193.0, 0.0, 1.0, 1.0, 0.0, 0.0, 1.0, 1.0, 256.0, 1.0, 1.750527424706184E9, 0.0, 2025-06-21 19:37:04.706
86.0, -43357.55626649335, -38436.66326244632, -29368.113502039138, -71498.35783223604, -27832.235733537167, -28212.684775910948, -52095.23315372862, -98811.76487347661, -187500.02235174447, -187500.02235174447, -46994.118034138446, -45720.649745541785, -77873.52238577872, -48255.918712129445, -87515.61790890907, -31255.18187942289, 0.0, 0.0, 0.0, 193.0, 0.0, 1.0, 1.0, 0.0, 0.0, 1.0, 1.0, 256.0, 1.0, 1.750527424714353E9, 0.0, 2025-06-21 19:37:04.714
88.0, -43458.07206130887, -38521.75635358767, -29423.76934573285, -71564.18371965691, -27863.57287926351, -28170.976420757346, -52152.65478523431, -98864.9843770247, -187500.02235174447, -187500.02235174447, -47013.16172041437, -45745.393126653806, -77879.24443235928, -48276.683482728426, -87490.98628651933, -31277.175995966914, 0.0, 0.0, 0.0, 193.0, 0.0, 1.0, 1.0, 0.0, 0.0, 1.0, 1.0, 256.0, 1.0, 1.75052742472229E9, 0.0, 2025-06-21 19:37:04.722
90.0, -43440.83886633383, -38515.520216884644, -29398.78009543182, -71527.95154189486, -27850.340646545967, -28225.53702897275, -52114.81328187147, -98830.13800741888, -187500.02235174447, -187500.02235174447, -47049.63976736543, -45782.0052840716, -77914.9401682544, -48307.79711101021, -87519.52946418876, -31307.66377540395, 0.0, 0.0, 0.0, 193.0, 0.0, 1.0, 1.0, 0.0, 0.0, 1.0, 1.0, 256.0, 1.0, 1.750527424730398E9, 0.0, 2025-06-21 19:37:04.730
92.0, -43485.76587268899, -38551.68533941333, -29410.984147904415, -71543.41894905793, -27857.470853027207, -28209.644938665027, -52129.54308146752, -98847.25944367165, -187500.02235174447, -187500.02235174447, -47015.59806056, -45739.872245773346, -77895.31533662265, -48259.204418564375, -87524.69271715793, -31256.634742812486, 0.0, 0.0, 0.0, 193.0, 0.0, 1.0, 1.0, 0.0, 0.0, 1.0, 1.0, 256.0, 1.0, 1.75052742473932E9, 0.0, 2025-06-21 19:37:04.739
94.0, -43517.28183237098, -38580.8543659275, -29431.01131093637, -71566.396542358, -27869.65255375535, -28189.215444232876, -52150.33020381096, -98858.92705427732, -187500.02235174447, -187500.02235174447, -47064.995415806225, -45799.14907206882, -77923.65734859197, -48320.582308838646, -87504.1514640035, -31322.326519766633, 0.0, 0.0, 0.0, 193.0, 0.0, 1.0, 1.0, 0.0, 0.0, 1.0, 1.0, 256.0, 1.0, 1.75052742474642E9, 0.0, 2025-06-21 19:37:04.746
96.0, -43491.264401825, -38572.986551879236, -29397.86367390915, -71525.24698081578, -27851.301771557544, -28246.704130971928, -52105.09027303342, -98825.26532712762, -187500.02235174447, -187500.02235174447, -47041.12375272796, -45764.59327514092, -77921.15395321298, -48271.78845069271, -87534.88511262955, -31269.352885407556, 0.0, 0.0, 0.0, 193.0, 0.0, 1.0, 1.0, 0.0, 0.0, 1.0, 1.0, 256.0, 1.0, 1.750527424754398E9, 0.0, 2025-06-21 19:37:04.754
98.0, -43550.317710675925, -38624.88730250446, -29423.992863177406, -71564.92132722394, -27858.74490246116, -28190.82476983366, -52149.19026484374, -98862.30216769007, -187500.02235174447, -187500.02235174447, -47036.58634860353, -45770.87411533286, -77906.67002280593, -48282.45023279789, -87500.37401919055, -31282.965097780838, 0.0, 0.0, 0.0, 193.0, 0.0, 1.0, 1.0, 0.0, 0.0, 1.0, 1.0, 256.0, 1.0, 1.750527424762438E9, 0.0, 2025-06-21 19:37:04.762
100.0, -43523.98735570757, -38614.158465165914, -29406.089115868705, -71538.97095191132, -27848.30663780053, -28242.658465225515, -52114.768578382565, -98831.00972545263, -187500.02235174447, -187500.02235174447, -47064.81660185059, -45795.32692376697, -77931.72632834033, -48307.79711101021, -87516.26610949828, -31309.496618449288, 0.0, 0.0, 0.0, 193.0, 0.0, 1.0, 1.0, 0.0, 0.0, 1.0, 1.0, 256.0, 1.0, 1.750527424771542E9, 0.0, 2025-06-21 19:37:04.771
102.0, -43535.61026282433, -38637.20311369933, -29403.742182700895, -71545.67647524792, -27834.090928326958, -28221.804287648712, -52112.734569637134, -98834.45189409875, -187500.02235174447, -187500.02235174447, -47020.850720507, -45753.88678954683, -77908.07818270662, -48258.73503193081, -87522.52459794577, -31259.18284168039, 0.0, 0.0, 0.0, 193.0, 0.0, 1.0, 1.0, 0.0, 0.0, 1.0, 1.0, 256.0, 1.0, 1.750527424777527E9, 0.0, 2025-06-21 19:37:04.777
104.0, -43567.439146928686, -38670.08252979309, -29415.81212470676, -71562.17206265594, -27841.37759701939, -28198.178493759453, -52134.5051687366, -98852.35564140746, -187500.02235174447, -187500.02235174447, -47059.69805237032, -45804.55819422701, -77924.41730790345, -48314.904965746995, -87494.02612376524, -31319.62195868754, 0.0, 0.0, 0.0, 193.0, 0.0, 1.0, 1.0, 0.0, 0.0, 1.0, 1.0, 256.0, 1.0, 1.750527424786528E9, 0.0, 2025-06-21 19:37:04.786
106.0, -43539.92414950421, -38657.923180809405, -29404.14451410109, -71537.27221933272, -27847.36786453341, -28268.094750415654, -52119.50714820709, -98837.20115866675, -187500.02235174447, -187500.02235174447, -47039.24620619371, -45770.31532172148, -77924.32790092564, -48278.24810484029, -87541.72474643288, -31278.04771400067, 0.0, 0.0, 0.0, 193.0, 0.0, 1.0, 1.0, 0.0, 0.0, 1.0, 1.0, 256.0, 1.0, 1.75052742479459E9, 0.0, 2025-06-21 19:37:04.794
108.0, -43595.9376211092, -38709.95804190136, -29427.211514378967, -71574.398466873, -27851.055902368535, -28198.20084550391, -52149.570244499475, -98866.97368228123, -187500.02235174447, -187500.02235174447, -47050.31031969909, -45790.49894696462, -77925.62430210404, -48300.53279406224, -87517.83073161016, -31303.39459221299, 0.0, 0.0, 0.0, 193.0, 0.0, 1.0, 1.0, 0.0, 0.0, 1.0, 1.0, 256.0, 1.0, 1.750527424801593E9, 0.0, 2025-06-21 19:37:04.801
110.0, -43563.77346083802, -38694.200062060365, -29412.414659549555, -71549.56567878314, -27841.198783063744, -28255.26484909831, -52105.0008660556, -98832.64140279788, -187500.02235174447, -187500.02235174447, -47067.78938386314, -45808.670915206785, -77940.68937786692, -48308.6017738106, -87518.23306301035, -31312.82702837313, 0.0, 0.0, 0.0, 193.0, 0.0, 1.0, 1.0, 0.0, 0.0, 1.0, 1.0, 256.0, 1.0, 1.750527424809613E9, 0.0, 2025-06-21 19:37:04.809
112.0, -43589.030932072514, -38725.33604208661, -29422.428241065532, -71564.83192024611, -27844.730358687684, -28250.72744497388, -52119.77536914055, -98844.01844072563, -187500.02235174447, -187500.02235174447, -47039.64853759391, -45775.657388646294, -77929.647616106, -48269.08388961362, -87535.57801670767, -31270.872804030518, 0.0, 0.0, 0.0, 193.0, 0.0, 1.0, 1.0, 0.0, 0.0, 1.0, 1.0, 256.0, 1.0, 1.750527424818603E9, 0.0, 2025-06-21 19:37:04.818
114.0, -43620.65865047678, -38758.08134771363, -29446.478718099443, -71589.10591472458, -27856.152100104347, -28233.15897383201, -52148.56441599899, -98869.25356021567, -187500.02235174447, -187500.02235174447, -47089.336465518056, -45836.49883705364, -77956.22384026335, -48335.64738460152, -87515.4614466979, -31341.59372348711, 0.0, 0.0, 0.0, 193.0, 0.0, 1.0, 1.0, 0.0, 0.0, 1.0, 1.0, 256.0, 1.0, 1.750527424825663E9, 0.0, 2025-06-21 19:37:04.825
116.0, -43568.04264402898, -38722.452667051875, -29408.592511247698, -71546.07880664812, -27841.109376085926, -28277.706000531438, -52114.25448826009, -98844.1301994479, -187500.02235174447, -187500.02235174447, -47060.16743900388, -45795.14810981132, -77948.37837795954, -48292.396759080504, -87553.21354308291, -31293.71628686384, 0.0, 0.0, 0.0, 193.0, 0.0, 1.0, 1.0, 0.0, 0.0, 1.0, 1.0, 256.0, 1.0, 1.750527424833727E9, 0.0, 2025-06-21 19:37:04.833
118.0, -43623.54202551151, -38771.71591183137, -29430.743090002907, -71580.00875473127, -27837.577800461986, -28201.48655193884, -52147.73740145414, -98872.29339746159, -187500.02235174447, -187500.02235174447, -47045.66115685239, -45792.84588013242, -77922.56211311366, -48292.754386991786, -87505.69373437091, -31297.471379932333, 0.0, 0.0, 0.0, 193.0, 0.0, 1.0, 1.0, 0.0, 0.0, 1.0, 1.0, 256.0, 1.0, 1.750527424842741E9, 0.0, 2025-06-21 19:37:04.842
120.0, -43593.68009491922, -38755.42149012345, -29421.48946779841, -71556.18179514192, -27853.51459425862, -28268.675895771492, -52119.797720885006, -98848.5334931056, -187500.02235174447, -187500.02235174447, -47087.2130497948, -45827.24521484914, -77958.81664262016, -48325.29852691872, -87532.04644108373, -31329.948464625893, 0.0, 0.0, 0.0, 193.0, 0.0, 1.0, 1.0, 0.0, 0.0, 1.0, 1.0, 256.0, 1.0, 1.750527424850775E9, 0.0, 2025-06-21 19:37:04.850
122.0, -43601.23498454511, -38771.58180136464, -29414.560427017266, -71560.02629518823, -27843.121033086903, -28246.033578638267, -52123.30694476449, -98848.7346588057, -187500.02235174447, -187500.02235174447, -47039.71559282728, -45777.08790029144, -77929.78172657272, -48269.396814035994, -87535.9132928745, -31271.789225553184, 0.0, 0.0, 0.0, 193.0, 0.0, 1.0, 1.0, 0.0, 0.0, 1.0, 1.0, 256.0, 1.0, 1.750527424857808E9, 0.0, 2025-06-21 19:37:04.857
124.0, -43639.45646756369, -38812.217272784386, -29442.321293630757, -71589.50824612478, -27859.23664083918, -28239.708034957413, -52154.97936665766, -98875.35558645196, -187500.02235174447, -187500.02235174447, -47088.57650620658, -45840.969185944705, -77957.54259318621, -48331.78053281076, -87509.2029582504, -31339.984397886325, 0.0, 0.0, 0.0, 193.0, 0.0, 1.0, 1.0, 0.0, 0.0, 1.0, 1.0, 256.0, 1.0, 1.75052742486578E9, 0.0, 2025-06-21 19:37:04.865
126.0, -43588.04745531648, -38774.93456303293, -29409.888912426104, -71547.44226305989, -27843.679826698284, -28292.905186761047, -52106.54313642301, -98834.2283766542, -187500.02235174447, -187500.02235174447, -47056.054718024105, -45797.5620982125, -77947.50665992578, -48289.49103230132, -87550.77720293727, -31290.944670551384, 0.0, 0.0, 0.0, 193.0, 0.0, 1.0, 1.0, 0.0, 0.0, 1.0, 1.0, 256.0, 1.0, 1.750527424874826E9, 0.0, 2025-06-21 19:37:04.874
128.0, -43632.37096457135, -38817.29111877574, -29431.972435947948, -71584.00971698877, -27841.712873186218, -28208.460296208897, -52140.1601600838, -98863.30799619056, -187500.02235174447, -187500.02235174447, -47054.9594825458, -45809.40852277381, -77938.23068597683, -48302.2985818742, -87518.23306301035, -31306.00974631426, 0.0, 0.0, 0.0, 193.0, 0.0, 1.0, 1.0, 0.0, 0.0, 1.0, 1.0, 256.0, 1.0, 1.750527424881897E9, 0.0, 2025-06-21 19:37:04.881
130.0, -43621.32920281043, -38817.89461587604, -29427.52443880134, -71565.45776909086, -27850.94414364626, -28282.578680822695, -52122.83755813093, -98848.51114136114, -187500.02235174447, -187500.02235174447, -47078.004131079215, -45828.27339509409, -77956.42500596345, -48315.329648891646, -87523.46337121289, -31320.44897323239, 0.0, 0.0, 0.0, 193.0, 0.0, 1.0, 1.0, 0.0, 0.0, 1.0, 1.0, 256.0, 1.0, 1.750527424889916E9, 0.0, 2025-06-21 19:37:04.889
132.0, -43615.115417851855, -38814.161874552, -29419.455459052977, -71566.70946678036, -27841.712873186218, -28257.812947966213, -52123.06107557548, -98852.46740012972, -187500.02235174447, -187500.02235174447, -47043.671851595864, -45788.37553124136, -77938.0965755101, -48278.35986356257, -87544.65282495652, -31279.791150068184, 0.0, 0.0, 0.0, 193.0, 0.0, 1.0, 1.0, 0.0, 0.0, 1.0, 1.0, 256.0, 1.0, 1.75052742489795E9, 0.0, 2025-06-21 19:37:04.897
134.0, -43650.47587758015, -38845.16374411151, -29438.83442149573, -71590.80464730319, -27853.55929774753, -28241.697340213937, -52148.743229954634, -98869.11944974893, -187500.02235174447, -187500.02235174447, -47081.22278228078, -45837.459962065215, -77952.08876753913, -48337.927262535966, -87515.52850193126, -31344.231229332836, 0.0, 0.0, 0.0, 193.0, 0.0, 1.0, 1.0, 0.0, 0.0, 1.0, 1.0, 256.0, 1.0, 1.750527424906959E9, 0.0, 2025-06-21 19:37:04.906
136.0, -43609.77335092704, -38816.21823504189, -29415.946235173495, -71551.46557706184, -27847.07729185549, -28298.202550196955, -52108.890069590816, -98834.51894933212, -187500.02235174447, -187500.02235174447, -47061.53089541566, -45802.524185481576, -77953.87690709555, -48292.86614571406, -87552.5653424937, -31294.453894430866, 0.0, 0.0, 0.0, 193.0, 0.0, 1.0, 1.0, 0.0, 0.0, 1.0, 1.0, 256.0, 1.0, 1.750527424913934E9, 0.0, 2025-06-21 19:37:04.913
138.0, -43666.859706265896, -38862.21812513091, -29442.25423839739, -71585.77550480074, -27852.106434357935, -28222.474839982373, -52144.339936296936, -98862.59274036798, -187500.02235174447, -187500.02235174447, -47071.25390425371, -45818.14805485583, -77951.5523256722, -48306.36659936507, -87523.08339155716, -31310.413039971954, 0.0, 0.0, 0.0, 193.0, 0.0, 1.0, 1.0, 0.0, 0.0, 1.0, 1.0, 256.0, 1.0, 1.750527424922025E9, 0.0, 2025-06-21 19:37:04.922
140.0, -43630.94045292622, -38836.42421202949, -29417.980243918926, -71552.27023986224, -27849.446576767754, -28277.68364878698, -52122.99402034212, -98841.827969769, -187500.02235174447, -187500.02235174447, -47082.60859043701, -45827.759304971616, -77961.07416881016, -48315.17318668046, -87527.41962998148, -31319.19727554289, 0.0, 0.0, 0.0, 193.0, 0.0, 1.0, 1.0, 0.0, 0.0, 1.0, 1.0, 256.0, 1.0, 1.750527424931061E9, 0.0, 2025-06-21 19:37:04.931
142.0, -43649.89473222432, -38855.98198842788, -29426.406851578577, -71568.89993773699, -27849.200707578744, -28264.227898624886, -52138.75200018311, -98857.04950774307, -187500.02235174447, -187500.02235174447, -47041.19080796133, -45781.08886254893, -77935.45906966437, -48265.753479689774, -87534.28161552925, -31269.129367963003, 0.0, 0.0, 0.0, 193.0, 0.0, 1.0, 1.0, 0.0, 0.0, 1.0, 1.0, 256.0, 1.0, 1.750527424938086E9, 0.0, 2025-06-21 19:37:04.938
144.0, -43676.62741859286, -38879.76424452833, -29445.741110532417, -71593.39744966, -27852.88874541387, -28244.87128792659, -52152.721840467675, -98873.52274340663, -187500.02235174447, -187500.02235174447, -47102.45693951332, -45851.809782005526, -77971.08775032613, -48342.08468700465, -87521.11643804508, -31350.757938713785, 0.0, 0.0, 0.0, 193.0, 0.0, 1.0, 1.0, 0.0, 0.0, 1.0, 1.0, 256.0, 1.0, 1.750527424946135E9, 0.0, 2025-06-21 19:37:04.946
146.0, -43640.61875827536, -38855.557305283226, -29419.16488637506, -71555.01950443024, -27845.535021488075, -28303.052878743754, -52108.890069590816, -98838.81048426754, -187500.02235174447, -187500.02235174447, -47067.92349432987, -45804.91582213829, -77957.63200016404, -48294.631933526034, -87555.94045590646, -31297.493731676786, 0.0, 0.0, 0.0, 193.0, 0.0, 1.0, 1.0, 0.0, 0.0, 1.0, 1.0, 256.0, 1.0, 1.75052742495412E9, 0.0, 2025-06-21 19:37:04.954
148.0, -43702.33192471647, -38905.826378563215, -29461.16381420658, -71608.61898763406, -27865.13750137538, -28235.30474129972, -52157.14748586983, -98883.60338015597, -187500.02235174447, -187500.02235174447, -47080.395767735936, -45829.45803755022, -77960.4483199654, -48319.50942510479, -87533.78987715124, -31324.807563401173, 0.0, 0.0, 0.0, 193.0, 0.0, 1.0, 1.0, 0.0, 0.0, 1.0, 1.0, 256.0, 1.0, 1.750527424963183E9, 0.0, 2025-06-21 19:37:04.963
150.0, -43646.094935666915, -38861.59227628616, -29421.645930009596, -71555.77946374172, -27845.155041832335, -28281.572852322206, -52116.13203479434, -98840.3751063794, -187500.02235174447, -187500.02235174447, -47099.23828831176, -45845.1713139023, -77976.07218933967, -48335.78149506825, -87542.30589178871, -31339.425604274944, 0.0, 0.0, 0.0, 193.0, 0.0, 1.0, 1.0, 0.0, 0.0, 1.0, 1.0, 256.0, 1.0, 1.750527424970164E9, 0.0, 2025-06-21 19:37:04.970
152.0, -43666.077395209955, -38883.854613763644, -29417.10852588517, -71559.78042599923, -27856.08504487098, -28261.67979975698, -52131.398276257314, -98857.94357752128, -187500.02235174447, -187500.02235174447, -47041.14610447241, -45778.56311542549, -77934.36383418606, -48268.92742740243, -87535.24274054084, -31270.604583097054, 0.0, 0.0, 0.0, 193.0, 0.0, 1.0, 1.0, 0.0, 0.0, 1.0, 1.0, 256.0, 1.0, 1.750527424978251E9, 0.0, 2025-06-21 19:37:04.978
154.0, -43686.79746232003, -38902.76418957284, -29432.06184292577, -71581.46161812087, -27857.113225115925, -28241.809098936214, -52143.557625241, -98869.07474626003, -187500.02235174447, -187500.02235174447, -47085.73783466075, -45841.662090022815, -77958.3472559866, -48333.25574794481, -87512.60042340761, -31342.688958965417, 0.0, 0.0, 0.0, 193.0, 0.0, 1.0, 1.0, 0.0, 0.0, 1.0, 1.0, 256.0, 1.0, 1.750527424986263E9, 0.0, 2025-06-21 19:37:04.986
156.0, -43661.62939806335, -38887.09561670967, -29422.271778854345, -71554.8853939635, -27860.443635039766, -28306.539750878783, -52116.422607472254, -98843.8843302589, -187500.02235174447, -187500.02235174447, -47063.36373846099, -45802.54653722603, -77954.88273559604, -48280.55033451919, -87543.4681825004, -31285.3343826931, 0.0, 0.0, 0.0, 193.0, 0.0, 1.0, 1.0, 0.0, 0.0, 1.0, 1.0, 256.0, 1.0, 1.750527424994279E9, 0.0, 2025-06-21 19:37:04.994
158.0, -43733.669070442804, -38944.56195170426, -29461.70025607351, -71605.64620562151, -27880.80607423855, -28245.720654215893, -52168.50217205312, -98888.07372904703, -187500.02235174447, -187500.02235174447, -47096.48902374376, -45838.443438821254, -77973.68055268294, -48316.82721577016, -87537.18734230845, -31322.460630233367, 0.0, 0.0, 0.0, 193.0, 0.0, 1.0, 1.0, 0.0, 0.0, 1.0, 1.0, 256.0, 1.0, 1.750527425002319E9, 0.0, 2025-06-21 19:37:05.002
160.0, -43669.05017722252, -38893.84584353517, -29420.684804998018, -71556.27120211974, -27850.765329690617, -28281.59520406666, -52117.96487783967, -98842.29735640256, -187500.02235174447, -187500.02235174447, -47104.82622442558, -45844.43370633527, -77978.50852948529, -48332.56284386669, -87544.94339763444, -31337.525705996242, 0.0, 0.0, 0.0, 193.0, 0.0, 1.0, 1.0, 0.0, 0.0, 1.0, 1.0, 256.0, 1.0, 1.750527425010298E9, 0.0, 2025-06-21 19:37:05.010
162.0, -43709.84211085345, -38930.05566955276, -29447.238677410925, -71588.92710076894, -27873.117074145925, -28274.576756307695, -52136.82975015995, -98868.11362124844, -187500.02235174447, -187500.02235174447, -47049.39389817642, -45791.30360976501, -77944.53387791323, -48279.00806415178, -87544.94339763444, -31282.316897191635, 0.0, 0.0, 0.0, 193.0, 0.0, 1.0, 1.0, 0.0, 0.0, 1.0, 1.0, 256.0, 1.0, 1.750527425018364E9, 0.0, 2025-06-21 19:37:05.018
164.0, -43734.76430592112, -38950.88749538511, -29474.105474246204, -71613.42461269196, -27886.773990008118, -28265.680762014483, -52161.28255859406, -98891.06886280405, -187500.02235174447, -187500.02235174447, -47135.626928285, -45879.972980019214, -78002.33548907466, -48372.28189376377, -87555.82869718417, -31377.49062508233, 0.0, 0.0, 0.0, 193.0, 0.0, 1.0, 1.0, 0.0, 0.0, 1.0, 1.0, 256.0, 1.0, 1.750527425025395E9, 0.0, 2025-06-21 19:37:05.025
166.0, -43685.45635765271, -38921.047916537274, -29428.73143300193, -71559.82512948813, -27861.31535307352, -28315.94983529447, -52112.28753474802, -98848.24292042767, -187500.02235174447, -187500.02235174447, -47095.32673303208, -45822.238424091156, -77980.83311090864, -48304.98079120884, -87568.90446769053, -31306.546188181186, 0.0, 0.0, 0.0, 193.0, 0.0, 1.0, 1.0, 0.0, 0.0, 1.0, 1.0, 256.0, 1.0, 1.750527425034459E9, 0.0, 2025-06-21 19:37:05.034
168.0, -43743.257968814134, -38958.464736755464, -29453.810090280786, -71602.42755441995, -27878.079161415, -28244.64777048204, -52161.14844812733, -98890.0406825591, -187500.02235174447, -187500.02235174447, -47093.02450335318, -45832.45317130723, -77969.52312821426, -48313.67561980196, -87533.4098974955, -31320.00193834328, 0.0, 0.0, 0.0, 193.0, 0.0, 1.0, 1.0, 0.0, 0.0, 1.0, 1.0, 256.0, 1.0, 1.750527425042449E9, 0.0, 2025-06-21 19:37:05.042
170.0, -43709.708000386716, -38928.13341952961, -29426.697424256497, -71567.71529528085, -27874.502882302153, -28298.89545427507, -52131.264165790584, -98858.30120543257, -187500.02235174447, -187500.02235174447, -47115.197433852845, -45853.5755698175, -77986.48810225584, -48327.623108342064, -87538.52844697576, -31337.123374596045, 0.0, 0.0, 0.0, 193.0, 0.0, 1.0, 1.0, 0.0, 0.0, 1.0, 1.0, 256.0, 1.0, 1.75052742504952E9, 0.0, 2025-06-21 19:37:05.049
172.0, -43712.23374751017, -38933.028451565326, -29443.818860509262, -71583.89795826649, -27885.61169929644, -28276.45430284194, -52160.52259928258, -98882.46344118875, -187500.02235174447, -187500.02235174447, -47074.584314177555, -45806.77101692808, -77964.71750315637, -48281.354997319584, -87551.42540352647, -31285.08851350409, 0.0, 0.0, 0.0, 193.0, 0.0, 1.0, 1.0, 0.0, 0.0, 1.0, 1.0, 256.0, 1.0, 1.750527425057525E9, 0.0, 2025-06-21 19:37:05.057
174.0, -43746.99071013817, -38948.89819012859, -29464.047189241315, -71604.93094979895, -27899.335670392, -28245.00539839332, -52199.213468934715, -98909.68786593531, -187500.02235174447, -187500.02235174447, -47126.3733060805, -45861.46573561022, -77985.48227375535, -48355.27221623328, -87539.86955164309, -31359.653933006997, 0.0, 0.0, 0.0, 193.0, 0.0, 1.0, 1.0, 0.0, 0.0, 1.0, 1.0, 256.0, 1.0, 1.750527425066569E9, 0.0, 2025-06-21 19:37:05.066
176.0, -43703.002477050126, -38918.119838013634, -29432.86650572616, -71564.45194059038, -27885.835216740994, -28306.718564834424, -52168.50217205312, -98882.86577258895, -187500.02235174447, -187500.02235174447, -47095.349084776535, -45820.53969151255, -77976.0051341063, -48316.98367798134, -87578.4710143174, -31316.33625225261, 0.0, 0.0, 0.0, 193.0, 0.0, 1.0, 1.0, 0.0, 0.0, 1.0, 1.0, 256.0, 1.0, 1.75052742507456E9, 0.0, 2025-06-21 19:37:05.074
178.0, -43754.21032359723, -38964.58911473621, -29459.040398483325, -71603.20986547589, -27891.646670299375, -28237.15993608951, -52193.93845724326, -98914.96287762676, -187500.02235174447, -187500.02235174447, -47101.138186590455, -45828.653374749825, -77968.0032095913, -48326.39376239703, -87542.84233365564, -31330.06022334817, 0.0, 0.0, 0.0, 193.0, 0.0, 1.0, 1.0, 0.0, 0.0, 1.0, 1.0, 256.0, 1.0, 1.750527425081602E9, 0.0, 2025-06-21 19:37:05.081
180.0, -43709.708000386716, -38928.15577127407, -29438.119165673157, -71570.5986703156, -27877.542719548073, -28291.340564649174, -52144.31758455248, -98874.93090330731, -187500.02235174447, -187500.02235174447, -47120.4724455443, -45845.1713139023, -77983.13534058754, -48343.00110852732, -87550.57603723717, -31347.315770067667, 0.0, 0.0, 0.0, 193.0, 0.0, 1.0, 1.0, 0.0, 0.0, 1.0, 1.0, 256.0, 1.0, 1.750527425090614E9, 0.0, 2025-06-21 19:37:05.090
182.0, -43722.11321855941, -38937.27528301183, -29439.50497382939, -71577.68417330792, -27873.161777634836, -28265.59135503666, -52142.12711359586, -98876.3837666969, -187500.02235174447, -187500.02235174447, -47072.57265717658, -45796.46686273419, -77956.02267456325, -48286.65236075549, -87553.74998494983, -31288.77655133922, 0.0, 0.0, 0.0, 193.0, 0.0, 1.0, 1.0, 0.0, 0.0, 1.0, 1.0, 256.0, 1.0, 1.750527425098676E9, 0.0, 2025-06-21 19:37:05.098
184.0, -43764.76034698014, -38973.7980334518, -29469.344552677223, -71611.45765917988, -27893.859493000447, -28251.19683160744, -52164.52356154008, -98894.10870004997, -187500.02235174447, -187500.02235174447, -47136.9233294634, -45868.730052558196, -77991.83016918066, -48358.75908836831, -87540.13777257655, -31365.934773198936, 0.0, 0.0, 0.0, 193.0, 0.0, 1.0, 1.0, 0.0, 0.0, 1.0, 1.0, 256.0, 1.0, 1.750527425106665E9, 0.0, 2025-06-21 19:37:05.106
186.0, -43706.4669974407, -38928.066364296246, -29437.58272380623, -71569.48108309282, -27877.56507129253, -28304.237521199888, -52113.53923243752, -98852.31093791855, -187500.02235174447, -187500.02235174447, -47101.33935229055, -45823.80304620303, -77982.12951208705, -48313.094474446116, -87575.74410149385, -31313.586987684608, 0.0, 0.0, 0.0, 193.0, 0.0, 1.0, 1.0, 0.0, 0.0, 1.0, 1.0, 256.0, 1.0, 1.750527425113717E9, 0.0, 2025-06-21 19:37:05.113
188.0, -43780.943009965784, -38983.632801012136, -29476.340648691734, -71619.32547322816, -27897.27930990211, -28239.953904146423, -52161.103744638414, -98894.60043842798, -187500.02235174447, -187500.02235174447, -47108.44720702734, -45837.482313809676, -77977.45799749589, -48337.59198636914, -87556.07456637318, -31339.15738334148, 0.0, 0.0, 0.0, 193.0, 0.0, 1.0, 1.0, 0.0, 0.0, 1.0, 1.0, 256.0, 1.0, 1.750527425122699E9, 0.0, 2025-06-21 19:37:05.122
190.0, -43726.22593953919, -38940.65039642458, -29446.83634601073, -71577.48300760782, -27889.344440620476, -28285.50675934634, -52129.36426751188, -98861.63161535641, -187500.02235174447, -187500.02235174447, -47134.93402420689, -45859.58818907597, -77996.4569802829, -48359.653158146524, -87568.05510140123, -31361.129148141048, 0.0, 0.0, 0.0, 193.0, 0.0, 1.0, 1.0, 0.0, 0.0, 1.0, 1.0, 256.0, 1.0, 1.750527425130775E9, 0.0, 2025-06-21 19:37:05.130
192.0, -43736.574797222, -38949.90401862908, -29436.331026116735, -71576.00779247377, -27879.152045148858, -28262.797386979746, -52131.688848935235, -98865.69963284727, -187500.02235174447, -187500.02235174447, -47079.88167761346, -45796.086883078446, -77958.16844203096, -48294.006084681285, -87560.88019143108, -31293.023382785726, 0.0, 0.0, 0.0, 193.0, 0.0, 1.0, 1.0, 0.0, 0.0, 1.0, 1.0, 256.0, 1.0, 1.750527425137787E9, 0.0, 2025-06-21 19:37:05.137
194.0, -43762.65928300134, -38973.61921949616, -29456.671113571065, -71606.71908935536, -27885.723458018718, -28246.324151316185, -52169.12802089787, -98895.91919135084, -187500.02235174447, -187500.02235174447, -47127.87087295901, -45862.762136788624, -77984.56585223268, -48358.602626157124, -87533.47695272887, -31366.2029941324, 0.0, 0.0, 0.0, 193.0, 0.0, 1.0, 1.0, 0.0, 0.0, 1.0, 1.0, 256.0, 1.0, 1.750527425145824E9, 0.0, 2025-06-21 19:37:05.145
196.0, -43699.06857002599, -38924.13245727211, -29415.3427380732, -71556.36060909755, -27870.636030511385, -28295.54269260677, -52119.48479646263, -98857.42948739881, -187500.02235174447, -187500.02235174447, -47087.25775328371, -45818.08099962247, -77969.61253519208, -48306.7018755319, -87560.25434258633, -31314.10107780708, 0.0, 0.0, 0.0, 193.0, 0.0, 1.0, 1.0, 0.0, 0.0, 1.0, 1.0, 256.0, 1.0, 1.750527425154831E9, 0.0, 2025-06-21 19:37:05.154
198.0, -43768.31427434853, -38979.87770794365, -29450.323218145757, -71597.08548749513, -27885.231719640702, -28234.58948547715, -52161.75194522762, -98891.22532501523, -187500.02235174447, -187500.02235174447, -47085.111985816, -45820.87496767938, -77955.10625304059, -48311.50750058979, -87523.66453691298, -31320.113697065557, 0.0, 0.0, 0.0, 193.0, 0.0, 1.0, 1.0, 0.0, 0.0, 1.0, 1.0, 256.0, 1.0, 1.750527425161825E9, 0.0, 2025-06-21 19:37:05.161
200.0, -43721.71088715922, -38938.01289057886, -29432.218305136957, -71564.67545803494, -27882.303641117054, -28284.67974480149, -52128.22432854466, -98861.65396710086, -187500.02235174447, -187500.02235174447, -47115.80093095314, -45846.08773542497, -77981.97304987587, -48333.792189811735, -87540.51775223229, -31339.2467903193, 0.0, 0.0, 0.0, 193.0, 0.0, 1.0, 1.0, 0.0, 0.0, 1.0, 1.0, 256.0, 1.0, 1.750527425169896E9, 0.0, 2025-06-21 19:37:05.169
202.0, -43734.29491928755, -38951.55804771877, -29439.661436040573, -71573.52674883923, -27884.985850451692, -28265.054913169733, -52133.007601858095, -98865.92315029183, -187500.02235174447, -187500.02235174447, -47074.69607289983, -45794.38815049984, -77956.4473577079, -48277.97988390683, -87545.88217090156, -31279.388818667987, 0.0, 0.0, 0.0, 193.0, 0.0, 1.0, 1.0, 0.0, 0.0, 1.0, 1.0, 256.0, 1.0, 1.750527425177927E9, 0.0, 2025-06-21 19:37:05.177
204.0, -43792.3871031269, -38997.602641296704, -29481.146273749626, -71615.5033249263, -27907.605815840463, -28252.44852929694, -52165.41763131829, -98892.9911128272, -187500.02235174447, -187500.02235174447, -47144.344108622565, -45868.50653511364, -77998.80391345071, -48354.42284994398, -87534.0580980847, -31358.24577310631, 0.0, 0.0, 0.0, 193.0, 0.0, 1.0, 1.0, 0.0, 0.0, 1.0, 1.0, 256.0, 1.0, 1.750527425186982E9, 0.0, 2025-06-21 19:37:05.186
206.0, -43739.59228272346, -38954.41907100905, -29455.330008903744, -71577.68417330792, -27899.71565004774, -28310.22778871391, -52121.541156952524, -98856.62482459842, -187500.02235174447, -187500.02235174447, -47128.36261133702, -45839.58337778847, -78004.63771875355, -48321.632840828046, -87584.14835740905, -31319.86782787655, 0.0, 0.0, 0.0, 193.0, 0.0, 1.0, 1.0, 0.0, 0.0, 1.0, 1.0, 256.0, 1.0, 1.750527425193984E9, 0.0, 2025-06-21 19:37:05.193
208.0, -43786.9332774798, -38988.55018479231, -29487.5612244083, -71624.5557814307, -27906.935263506803, -28234.72359594388, -52165.998776674125, -98891.53824943761, -187500.02235174447, -187500.02235174447, -47123.46757930131, -45842.82438073449, -77988.29859355671, -48339.246015458826, -87556.87922917357, -31339.850287419595, 0.0, 0.0, 0.0, 193.0, 0.0, 1.0, 1.0, 0.0, 0.0, 1.0, 1.0, 256.0, 1.0, 1.750527425204013E9, 0.0, 2025-06-21 19:37:05.204
210.0, -43759.23946609968, -38971.272286328356, -29470.48449164444, -71602.31579569766, -27902.934301249305, -28303.254044443853, -52152.31950906748, -98879.4906591762, -187500.02235174447, -187500.02235174447, -47157.5316378512, -45876.08377648399, -78016.23827412585, -48380.44028048996, -87585.71297952092, -31383.0562094517, 0.0, 0.0, 0.0, 193.0, 0.0, 1.0, 1.0, 0.0, 0.0, 1.0, 1.0, 256.0, 1.0, 1.750527425211067E9, 0.0, 2025-06-21 19:37:05.211
212.0, -43754.590303252975, -38967.964228148965, -29464.69538983052, -71601.48878115282, -27897.972213980225, -28281.01405871082, -52157.41570680329, -98882.97753131122, -187500.02235174447, -187500.02235174447, -47107.26256457121, -45823.87010143639, -77986.08577085564, -48322.57161409517, -87584.39422659806, -31325.58987445711, 0.0, 0.0, 0.0, 193.0, 0.0, 1.0, 1.0, 0.0, 0.0, 1.0, 1.0, 256.0, 1.0, 1.750527425218017E9, 0.0, 2025-06-21 19:37:05.218
214.0, -43791.1354054374, -38985.53269929084, -29483.493206917432, -71615.61508364858, -27920.703938091272, -28257.1200438881, -52170.67029126529, -98898.55669719657, -187500.02235174447, -187500.02235174447, -47158.09043146258, -45876.41905265082, -78007.92342518848, -48376.75224265483, -87553.12413610508, -31382.2068431624, 0.0, 0.0, 0.0, 193.0, 0.0, 1.0, 1.0, 0.0, 0.0, 1.0, 1.0, 256.0, 1.0, 1.750527425226078E9, 0.0, 2025-06-21 19:37:05.226
216.0, -43739.972262379204, -38944.02550983733, -29432.10654641468, -71554.12543465203, -27895.491170345686, -28297.956681007945, -52128.98428785614, -98859.0835164885, -187500.02235174447, -187500.02235174447, -47118.639602498966, -45821.813740946505, -77987.1586545895, -48313.429750612944, -87577.6216480281, -31312.24588301729, 0.0, 0.0, 0.0, 193.0, 0.0, 1.0, 1.0, 0.0, 0.0, 1.0, 1.0, 256.0, 1.0, 1.750527425234126E9, 0.0, 2025-06-21 19:37:05.234
218.0, -43780.80889949905, -38985.21977486846, -29459.73330256144, -71593.91153978248, -27900.85558901496, -28239.68568321296, -52168.54687554204, -98894.15340353888, -187500.02235174447, -187500.02235174447, -47107.6201924825, -45820.94202291275, -77965.4551107234, -48303.25970688578, -87524.22333052437, -31305.070973047135, 0.0, 0.0, 0.0, 193.0, 0.0, 1.0, 1.0, 0.0, 0.0, 1.0, 1.0, 256.0, 1.0, 1.750527425243142E9, 0.0, 2025-06-21 19:37:05.243
220.0, -43751.75163170715, -38951.535695974315, -29448.959761733982, -71574.95726048437, -27900.363850636943, -28294.894492017567, -52141.72478219566, -98871.91341780584, -187500.02235174447, -187500.02235174447, -47141.058402187635, -45851.094526182955, -77994.84765468212, -48335.535625879245, -87543.73640343385, -31338.30801705218, 0.0, 0.0, 0.0, 193.0, 0.0, 1.0, 1.0, 0.0, 0.0, 1.0, 1.0, 256.0, 1.0, 1.75052742525015E9, 0.0, 2025-06-21 19:37:05.250
222.0, -43768.3813295819, -38974.87091718565, -29456.604058337696, -71588.16714145747, -27913.14904846538, -28273.861500485124, -52152.65478523431, -98882.06110978856, -187500.02235174447, -187500.02235174447, -47099.84178541205, -45808.08976985094, -77971.78065440424, -48294.60958178158, -87562.10953737612, -31296.599661898574, 0.0, 0.0, 0.0, 193.0, 0.0, 1.0, 1.0, 0.0, 0.0, 1.0, 1.0, 256.0, 1.0, 1.750527425258194E9, 0.0, 2025-06-21 19:37:05.258
224.0, -43781.39004485489, -38976.703760230994, -29482.554433650308, -71616.77737436026, -27919.22872295722, -28250.41452055151, -52180.482707081166, -98907.63150544543, -187500.02235174447, -187500.02235174447, -47142.868893488514, -45863.00800597764, -77989.2597185683, -48371.99132108585, -87546.2174470684, -31379.41287510549, 0.0, 0.0, 0.0, 193.0, 0.0, 1.0, 1.0, 0.0, 0.0, 1.0, 1.0, 256.0, 1.0, 1.750527425266225E9, 0.0, 2025-06-21 19:37:05.266
226.0, -43739.30171004555, -38949.83696339571, -29456.06761647077, -71581.52867335423, -27904.43186812781, -28313.84877131567, -52150.79959044452, -98869.67824336032, -187500.02235174447, -187500.02235174447, -47120.159521121925, -45827.178159615774, -77987.8068551787, -48341.03415501525, -87598.54288083827, -31343.784194443728, 0.0, 0.0, 0.0, 193.0, 0.0, 1.0, 1.0, 0.0, 0.0, 1.0, 1.0, 256.0, 1.0, 1.750527425274229E9, 0.0, 2025-06-21 19:37:05.274
228.0, -43799.15968169686, -38991.746484249416, -29484.431980184556, -71621.6053511626, -27918.021728756637, -28239.126889601575, -52181.08620418146, -98907.96678161225, -187500.02235174447, -187500.02235174447, -47129.83782647107, -45844.79133424656, -77987.4045237785, -48353.4617249324, -87565.57405776669, -31357.9999039173, 0.0, 0.0, 0.0, 193.0, 0.0, 1.0, 1.0, 0.0, 0.0, 1.0, 1.0, 256.0, 1.0, 1.750527425282259E9, 0.0, 2025-06-21 19:37:05.282
230.0, -43736.70890768873, -38944.539599959804, -29452.133709446636, -71575.71721979586, -27900.252091914666, -28279.941174976968, -52133.432285002746, -98863.21858921273, -187500.02235174447, -187500.02235174447, -47142.93594872188, -45853.97790121769, -77992.88070117006, -48360.65898664701, -87563.60710425462, -31364.660723764984, 0.0, 0.0, 0.0, 193.0, 0.0, 1.0, 1.0, 0.0, 0.0, 1.0, 1.0, 256.0, 1.0, 1.750527425290338E9, 0.0, 2025-06-21 19:37:05.290
232.0, -43778.86429773144, -38979.58713526573, -29481.861529572194, -71607.88138006705, -27921.262731702656, -28293.642794328072, -52172.793706988545, -98904.5916681995, -187500.02235174447, -187500.02235174447, -47107.66489597141, -45816.33756355495, -77979.67082019697, -48310.94870697841, -87578.49336606186, -31312.268234761745, 0.0, 0.0, 0.0, 193.0, 0.0, 1.0, 1.0, 0.0, 0.0, 1.0, 1.0, 256.0, 1.0, 1.750527425298376E9, 0.0, 2025-06-21 19:37:05.298
234.0, -43795.58340258401, -38991.746484249416, -29493.30562273331, -71624.37696747505, -27917.686452589805, -28257.36591307711, -52184.818945505496, -98918.40504627289, -187500.02235174447, -187500.02235174447, -47172.4849548918, -45884.95741903275, -78013.15373339102, -48388.48690849387, -87568.4127293125, -31392.667459567485, 0.0, 0.0, 0.0, 193.0, 0.0, 1.0, 1.0, 0.0, 0.0, 1.0, 1.0, 256.0, 1.0, 1.750527425305333E9, 0.0, 2025-06-21 19:37:05.305
236.0, -43744.33085254799, -38953.18972506401, -29457.565183349274, -71583.02624023274, -27906.130600706412, -28322.901227820068, -52144.38463978584, -98876.36141495245, -187500.02235174447, -187500.02235174447, -47127.781465981185, -45833.906034696825, -77993.93123315946, -48325.94672750792, -87586.13766266557, -31328.38384251402, 0.0, 0.0, 0.0, 193.0, 0.0, 1.0, 1.0, 0.0, 0.0, 1.0, 1.0, 256.0, 1.0, 1.75052742531439E9, 0.0, 2025-06-21 19:37:05.314
238.0, -43804.72526606623, -38998.6084697972, -29503.520369949387, -71637.0057030923, -27932.729176608227, -28252.716750230404, -52193.44671886525, -98919.20970907327, -187500.02235174447, -187500.02235174447, -47135.2245968848, -45851.31804362751, -77992.92540465896, -48354.46755343289, -87567.80923221222, -31358.82691846215, 0.0, 0.0, 0.0, 193.0, 0.0, 1.0, 1.0, 0.0, 0.0, 1.0, 1.0, 256.0, 1.0, 1.750527425322408E9, 0.0, 2025-06-21 19:37:05.322
240.0, -43760.245294600165, -38954.08379484222, -29476.944145792026, -71595.00677526079, -27921.352138680475, -28296.16854145152, -52153.70531722371, -98883.80454585607, -187500.02235174447, -187500.02235174447, -47169.35571066805, -45872.10516597094, -78017.80289623773, -48383.18954505796, -87586.89762197706, -31384.442017607933, 0.0, 0.0, 0.0, 193.0, 0.0, 1.0, 1.0, 0.0, 0.0, 1.0, 1.0, 256.0, 1.0, 1.750527425330442E9, 0.0, 2025-06-21 19:37:05.330
242.0, -43767.01787317012, -38961.19164957901, -29477.07825625876, -71599.14184798501, -27923.52025789264, -28275.426122596997, -52170.625587776376, -98900.54600245309, -187500.02235174447, -187500.02235174447, -47117.14203562046, -45813.58829898695, -77984.36468653259, -48321.409323383494, -87589.46807258941, -31319.57725519863, 0.0, 0.0, 0.0, 193.0, 0.0, 1.0, 1.0, 0.0, 0.0, 1.0, 1.0, 256.0, 1.0, 1.750527425337546E9, 0.0, 2025-06-21 19:37:05.337
244.0, -43791.56008858205, -38973.9991991519, -29487.449465686022, -71616.10682202659, -27929.890505062405, -28248.425215294985, -52182.04732919304, -98909.5984589575, -187500.02235174447, -187500.02235174447, -47165.86883853303, -45871.81459329303, -78006.15763737651, -48386.54230672626, -87564.34471182164, -31389.73938104384, 0.0, 0.0, 0.0, 193.0, 0.0, 1.0, 1.0, 0.0, 0.0, 1.0, 1.0, 256.0, 1.0, 1.750527425346538E9, 0.0, 2025-06-21 19:37:05.346
246.0, -43734.809009410026, -38933.74370738789, -29438.38738660662, -71558.52872830973, -27901.436734370796, -28293.866311772625, -52137.38854377133, -98862.25746420116, -187500.02235174447, -187500.02235174447, -47120.56185252212, -45819.44445603424, -77985.99636387783, -48322.124579206065, -87585.35535160963, -31321.991243599805, 0.0, 0.0, 0.0, 193.0, 0.0, 1.0, 1.0, 0.0, 0.0, 1.0, 1.0, 256.0, 1.0, 1.750527425354544E9, 0.0, 2025-06-21 19:37:05.354
248.0, -43792.74473103818, -38980.257687599384, -29487.002430796914, -71614.89982782601, -27941.178136012335, -28239.708034957413, -52204.77905330409, -98921.73545619672, -187500.02235174447, -187500.02235174447, -47118.08080888758, -45827.35697357142, -77974.01582884978, -48330.12650372106, -87548.22910406937, -31331.334272782122, 0.0, 0.0, 0.0, 193.0, 0.0, 1.0, 1.0, 0.0, 0.0, 1.0, 1.0, 256.0, 1.0, 1.750527425361538E9, 0.0, 2025-06-21 19:37:05.361
250.0, -43753.673881730305, -38936.47062021144, -29460.82853803975, -71571.2915743937, -27929.95756029577, -28276.789579008768, -52155.381698057856, -98881.88229583291, -187500.02235174447, -187500.02235174447, -47154.44709711637, -45853.39675586185, -78000.45794254041, -48366.224571016384, -87575.49823230485, -31365.39833133201, 0.0, 0.0, 0.0, 193.0, 0.0, 1.0, 1.0, 0.0, 0.0, 1.0, 1.0, 256.0, 1.0, 1.750527425370505E9, 0.0, 2025-06-21 19:37:05.370
252.0, -43786.30742863505, -38972.34517006221, -29475.625392869162, -71594.26916769375, -27939.233534244722, -28277.46013134243, -52170.625587776376, -98898.10966230747, -187500.02235174447, -187500.02235174447, -47109.385980294464, -45804.44643550473, -77974.99930560582, -48306.18778540943, -87582.4719765749, -31301.628804401018, 0.0, 0.0, 0.0, 193.0, 0.0, 1.0, 1.0, 0.0, 0.0, 1.0, 1.0, 256.0, 1.0, 1.750527425378573E9, 0.0, 2025-06-21 19:37:05.378
254.0, -43798.71264680775, -38977.888402687124, -29497.708916391006, -71622.901752341, -27938.540630166608, -28247.30762807222, -52181.108555925915, -98913.82293865955, -187500.02235174447, -187500.02235174447, -47169.84744904607, -45878.0283782516, -78012.97491943538, -48386.654065448536, -87567.02692115628, -31386.185453675447, 0.0, 0.0, 0.0, 193.0, 0.0, 1.0, 1.0, 0.0, 0.0, 1.0, 1.0, 256.0, 1.0, 1.750527425385576E9, 0.0, 2025-06-21 19:37:05.385
0.0, -43763.57570452401, -38958.28592279982, -29468.65164859911, -71593.95624327139, -27923.96729278175, -28308.79727706877, -52146.5080555091, -98878.4848306757, -187500.02235174447, -187500.02235174447, -47131.33539334958, -45835.425953319784, -77999.85444544011, -48337.6590416025, -87599.79457852777, -31337.659816462972, 0.0, 0.0, 0.0, 193.0, 0.0, 1.0, 1.0, 0.0, 0.0, 1.0, 1.0, 256.0, 1.0, 1.750527425393605E9, 0.0, 2025-06-21 19:37:05.393
2.0, -43831.36854545696, -39010.49959784742, -29514.606835199218, -71650.75202593232, -27933.936170808814, -28257.030636910276, -52195.88305901088, -98926.56343299907, -187500.02235174447, -187500.02235174447, -47151.13903893698, -45864.41616587832, -78008.19164612194, -48369.934960595965, -87585.2212411429, -31373.556718058197, 0.0, 0.0, 0.0, 193.0, 0.0, 1.0, 1.0, 0.0, 0.0, 1.0, 1.0, 256.0, 1.0, 1.750527425401648E9, 0.0, 2025-06-21 19:37:05.401
4.0, -43780.49597507667, -38973.5968677517, -29493.529140177863, -71619.66074939499, -27922.76029858116, -28303.991652010878, -52151.7607154561, -98887.58199066902, -187500.02235174447, -187500.02235174447, -47180.62098987353, -45889.87480281291, -78031.23629465536, -48400.37803654409, -87598.05114246024, -31403.82098005068, 0.0, 0.0, 0.0, 193.0, 0.0, 1.0, 1.0, 0.0, 0.0, 1.0, 1.0, 256.0, 1.0, 1.750527425410627E9, 0.0, 2025-06-21 19:37:05.410
6.0, -43790.75542578166, -38983.342228334215, -29488.432942442054, -71615.45862143738, -27925.733080593716, -28287.40665762504, -52165.81996271849, -98893.75107213868, -187500.02235174447, -187500.02235174447, -47132.967070694816, -45838.532845799076, -78003.43072455296, -48339.00014626982, -87607.26006117584, -31340.900819408995, 0.0, 0.0, 0.0, 193.0, 0.0, 1.0, 1.0, 0.0, 0.0, 1.0, 1.0, 256.0, 1.0, 1.750527425417696E9, 0.0, 2025-06-21 19:37:05.417
8.0, -43835.190693758814, -39020.31201366329, -29522.720518436498, -71654.50711900082, -27954.499775707696, -28273.012134195822, -52222.772207590606, -98933.13484586893, -187500.02235174447, -187500.02235174447, -47186.924181809925, -45898.52492791712, -78029.96224522141, -48414.14671112856, -87588.46224408892, -31413.611044122106, 0.0, 0.0, 0.0, 193.0, 0.0, 1.0, 1.0, 0.0, 0.0, 1.0, 1.0, 256.0, 1.0, 1.750527425425757E9, 0.0, 2025-06-21 19:37:05.425
10.0, -43774.63981802938, -38970.04294038331, -29484.364924951187, -71605.22152247686, -27944.374435469443, -28328.869143589636, -52163.45067780622, -98888.58781916951, -187500.02235174447, -187500.02235174447, -47153.642434315974, -45860.325796642996, -78020.30629161673, -48359.34023372415, -87620.9840322714, -31356.614095761073, 0.0, 0.0, 0.0, 193.0, 0.0, 1.0, 1.0, 0.0, 0.0, 1.0, 1.0, 256.0, 1.0, 1.750527425434773E9, 0.0, 2025-06-21 19:37:05.434
12.0, -43827.72521111074, -39007.750333279415, -29508.92949210757, -71640.04554033822, -27946.944886081805, -28250.83920369616, -52205.11432947092, -98925.89288066541, -187500.02235174447, -187500.02235174447, -47155.184704683394, -45860.72812804319, -78006.29174784324, -48369.577332684676, -87588.10461617763, -31366.15829064349, 0.0, 0.0, 0.0, 193.0, 0.0, 1.0, 1.0, 0.0, 0.0, 1.0, 1.0, 256.0, 1.0, 1.750527425441778E9, 0.0, 2025-06-21 19:37:05.441
