%OpenBCI Raw EXG Data
%Number of channels = 16
%Sample Rate = 125 Hz
%Board = OpenBCI_GUI$BoardCytonSerialDaisy
Sample Index, EXG Channel 0, EXG Channel 1, EXG Channel 2, EXG Channel 3, EXG Channel 4, EXG Channel 5, EXG Channel 6, EXG Channel 7, EXG Channel 8, EXG Channel 9, EXG Channel 10, EXG Channel 11, EXG Channel 12, EXG Channel 13, EXG Channel 14, EXG Channel 15, Accel Channel 0, Accel Channel 1, Accel Channel 2, Not Used, Digital Channel 0 (D11), Digital Channel 1 (D12), Digital Channel 2 (D13), Digital Channel 3 (D17), Not Used, Digital Channel 4 (D18), Analog Channel 0, Analog Channel 1, Analog Channel 2, Timestamp, Marker Channel, Timestamp (Formatted)
60.0, -41007.69502016247, -36058.415300657194, -27155.447263174923, -69365.28615537718, -25496.009051324017, -25648.917335142774, -49854.470772084096, -96559.80426785997, -187500.02235174447, -187500.02235174447, -44841.15330471436, -43478.32274178538, -75565.72712251272, -45951.409155298374, -85258.62816078999, -28900.850284200944, 0.0, 0.0, 0.0, 193.0, 0.0, 1.0, 1.0, 0.0, 0.0, 1.0, 1.0, 256.0, 1.0, 1.750527680660003E9, 0.0, 2025-06-21 19:41:20.660
0.0, -21575.13309420742, -18982.733068791997, -14591.487001357915, -35724.14496232807, -13795.943712704626, -13865.479989705085, -26037.524764242742, -49498.45218639996, -93750.01117587223, -93750.01117587223, -22452.97550594515, -21770.442637257893, -37807.05932462923, -23006.49410563637, -42642.50160962363, -14480.979976770876, 0.0, 0.0, 0.0, 193.0, 0.0, 1.0, 1.0, 0.0, 0.0, 1.0, 1.0, 256.0, 1.0, 1.750527680748482E9, 0.0, 2025-06-21 19:41:20.748
2.0, -43150.556761092754, -37963.230963138456, -29186.19265391739, -71454.63782008145, -27590.83689341985, -27721.34872929439, -52071.80852553946, -98999.07249201208, -187500.02235174447, -187500.02235174447, -46907.5720796075, -45537.54425496391, -77519.8507332624, -47991.45287173425, -87303.99159240624, -30957.79191944503, 0.0, 0.0, 0.0, 193.0, 0.0, 1.0, 1.0, 0.0, 0.0, 1.0, 1.0, 256.0, 1.0, 1.750527680757495E9, 0.0, 2025-06-21 19:41:20.757
4.0, -43158.24576118538, -37974.25037315492, -29186.460874850858, -71465.7689888202, -27591.105114353315, -27701.075697073426, -52085.42073791275, -99007.18617524937, -187500.02235174447, -187500.02235174447, -46907.97441100769, -45545.0991445898, -77513.48048609264, -48006.31678179703, -87291.29580155562, -30968.69957073922, 0.0, 0.0, 0.0, 193.0, 0.0, 1.0, 1.0, 0.0, 0.0, 1.0, 1.0, 256.0, 1.0, 1.750527680764529E9, 0.0, 2025-06-21 19:41:20.764
6.0, -43172.48382240341, -37983.03460872586, -29203.470552381346, -71467.62418361, -27603.666794737197, -27735.564438767964, -52086.8959530468, -99005.06275952612, -187500.02235174447, -187500.02235174447, -46936.450533443756, -45571.183630369145, -77543.47652715165, -48015.50334876816, -87314.47456055577, -30983.7646465021, 0.0, 0.0, 0.0, 193.0, 0.0, 1.0, 1.0, 0.0, 0.0, 1.0, 1.0, 256.0, 1.0, 1.750527680772535E9, 0.0, 2025-06-21 19:41:20.772
8.0, -43168.01347351235, -37982.43111162557, -29190.215967919346, -71461.25393644023, -27595.262538822, -27713.592673968396, -52085.08546174592, -99005.8674223265, -187500.02235174447, -187500.02235174447, -46925.252309471645, -45550.150638836705, -77532.25595143509, -47995.8785171364, -87301.21997609377, -30963.78218695905, 0.0, 0.0, 0.0, 193.0, 0.0, 1.0, 1.0, 0.0, 0.0, 1.0, 1.0, 256.0, 1.0, 1.750527680780564E9, 0.0, 2025-06-21 19:41:20.780
10.0, -43169.10870899066, -37978.63131506817, -29193.43461912091, -71456.42595963788, -27589.831064919363, -27736.3467498239, -52084.839592556906, -99007.92378281639, -187500.02235174447, -187500.02235174447, -46923.71003910423, -45548.183685324635, -77521.59416932991, -48006.24972656366, -87287.49600499822, -30971.98527717415, 0.0, 0.0, 0.0, 193.0, 0.0, 1.0, 1.0, 0.0, 0.0, 1.0, 1.0, 256.0, 1.0, 1.75052768078961E9, 0.0, 2025-06-21 19:41:20.789
12.0, -43169.8910200466, -37982.811091281306, -29192.40643887597, -71459.75636956173, -27614.194466375648, -27729.44006078721, -52088.751147836585, -99011.34359971805, -187500.02235174447, -187500.02235174447, -46925.63228912739, -45550.93294989264, -77534.96051251418, -47997.89017413738, -87314.18398787786, -30966.062064893493, 0.0, 0.0, 0.0, 193.0, 0.0, 1.0, 1.0, 0.0, 0.0, 1.0, 1.0, 256.0, 1.0, 1.750527680796609E9, 0.0, 2025-06-21 19:41:20.796
14.0, -43177.53531665031, -37997.5185391329, -29192.182921431417, -71467.98181152127, -27580.68920143714, -27704.67432793073, -52082.31384543346, -99006.5156229157, -187500.02235174447, -187500.02235174447, -46915.596355866954, -45547.37902252424, -77520.58834082942, -48002.137005583885, -87288.7029991988, -30966.240878849138, 0.0, 0.0, 0.0, 193.0, 0.0, 1.0, 1.0, 0.0, 0.0, 1.0, 1.0, 256.0, 1.0, 1.750527680804635E9, 0.0, 2025-06-21 19:41:20.804
16.0, -43158.71514781894, -37975.189146422046, -29186.147950428483, -71458.6611340834, -27598.771762701486, -27732.1446218663, -52069.036909227005, -98994.44568090983, -187500.02235174447, -187500.02235174447, -46934.17065550931, -45570.915409435685, -77541.66603585078, -48009.22250857622, -87307.09848488552, -30978.668448766286, 0.0, 0.0, 0.0, 193.0, 0.0, 1.0, 1.0, 0.0, 0.0, 1.0, 1.0, 256.0, 1.0, 1.750527680812692E9, 0.0, 2025-06-21 19:41:20.812
18.0, -43153.35072914967, -37965.98022770646, -29176.424941590423, -71453.34141890304, -27579.906890381208, -27721.751060694583, -52067.06995571494, -98988.85774479601, -187500.02235174447, -187500.02235174447, -46901.24653592665, -45534.92910086264, -77513.07815469244, -47986.1778600428, -87289.03827536563, -30954.528564754557, 0.0, 0.0, 0.0, 193.0, 0.0, 1.0, 1.0, 0.0, 0.0, 1.0, 1.0, 256.0, 1.0, 1.750527680820674E9, 0.0, 2025-06-21 19:41:20.820
20.0, -43169.06400550175, -37980.285344157855, -29185.231528905813, -71456.64947708244, -27600.068163879892, -27728.90361892028, -52075.764784308056, -98999.20660247882, -187500.02235174447, -187500.02235174447, -46915.50694888913, -45546.93198763514, -77517.19087567221, -48004.97567712971, -87286.49017649773, -30969.973620173172, 0.0, 0.0, 0.0, 193.0, 0.0, 1.0, 1.0, 0.0, 0.0, 1.0, 1.0, 256.0, 1.0, 1.750527680828786E9, 0.0, 2025-06-21 19:41:20.828
22.0, -43160.32447341973, -37973.870393499186, -29181.319973626134, -71451.75444504672, -27595.32959405537, -27726.400223541288, -52073.30609241797, -98995.00447452122, -187500.02235174447, -187500.02235174447, -46910.790730809065, -45540.248816043, -77521.23654141862, -47984.83675537548, -87300.41531329339, -30955.109710110395, 0.0, 0.0, 0.0, 193.0, 0.0, 1.0, 1.0, 0.0, 0.0, 1.0, 1.0, 256.0, 1.0, 1.750527680836777E9, 0.0, 2025-06-21 19:41:20.836
24.0, -43178.63055212862, -37999.306678689325, -29205.258691937768, -71481.14698900544, -27594.480227766067, -27734.91623817876, -52113.852156859895, -99026.18515803637, -187500.02235174447, -187500.02235174447, -46926.70517286124, -45556.16325809518, -77527.18210544373, -48013.9834301452, -87300.9070516714, -30978.780207488562, 0.0, 0.0, 0.0, 193.0, 0.0, 1.0, 1.0, 0.0, 0.0, 1.0, 1.0, 256.0, 1.0, 1.75052768084577E9, 0.0, 2025-06-21 19:41:20.845
26.0, -43161.330301920214, -37974.764463277395, -29193.792247032197, -71464.22671845279, -27612.696899497143, -27731.608179999374, -52114.12037779336, -99025.26873651371, -187500.02235174447, -187500.02235174447, -46927.71100136173, -45564.79103145493, -77534.58053285844, -48014.095188867475, -87313.3122698441, -30982.915280212794, 0.0, 0.0, 0.0, 193.0, 0.0, 1.0, 1.0, 0.0, 0.0, 1.0, 1.0, 256.0, 1.0, 1.750527680852754E9, 0.0, 2025-06-21 19:41:20.852
28.0, -43174.42842417103, -37991.99765825244, -29199.737811057308, -71473.27917495718, -27616.250826865537, -27741.889982448814, -52133.901671636304, -99043.01602161123, -187500.02235174447, -187500.02235174447, -46927.219262983715, -45556.6549964732, -77534.62523634735, -48014.229299334205, -87319.30253735812, -30981.998858690127, 0.0, 0.0, 0.0, 193.0, 0.0, 1.0, 1.0, 0.0, 0.0, 1.0, 1.0, 256.0, 1.0, 1.75052768086081E9, 0.0, 2025-06-21 19:41:20.860
30.0, -43163.5878281102, -37979.57008833529, -29180.001220703274, -71450.86037526852, -27589.026402118972, -27721.10286010538, -52098.74237760811, -99018.89848934395, -187500.02235174447, -187500.02235174447, -46927.95687055074, -45553.88338016074, -77528.14323045532, -48019.906642425856, -87300.16944410438, -30985.888062225353, 0.0, 0.0, 0.0, 193.0, 0.0, 1.0, 1.0, 0.0, 0.0, 1.0, 1.0, 256.0, 1.0, 1.750527680868814E9, 0.0, 2025-06-21 19:41:20.868
32.0, -43146.242874412885, -37955.85488746821, -29162.365694328037, -71434.58830530505, -27571.145006554725, -27713.749136179584, -52064.365394635846, -98991.69641634185, -187500.02235174447, -187500.02235174447, -46895.7703585351, -45523.574414679344, -77508.22782614564, -47967.35769121143, -87278.55530721608, -30938.435308746735, 0.0, 0.0, 0.0, 193.0, 0.0, 1.0, 1.0, 0.0, 0.0, 1.0, 1.0, 256.0, 1.0, 1.75052768087684E9, 0.0, 2025-06-21 19:41:20.876
34.0, -43166.44885140048, -37983.68280931507, -29178.749523013776, -71452.24618342474, -27583.37141077178, -27700.67336567323, -52073.864886029354, -98993.66336985391, -187500.02235174447, -187500.02235174447, -46915.79752156705, -45543.02043235546, -77517.5485035835, -47997.733711926194, -87279.91876362787, -30963.715131725687, 0.0, 0.0, 0.0, 193.0, 0.0, 1.0, 1.0, 0.0, 0.0, 1.0, 1.0, 256.0, 1.0, 1.750527680884867E9, 0.0, 2025-06-21 19:41:20.884
36.0, -43153.35072914967, -37964.43795733905, -29168.40066533097, -71438.18693616235, -27597.60947198981, -27728.389528797812, -52057.68222304371, -98979.20179119133, -187500.02235174447, -187500.02235174447, -46898.899602758844, -45526.45778971408, -77503.60101504339, -47975.27020874861, -87272.60974319097, -30943.732672182643, 0.0, 0.0, 0.0, 193.0, 0.0, 1.0, 1.0, 0.0, 0.0, 1.0, 1.0, 256.0, 1.0, 1.75052768089292E9, 0.0, 2025-06-21 19:41:20.892
38.0, -43183.12325276414, -37995.90921353212, -29194.999241232785, -71468.38414292147, -27612.920416941695, -27730.043557887504, -52087.141822235804, -99007.18617524937, -187500.02235174447, -187500.02235174447, -46924.24648097116, -45546.17202832366, -77529.52903861154, -47992.45870023474, -87296.59316499153, -30961.301143324512, 0.0, 0.0, 0.0, 193.0, 0.0, 1.0, 1.0, 0.0, 0.0, 1.0, 1.0, 256.0, 1.0, 1.750527680901949E9, 0.0, 2025-06-21 19:41:20.901
40.0, -43177.15533699457, -37988.13080646167, -29187.533758584712, -71460.3151631731, -27600.381088302267, -27727.00372064158, -52075.183638952214, -98998.33488444507, -187500.02235174447, -187500.02235174447, -46934.86355958743, -45563.22640934306, -77534.75934681408, -48015.615107490434, -87294.89443241293, -30982.110617412403, 0.0, 0.0, 0.0, 193.0, 0.0, 1.0, 1.0, 0.0, 0.0, 1.0, 1.0, 256.0, 1.0, 1.75052768090796E9, 0.0, 2025-06-21 19:41:20.907
42.0, -43161.57617110922, -37977.357265634215, -29173.07217992213, -71438.49986058472, -27578.83400664735, -27730.222371843145, -52055.80467650946, -98981.39226214794, -187500.02235174447, -187500.02235174447, -46914.85874829993, -45539.019470097955, -77524.298730409, -47980.76873788461, -87295.11794985748, -30952.09222460893, 0.0, 0.0, 0.0, 193.0, 0.0, 1.0, 1.0, 0.0, 0.0, 1.0, 1.0, 256.0, 1.0, 1.750527680917021E9, 0.0, 2025-06-21 19:41:20.917
44.0, -43170.941552036, -37985.247431426935, -29186.326764384125, -71459.0634654836, -27593.02736437647, -27717.727746692628, -52076.5917988529, -98994.9150675434, -187500.02235174447, -187500.02235174447, -46913.13766397687, -45537.34308926381, -77514.03927970401, -47993.68804617978, -87279.71759792777, -30959.334189812445, 0.0, 0.0, 0.0, 193.0, 0.0, 1.0, 1.0, 0.0, 0.0, 1.0, 1.0, 256.0, 1.0, 1.750527680925086E9, 0.0, 2025-06-21 19:41:20.925
46.0, -43153.507191360855, -37966.159041662104, -29165.651400762967, -71428.9556657023, -27588.422905018677, -27730.222371843145, -52048.31684211694, -98971.28927365414, -187500.02235174447, -187500.02235174447, -46910.9695447647, -45534.68323167363, -77515.60390181589, -47983.048615819054, -87284.34440903002, -30948.672407707265, 0.0, 0.0, 0.0, 193.0, 0.0, 1.0, 1.0, 0.0, 0.0, 1.0, 1.0, 256.0, 1.0, 1.7505276809331E9, 0.0, 2025-06-21 19:41:20.933
48.0, -43155.09416521718, -37980.03947496885, -29161.896307694475, -71436.55525881711, -27564.730055896052, -27680.020353796524, -52047.60158629437, -98966.84127650753, -187500.02235174447, -187500.02235174447, -46899.05606497003, -45521.24983325599, -77507.2443493896, -47958.01466202911, -87266.61947567695, -30923.25847426158, 0.0, 0.0, 0.0, 193.0, 0.0, 1.0, 1.0, 0.0, 0.0, 1.0, 1.0, 256.0, 1.0, 1.750527680940141E9, 0.0, 2025-06-21 19:41:20.940
50.0, -43160.19036295299, -37982.02878022537, -29170.501729309766, -71441.09266294153, -27562.249012261513, -27720.655825216276, -52062.6890138017, -98980.02880573616, -187500.02235174447, -187500.02235174447, -46912.28829768757, -45544.607406211784, -77516.296805894, -47980.9252000958, -87264.2948942536, -30944.559686727487, 0.0, 0.0, 0.0, 193.0, 0.0, 1.0, 1.0, 0.0, 0.0, 1.0, 1.0, 256.0, 1.0, 1.750527680949314E9, 0.0, 2025-06-21 19:41:20.949
52.0, -43173.95903753746, -37984.487472115456, -29186.19265391739, -71448.04405546714, -27615.937902443162, -27745.91329645077, -52073.41785114025, -98997.26200071121, -187500.02235174447, -187500.02235174447, -46910.54486162005, -45534.79499039591, -77521.7506315411, -47964.742537110156, -87284.70203694131, -30932.623855188354, 0.0, 0.0, 0.0, 193.0, 0.0, 1.0, 1.0, 0.0, 0.0, 1.0, 1.0, 256.0, 1.0, 1.750527680957211E9, 0.0, 2025-06-21 19:41:20.957
54.0, -43179.56932539574, -37993.40581815312, -29186.19265391739, -71458.05763698313, -27599.866998179794, -27716.1407728363, -52084.45961290117, -99004.14633800344, -187500.02235174447, -187500.02235174447, -46934.9306148208, -45554.93391215014, -77535.13932646983, -48000.55003172756, -87291.20639457779, -30964.810367203998, 0.0, 0.0, 0.0, 193.0, 0.0, 1.0, 1.0, 0.0, 0.0, 1.0, 1.0, 256.0, 1.0, 1.750527680964248E9, 0.0, 2025-06-21 19:41:20.964
56.0, -43157.32933966271, -37970.7635010199, -29166.701932752363, -71431.59317154804, -27583.75139042752, -27715.693737947196, -52056.385821865304, -98976.96661674579, -187500.02235174447, -187500.02235174447, -46920.938422791776, -45544.20507481159, -77524.92457925375, -47981.88632510738, -87285.19377531932, -30949.16414608528, 0.0, 0.0, 0.0, 193.0, 0.0, 1.0, 1.0, 0.0, 0.0, 1.0, 1.0, 256.0, 1.0, 1.750527680972236E9, 0.0, 2025-06-21 19:41:20.972
58.0, -43166.650017100575, -37985.113320960205, -29171.842833977087, -71441.49499434173, -27566.853471619306, -27707.691813432197, -52059.939749233694, -98982.33103541506, -187500.02235174447, -187500.02235174447, -46903.10173071644, -45526.70365890308, -77513.12285818135, -47961.63564463087, -87271.06747282356, -30927.572360941456, 0.0, 0.0, 0.0, 193.0, 0.0, 1.0, 1.0, 0.0, 0.0, 1.0, 1.0, 256.0, 1.0, 1.750527680981318E9, 0.0, 2025-06-21 19:41:20.981
60.0, -43147.67338605802, -37968.617733552186, -29163.416226317433, -71428.0615959241, -27547.318046965367, -27700.271034273035, -52048.96504270614, -98971.5574945876, -187500.02235174447, -187500.02235174447, -46913.942326777265, -45536.94075786362, -77514.17339017075, -47979.33822623947, -87264.16078378688, -30943.911486138284, 0.0, 0.0, 0.0, 193.0, 0.0, 1.0, 1.0, 0.0, 0.0, 1.0, 1.0, 256.0, 1.0, 1.750527680988339E9, 0.0, 2025-06-21 19:41:20.988
62.0, -43164.05721474376, -37985.98503899396, -29175.039133434195, -71441.45029085282, -27602.571559258886, -27733.3963195558, -52071.67441507273, -98995.76443383271, -187500.02235174447, -187500.02235174447, -46906.029809240084, -45529.18470253763, -77516.16269542727, -47970.174011012794, -87289.68647595483, -30939.485840736135, 0.0, 0.0, 0.0, 193.0, 0.0, 1.0, 1.0, 0.0, 0.0, 1.0, 1.0, 256.0, 1.0, 1.750527680996396E9, 0.0, 2025-06-21 19:41:20.996
64.0, -43155.7870692953, -37977.24550691194, -29160.018761160227, -71437.7622530177, -27570.809730387897, -27683.797798609474, -52061.34790913438, -98982.93453251536, -187500.02235174447, -187500.02235174447, -46900.173652192796, -45531.688097916616, -77505.16563715525, -47981.41693847382, -87271.82743213505, -30947.957151884697, 0.0, 0.0, 0.0, 193.0, 0.0, 1.0, 1.0, 0.0, 0.0, 1.0, 1.0, 256.0, 1.0, 1.75052768100545E9, 0.0, 2025-06-21 19:41:21.005
66.0, -43157.709319318456, -37973.40100686562, -29164.310296095646, -71435.72824427226, -27581.225643304067, -27731.027034643535, -52067.18171443722, -98985.63909359445, -187500.02235174447, -187500.02235174447, -46889.84714625444, -45521.92038558965, -77498.86244521887, -47964.56372315451, -87265.41248147636, -30935.17195405626, 0.0, 0.0, 0.0, 193.0, 0.0, 1.0, 1.0, 0.0, 0.0, 1.0, 1.0, 256.0, 1.0, 1.750527681013452E9, 0.0, 2025-06-21 19:41:21.013
68.0, -43168.8404880572, -37981.49233835845, -29178.19072940239, -71455.9118695154, -27581.91854738218, -27721.818115927952, -52070.82504878343, -98998.96073328982, -187500.02235174447, -187500.02235174447, -46922.391286181366, -45553.1010691048, -77532.9488555132, -47992.436348490286, -87301.3093830716, -30963.625724747864, 0.0, 0.0, 0.0, 193.0, 0.0, 1.0, 1.0, 0.0, 0.0, 1.0, 1.0, 256.0, 1.0, 1.750527681020476E9, 0.0, 2025-06-21 19:41:21.020
70.0, -43148.09806920267, -37966.60607655121, -29160.28698209369, -71429.1568314024, -27547.943895810116, -27699.801647639473, -52047.087496171895, -98973.97148298878, -187500.02235174447, -187500.02235174447, -46914.29995468855, -45536.20315029659, -77513.43578260372, -47986.1778600428, -87270.48632746772, -30953.388625787335, 0.0, 0.0, 0.0, 193.0, 0.0, 1.0, 1.0, 0.0, 0.0, 1.0, 1.0, 256.0, 1.0, 1.750527681028622E9, 0.0, 2025-06-21 19:41:21.028
72.0, -43161.84439204269, -37980.218288924494, -29173.07217992213, -71442.99256122024, -27582.79026541594, -27726.310816563466, -52059.537417833504, -98986.30964592811, -187500.02235174447, -187500.02235174447, -46901.827681282484, -45528.35768799278, -77516.54267508301, -47964.29550222105, -87282.8021386626, -30934.21082904468, 0.0, 0.0, 0.0, 193.0, 0.0, 1.0, 1.0, 0.0, 0.0, 1.0, 1.0, 256.0, 1.0, 1.750527681037532E9, 0.0, 2025-06-21 19:41:21.037
74.0, -43168.818136312744, -37979.19010867955, -29181.09645618158, -71454.83898578155, -27587.394724773734, -27712.765659423552, -52077.68703433121, -98995.5185646437, -187500.02235174447, -187500.02235174447, -46916.06574250052, -45546.03791785693, -77523.11408795287, -47991.363464756425, -87279.0023421052, -30956.65198047781, 0.0, 0.0, 0.0, 193.0, 0.0, 1.0, 1.0, 0.0, 0.0, 1.0, 1.0, 256.0, 1.0, 1.750527681044589E9, 0.0, 2025-06-21 19:41:21.044
76.0, -43159.60921759716, -37970.53998357534, -29184.940956227896, -71449.54162234564, -27592.93795739865, -27720.25349381608, -52069.28277841602, -98991.40584366392, -187500.02235174447, -187500.02235174447, -46929.163864751325, -45546.574359723854, -77533.26177993558, -47994.224488046704, -87297.01784813618, -30961.211736346693, 0.0, 0.0, 0.0, 193.0, 0.0, 1.0, 1.0, 0.0, 0.0, 1.0, 1.0, 256.0, 1.0, 1.750527681052608E9, 0.0, 2025-06-21 19:41:21.052
78.0, -43139.87262724312, -37950.22224786547, -29174.48033982281, -71447.75348278922, -27569.82625363186, -27703.892016874794, -52069.97568249413, -98992.05404425312, -187500.02235174447, -187500.02235174447, -46912.57887036549, -45535.331432262836, -77522.37648038584, -47986.11080480943, -87296.32494405805, -30954.394454287823, 0.0, 0.0, 0.0, 193.0, 0.0, 1.0, 1.0, 0.0, 0.0, 1.0, 1.0, 256.0, 1.0, 1.750527681060644E9, 0.0, 2025-06-21 19:41:21.060
80.0, -43151.74140354889, -37982.05113196983, -29168.221851375325, -71440.69033154135, -27569.736846654043, -27710.06109834446, -52070.0427377275, -98991.40584366392, -187500.02235174447, -187500.02235174447, -46907.03563774057, -45535.51024621847, -77509.92655872424, -47989.30710426654, -87274.10731006949, -30955.065006621484, 0.0, 0.0, 0.0, 193.0, 0.0, 1.0, 1.0, 0.0, 0.0, 1.0, 1.0, 256.0, 1.0, 1.750527681069672E9, 0.0, 2025-06-21 19:41:21.069
82.0, -43145.617025568135, -37983.861623270706, -29173.027476433217, -71447.90994500041, -27584.868977650283, -27733.217505600158, -52076.92707501973, -99000.10067225703, -187500.02235174447, -187500.02235174447, -46906.18627145127, -45537.2983857749, -77519.35899488437, -47975.91840933781, -87295.92261265786, -30946.727805939652, 0.0, 0.0, 0.0, 193.0, 0.0, 1.0, 1.0, 0.0, 0.0, 1.0, 1.0, 256.0, 1.0, 1.750527681076684E9, 0.0, 2025-06-21 19:41:21.076
84.0, -43135.603444052154, -37975.47971909997, -29166.590174030087, -71445.47360485478, -27563.366599484278, -27717.01249087006, -52080.41394715476, -98997.73138734477, -187500.02235174447, -187500.02235174447, -46903.593469094456, -45541.76873466596, -77509.47952383514, -47990.24587753366, -87279.27056303866, -30956.74138745563, 0.0, 0.0, 0.0, 193.0, 0.0, 1.0, 1.0, 0.0, 0.0, 1.0, 1.0, 256.0, 1.0, 1.750527681084723E9, 0.0, 2025-06-21 19:41:21.084
86.0, -43103.5733942477, -37950.46811705448, -29141.086833606583, -71416.55044752962, -27550.089663277828, -27738.805441713983, -52051.37903110732, -98972.74213704374, -187500.02235174447, -187500.02235174447, -46892.35054163344, -45527.50832170348, -77500.85175047538, -47975.20315351524, -87277.88475488243, -30944.336169282935, 0.0, 0.0, 0.0, 193.0, 0.0, 1.0, 1.0, 0.0, 0.0, 1.0, 1.0, 256.0, 1.0, 1.750527681092753E9, 0.0, 2025-06-21 19:41:21.092
88.0, -43097.40431277804, -37948.36705307568, -29140.39392952847, -71423.07715691056, -27535.561029381875, -27732.859877688872, -52055.134124175805, -98977.10072721253, -187500.02235174447, -187500.02235174447, -46861.147506373825, -45510.29747847289, -77479.52818626502, -47949.74451658065, -87259.17634477334, -30919.659843404275, 0.0, 0.0, 0.0, 193.0, 0.0, 1.0, 1.0, 0.0, 0.0, 1.0, 1.0, 256.0, 1.0, 1.750527681100805E9, 0.0, 2025-06-21 19:41:21.100
90.0, -43094.09625459865, -37943.56142801779, -29136.795298671164, -71418.69621499733, -27533.97405552555, -27715.649034458285, -52053.658909041755, -98976.11725045649, -187500.02235174447, -187500.02235174447, -46867.875381454876, -45525.51901644695, -77480.01992464304, -47973.59382791446, -87256.71765288325, -30942.36921577087, 0.0, 0.0, 0.0, 193.0, 0.0, 1.0, 1.0, 0.0, 0.0, 1.0, 1.0, 256.0, 1.0, 1.750527681108757E9, 0.0, 2025-06-21 19:41:21.108
92.0, -43061.507411182814, -37918.639232950125, -29115.784658883174, -71395.33864204152, -27526.88855253322, -27736.212639357167, -52033.11765588733, -98960.18045665986, -187500.02235174447, -187500.02235174447, -46847.22236957817, -45507.74937960498, -77473.40380828426, -47940.200321698234, -87256.44943194979, -30914.541293924012, 0.0, 0.0, 0.0, 193.0, 0.0, 1.0, 1.0, 0.0, 0.0, 1.0, 1.0, 256.0, 1.0, 1.750527681116818E9, 0.0, 2025-06-21 19:41:21.116
94.0, -43074.516126455805, -37933.12316335716, -29129.016891600717, -71414.69525273982, -27525.301578676892, -27715.15729608027, -52059.15743817776, -98979.78293654716, -187500.02235174447, -187500.02235174447, -46837.40995376229, -45492.751359075475, -77452.63903768528, -47941.653185087824, -87229.22500720323, -30911.479104933635, 0.0, 0.0, 0.0, 193.0, 0.0, 1.0, 1.0, 0.0, 0.0, 1.0, 1.0, 256.0, 1.0, 1.750527681125829E9, 0.0, 2025-06-21 19:41:21.125
96.0, -43064.07786179517, -37924.89772139761, -29123.80893514263, -71406.13453461343, -27539.78550908393, -27741.91233419327, -52043.77943799251, -98972.04923296563, -187500.02235174447, -187500.02235174447, -46858.44294529474, -45517.02535355394, -77479.30466882046, -47962.082679519975, -87264.92074309835, -30934.41199474478, 0.0, 0.0, 0.0, 193.0, 0.0, 1.0, 1.0, 0.0, 0.0, 1.0, 1.0, 256.0, 1.0, 1.750527681131859E9, 0.0, 2025-06-21 19:41:21.131
98.0, -43068.369396730595, -37928.22813132145, -29129.70979567883, -71419.858505709, -27530.889514790717, -27729.015377642558, -52049.16620840624, -98974.3067591556, -187500.02235174447, -187500.02235174447, -46841.27680555306, -45500.46271091255, -77466.47476750312, -47939.19449319774, -87246.97229230074, -30912.909616578774, 0.0, 0.0, 0.0, 193.0, 0.0, 1.0, 1.0, 0.0, 0.0, 1.0, 1.0, 256.0, 1.0, 1.750527681140893E9, 0.0, 2025-06-21 19:41:21.140
100.0, -43066.84947810763, -37920.13679982863, -29130.71562417932, -71417.08688939654, -27537.751500338498, -27725.1932293407, -52050.44025784019, -98977.30189291263, -187500.02235174447, -187500.02235174447, -46860.56636101799, -45520.713391389065, -77477.00243914156, -47968.89996157884, -87250.88384758042, -30938.904695380297, 0.0, 0.0, 0.0, 193.0, 0.0, 1.0, 1.0, 0.0, 0.0, 1.0, 1.0, 256.0, 1.0, 1.75052768114894E9, 0.0, 2025-06-21 19:41:21.148
102.0, -43054.46661167939, -37910.97258460195, -29126.401737499447, -71413.57766551706, -27526.665035088663, -27725.81907818545, -52038.571481534425, -98967.78004977466, -187500.02235174447, -187500.02235174447, -46840.76271543059, -45501.44618766859, -77468.03938961499, -47939.842693786944, -87256.96352207227, -30914.6977561352, 0.0, 0.0, 0.0, 193.0, 0.0, 1.0, 1.0, 0.0, 0.0, 1.0, 1.0, 256.0, 1.0, 1.750527681156954E9, 0.0, 2025-06-21 19:41:21.156
104.0, -43059.49575418184, -37916.2028928045, -29134.515420736723, -71430.54263955864, -27527.201476955594, -27710.99987161158, -52058.30807188846, -98983.15804995991, -187500.02235174447, -187500.02235174447, -46849.92693065726, -45517.67355414314, -77470.72159894963, -47969.92814182379, -87251.59910340299, -30942.190401815227, 0.0, 0.0, 0.0, 193.0, 0.0, 1.0, 1.0, 0.0, 0.0, 1.0, 1.0, 256.0, 1.0, 1.750527681164962E9, 0.0, 2025-06-21 19:41:21.164
106.0, -43035.221759703374, -37893.22529950444, -29112.47660070379, -71397.01502287567, -27512.851657015286, -27717.705394948174, -52028.60260350736, -98958.79464850362, -187500.02235174447, -187500.02235174447, -46843.93666314324, -45506.81060633786, -77465.62540121382, -47959.95926379672, -87255.98004531623, -30933.048538333005, 0.0, 0.0, 0.0, 193.0, 0.0, 1.0, 1.0, 0.0, 0.0, 1.0, 1.0, 256.0, 1.0, 1.750527681173E9, 0.0, 2025-06-21 19:41:21.173
108.0, -43054.62307389058, -37913.0512968363, -29133.397833513958, -71421.84781096553, -27508.627177313232, -27707.870627387838, -52044.382935092806, -98975.60316033402, -187500.02235174447, -187500.02235174447, -46833.72191592716, -45493.91364978715, -77456.59529645387, -47941.56377811, -87245.9441120558, -30915.524770680044, 0.0, 0.0, 0.0, 193.0, 0.0, 1.0, 1.0, 0.0, 0.0, 1.0, 1.0, 256.0, 1.0, 1.750527681181071E9, 0.0, 2025-06-21 19:41:21.181
110.0, -43047.62697787607, -37905.4964072104, -29129.441574745368, -71411.76717421618, -27513.455154115578, -27709.52465647753, -52040.35962109085, -98967.98121547476, -187500.02235174447, -187500.02235174447, -46850.79864869102, -45510.16336800616, -77464.97720062462, -47962.59676964245, -87239.35034744148, -30934.054366833494, 0.0, 0.0, 0.0, 193.0, 0.0, 1.0, 1.0, 0.0, 0.0, 1.0, 1.0, 256.0, 1.0, 1.750527681188092E9, 0.0, 2025-06-21 19:41:21.188
112.0, -43048.99043428784, -37907.105732811186, -29139.72337719481, -71416.72926148525, -27528.050843244895, -27727.808383441974, -52041.67837401371, -98969.74700328673, -187500.02235174447, -187500.02235174447, -46849.50224751261, -45505.268335970446, -77472.24151757259, -47939.641528086846, -87256.22591450524, -30912.64139564531, 0.0, 0.0, 0.0, 193.0, 0.0, 1.0, 1.0, 0.0, 0.0, 1.0, 1.0, 256.0, 1.0, 1.750527681197096E9, 0.0, 2025-06-21 19:41:21.197
114.0, -43062.17796351647, -37922.52843648534, -29141.3774062845, -71434.38713960495, -27523.044052486905, -27722.063985116958, -52065.34887139188, -98989.05891049611, -187500.02235174447, -187500.02235174447, -46863.561494775, -45532.47040897256, -77482.65743048876, -47971.35865346893, -87257.7458331282, -30941.072814592462, 0.0, 0.0, 0.0, 193.0, 0.0, 1.0, 1.0, 0.0, 0.0, 1.0, 1.0, 256.0, 1.0, 1.750527681205149E9, 0.0, 2025-06-21 19:41:21.205
116.0, -43044.67654760797, -37906.03284907733, -29124.85946713203, -71403.0052903897, -27534.756366581485, -27704.897845375282, -52039.21968212363, -98969.16585793089, -187500.02235174447, -187500.02235174447, -46852.87736092536, -45514.119626774744, -77470.96746813864, -47945.944720023246, -87247.91106556787, -30918.78812537052, 0.0, 0.0, 0.0, 193.0, 0.0, 1.0, 1.0, 0.0, 0.0, 1.0, 1.0, 256.0, 1.0, 1.750527681212174E9, 0.0, 2025-06-21 19:41:21.212
118.0, -43046.263521464294, -37906.323421755245, -29125.39590899896, -71407.16271485838, -27527.69321533361, -27703.646147685784, -52059.78328702251, -98980.09586096954, -187500.02235174447, -187500.02235174447, -46846.37300328887, -45505.20128073708, -77466.1841948252, -47930.05262971552, -87246.25703647817, -30901.01848852855, 0.0, 0.0, 0.0, 193.0, 0.0, 1.0, 1.0, 0.0, 0.0, 1.0, 1.0, 256.0, 1.0, 1.750527681220184E9, 0.0, 2025-06-21 19:41:21.220
120.0, -43047.22464647587, -37907.508064211375, -29126.714661921822, -71410.00138640421, -27533.705834592085, -27743.812232471973, -52064.67831905822, -98987.80721280661, -187500.02235174447, -187500.02235174447, -46852.58678824744, -45510.09631277279, -77461.89265988978, -47945.20711245622, -87232.77893457162, -30914.63070090183, 0.0, 0.0, 0.0, 193.0, 0.0, 1.0, 1.0, 0.0, 0.0, 1.0, 1.0, 256.0, 1.0, 1.750527681229168E9, 0.0, 2025-06-21 19:41:21.229
122.0, -43029.90204452301, -37890.811311103265, -29109.5708739246, -71391.56119722858, -27514.192761682603, -27740.235953359123, -52038.75029549006, -98967.80240151912, -187500.02235174447, -187500.02235174447, -46836.35942177289, -45492.4384346531, -77458.49519473258, -47920.46373134419, -87241.22789397572, -30894.983517525616, 0.0, 0.0, 0.0, 193.0, 0.0, 1.0, 1.0, 0.0, 0.0, 1.0, 1.0, 256.0, 1.0, 1.750527681237251E9, 0.0, 2025-06-21 19:41:21.237
124.0, -43034.95353876991, -37896.198081516995, -29112.029565814682, -71401.46302002227, -27501.362860365258, -27674.47712117161, -52044.561749048444, -98966.77422127417, -187500.02235174447, -187500.02235174447, -46834.01248860508, -45492.6396003532, -77448.79453763897, -47931.192568682745, -87219.59140534299, -30902.40429668478, 0.0, 0.0, 0.0, 193.0, 0.0, 1.0, 1.0, 0.0, 0.0, 1.0, 1.0, 256.0, 1.0, 1.750527681244216E9, 0.0, 2025-06-21 19:41:21.244
126.0, -43047.78344008725, -37904.73644789892, -29131.00619685724, -71411.40954630489, -27533.169392725158, -27737.620799257853, -52045.99226069359, -98974.3067591556, -187500.02235174447, -187500.02235174447, -46852.11740161388, -45513.225556996535, -77470.05104661598, -47943.0166414996, -87242.36783294295, -30918.005814314583, 0.0, 0.0, 0.0, 193.0, 0.0, 1.0, 1.0, 0.0, 0.0, 1.0, 1.0, 256.0, 1.0, 1.750527681252266E9, 0.0, 2025-06-21 19:41:21.252
128.0, -43022.32480315266, -37888.710247124465, -29108.47563844629, -71396.14330484191, -27500.15586616467, -27700.5392552065, -52025.406304050244, -98952.29029086714, -187500.02235174447, -187500.02235174447, -46831.19616880371, -45487.074015983824, -77454.69539817517, -47925.13524593535, -87234.87999855042, -30899.16329373876, 0.0, 0.0, 0.0, 193.0, 0.0, 1.0, 1.0, 0.0, 0.0, 1.0, 1.0, 256.0, 1.0, 1.750527681261367E9, 0.0, 2025-06-21 19:41:21.261
130.0, -43077.868888124096, -37932.340852301226, -29159.795243715675, -71440.75738677471, -27544.568782397364, -27720.387604282812, -52067.76285979305, -98988.92480002937, -187500.02235174447, -187500.02235174447, -46848.38466028985, -45504.50837665897, -77460.90918313374, -47951.75617358163, -87233.04715550509, -30922.476163205647, 0.0, 0.0, 0.0, 193.0, 0.0, 1.0, 1.0, 0.0, 0.0, 1.0, 1.0, 256.0, 1.0, 1.750527681268381E9, 0.0, 2025-06-21 19:41:21.268
132.0, -43071.7668618878, -37932.2514453234, -29151.972133156316, -71434.47654658277, -27547.02747428745, -27723.226275828634, -52055.000013709076, -98980.34173015854, -187500.02235174447, -187500.02235174447, -46892.01526546661, -45545.76969692346, -77514.86629424886, -47972.29742673605, -87288.94886838782, -30945.87843965035, 0.0, 0.0, 0.0, 193.0, 0.0, 1.0, 1.0, 0.0, 0.0, 1.0, 1.0, 256.0, 1.0, 1.750527681276396E9, 0.0, 2025-06-21 19:41:21.276
134.0, -43062.37912921657, -37914.52651197035, -29137.5776097271, -71422.2054388768, -27533.39291016971, -27683.4848741871, -52047.668641527736, -98972.92095099938, -187500.02235174447, -187500.02235174447, -46866.42251806528, -45525.22844376903, -77482.12098862184, -47962.32854870898, -87250.52621966913, -30932.668558677266, 0.0, 0.0, 0.0, 193.0, 0.0, 1.0, 1.0, 0.0, 0.0, 1.0, 1.0, 256.0, 1.0, 1.750527681284442E9, 0.0, 2025-06-21 19:41:21.284
136.0, -43054.444259934935, -37901.227224019436, -29136.795298671164, -71412.48243003874, -27530.17425896815, -27741.577058026443, -52043.98060369261, -98970.46225910929, -187500.02235174447, -187500.02235174447, -46862.17568661877, -45516.175987264636, -77478.5894129979, -47953.745478838144, -87255.28714123812, -30925.292483007015, 0.0, 0.0, 0.0, 193.0, 0.0, 1.0, 1.0, 0.0, 0.0, 1.0, 1.0, 256.0, 1.0, 1.750527681293455E9, 0.0, 2025-06-21 19:41:21.293
138.0, -43046.08470750865, -37906.390476988614, -29123.71952816481, -71409.84492419302, -27524.340453665314, -27720.544066493996, -52042.125408902815, -98966.43894510734, -187500.02235174447, -187500.02235174447, -46842.99788987612, -45495.70178934358, -77461.69149418968, -47935.84173152944, -87246.1452777559, -30910.003889799584, 0.0, 0.0, 0.0, 193.0, 0.0, 1.0, 1.0, 0.0, 0.0, 1.0, 1.0, 256.0, 1.0, 1.750527681300439E9, 0.0, 2025-06-21 19:41:21.300
140.0, -43061.28389373826, -37913.252462536395, -29142.092662107072, -71423.39008133294, -27528.67669208964, -27719.940569393704, -52046.37224034932, -98979.24649468024, -187500.02235174447, -187500.02235174447, -46865.95313143172, -45519.28287974392, -77474.32022980694, -47970.35282496844, -87252.64963539239, -30943.442099504722, 0.0, 0.0, 0.0, 193.0, 0.0, 1.0, 1.0, 0.0, 0.0, 1.0, 1.0, 256.0, 1.0, 1.750527681308502E9, 0.0, 2025-06-21 19:41:21.308
142.0, -43051.67264362248, -37904.848206621195, -29136.884705648987, -71415.16463937338, -27534.912828792672, -27719.471182760142, -52038.05739141195, -98972.87624751047, -187500.02235174447, -187500.02235174447, -46859.31466332849, -45508.50933891646, -77474.72256120713, -47945.989423512154, -87262.37264423045, -30923.280826006037, 0.0, 0.0, 0.0, 193.0, 0.0, 1.0, 1.0, 0.0, 0.0, 1.0, 1.0, 256.0, 1.0, 1.75052768131751E9, 0.0, 2025-06-21 19:41:21.317
144.0, -43065.79894611823, -37921.45555275149, -29151.256877333748, -71434.02951169366, -27532.990578769517, -27699.421667983734, -52062.66666205724, -98988.83539305156, -187500.02235174447, -187500.02235174447, -46861.281616840555, -45514.901937830684, -77470.90041290528, -47964.384909198874, -87252.33671097002, -30938.010625602084, 0.0, 0.0, 0.0, 193.0, 0.0, 1.0, 1.0, 0.0, 0.0, 1.0, 1.0, 256.0, 1.0, 1.750527681324588E9, 0.0, 2025-06-21 19:41:21.324
146.0, -43024.96230899839, -37877.310857452256, -29109.414411713413, -71385.61563320347, -27510.616482569752, -27708.183551810213, -52025.11573137233, -98957.74411651422, -187500.02235174447, -187500.02235174447, -46854.82196269297, -45505.737722604004, -77465.55834598045, -47958.6181591294, -87259.71278664027, -30933.02618658855, 0.0, 0.0, 0.0, 193.0, 0.0, 1.0, 1.0, 0.0, 0.0, 1.0, 1.0, 256.0, 1.0, 1.750527681332609E9, 0.0, 2025-06-21 19:41:21.332
148.0, -43069.35287348663, -37926.64115746512, -29143.322008052113, -71429.38034884696, -27536.67861660464, -27716.00666236957, -52063.650138813275, -98993.05987275361, -187500.02235174447, -187500.02235174447, -46837.83463690694, -45490.024446251926, -77451.58850569588, -47938.63569958636, -87248.62632139043, -30913.78133461253, 0.0, 0.0, 0.0, 193.0, 0.0, 1.0, 1.0, 0.0, 0.0, 1.0, 1.0, 256.0, 1.0, 1.750527681340655E9, 0.0, 2025-06-21 19:41:21.340
150.0, -43056.16534425799, -37909.765590401366, -29131.38617651298, -71415.63402600694, -27528.810802556374, -27709.479952988622, -52051.3343276184, -98980.8111167921, -187500.02235174447, -187500.02235174447, -46869.70822450021, -45520.17694952214, -77475.19194784069, -47973.99615931466, -87256.96352207227, -30947.040730362027, 0.0, 0.0, 0.0, 193.0, 0.0, 1.0, 1.0, 0.0, 0.0, 1.0, 1.0, 256.0, 1.0, 1.750527681349684E9, 0.0, 2025-06-21 19:41:21.349
152.0, -43037.99337601583, -37895.63928790561, -29118.645682173454, -71400.88187466645, -27518.707814062574, -27708.29531053249, -52036.62687976681, -98967.53418058564, -187500.02235174447, -187500.02235174447, -46840.82977066395, -45497.02054226644, -77462.00441861206, -47935.662917573805, -87253.07431853704, -30913.915445079263, 0.0, 0.0, 0.0, 193.0, 0.0, 1.0, 1.0, 0.0, 0.0, 1.0, 1.0, 256.0, 1.0, 1.750527681356708E9, 0.0, 2025-06-21 19:41:21.356
154.0, -43046.263521464294, -37899.327325740735, -29125.105336321038, -71412.99652016122, -27511.801125025886, -27685.80945561045, -52044.11471415934, -98973.0103579772, -187500.02235174447, -187500.02235174447, -46837.16408457328, -45492.86311779775, -77448.50396496106, -47944.469504889195, -87233.51654213865, -30918.564607925968, 0.0, 0.0, 0.0, 193.0, 0.0, 1.0, 1.0, 0.0, 0.0, 1.0, 1.0, 256.0, 1.0, 1.750527681364739E9, 0.0, 2025-06-21 19:41:21.364
156.0, -43065.03898680675, -37913.677145681046, -29142.606752229545, -71417.93625568584, -27531.78358456893, -27752.663523276275, -52060.87852250082, -98991.80817506411, -187500.02235174447, -187500.02235174447, -46871.071680911984, -45512.733818618515, -77477.7400467086, -47965.994234799655, -87264.40665297589, -30943.08447159344, 0.0, 0.0, 0.0, 193.0, 0.0, 1.0, 1.0, 0.0, 0.0, 1.0, 1.0, 256.0, 1.0, 1.750527681372796E9, 0.0, 2025-06-21 19:41:21.372
158.0, -43052.67847212296, -37906.658697922074, -29127.318159022114, -71416.25987485169, -27537.93031429414, -27678.254565984556, -52058.553941077465, -98988.63422735146, -187500.02235174447, -187500.02235174447, -46851.223331835674, -45494.67360909863, -77463.8819651463, -47949.073964246985, -87256.31532148307, -30926.767698141066, 0.0, 0.0, 0.0, 193.0, 0.0, 1.0, 1.0, 0.0, 0.0, 1.0, 1.0, 256.0, 1.0, 1.7505276813808E9, 0.0, 2025-06-21 19:41:21.380
160.0, -43056.76884135829, -37911.48667472442, -29133.44253700287, -71419.07619465307, -27528.609636856276, -27726.69079621921, -52061.12439168983, -98992.00934076421, -187500.02235174447, -187500.02235174447, -46860.18638136225, -45511.057437784366, -77466.11713959184, -47971.023377302095, -87250.81679234706, -30946.034901861538, 0.0, 0.0, 0.0, 193.0, 0.0, 1.0, 1.0, 0.0, 0.0, 1.0, 1.0, 256.0, 1.0, 1.750527681388828E9, 0.0, 2025-06-21 19:41:21.388
162.0, -43053.93016981246, -37907.64217467811, -29136.460022504336, -71413.46590679478, -27536.700968349098, -27735.162107367767, -52060.364432378345, -98988.79068956265, -187500.02235174447, -187500.02235174447, -46855.60427374891, -45499.92626904562, -77469.76047393805, -47949.409240413814, -87265.65835066538, -30927.25943651908, 0.0, 0.0, 0.0, 193.0, 0.0, 1.0, 1.0, 0.0, 0.0, 1.0, 1.0, 256.0, 1.0, 1.75052768139686E9, 0.0, 2025-06-21 19:41:21.396
164.0, -43068.54821068623, -37921.65671845159, -29142.00325512925, -71429.29094186914, -27537.59503812731, -27713.10093559038, -52076.90472327527, -99002.29114321366, -187500.02235174447, -187500.02235174447, -46858.46529703919, -45505.78242609292, -77464.75368318007, -47965.34603421045, -87254.32601622654, -30937.541238968523, 0.0, 0.0, 0.0, 193.0, 0.0, 1.0, 1.0, 0.0, 0.0, 1.0, 1.0, 256.0, 1.0, 1.750527681405887E9, 0.0, 2025-06-21 19:41:21.405
166.0, -43050.44329767743, -37902.92595659804, -29127.29580727766, -71403.13940085642, -27532.96822702506, -27720.96874963865, -52048.45095258367, -98979.73823305825, -187500.02235174447, -187500.02235174447, -46859.13584937285, -45504.26250746995, -77467.54765123698, -47957.16529573981, -87257.61172266147, -30934.36729125587, 0.0, 0.0, 0.0, 193.0, 0.0, 1.0, 1.0, 0.0, 0.0, 1.0, 1.0, 256.0, 1.0, 1.750527681411943E9, 0.0, 2025-06-21 19:41:21.411
168.0, -43049.70569011041, -37902.5459769423, -29121.23848453027, -71407.40858404739, -27524.228694943034, -27701.925063362727, -52056.028193954015, -98982.62160809299, -187500.02235174447, -187500.02235174447, -46846.37300328887, -45493.0866352423, -77460.50685173355, -47945.00594675612, -87257.9917023172, -30921.291520749513, 0.0, 0.0, 0.0, 193.0, 0.0, 1.0, 1.0, 0.0, 0.0, 1.0, 1.0, 256.0, 1.0, 1.750527681420879E9, 0.0, 2025-06-21 19:41:21.420
170.0, -43061.172135015986, -37909.72088691245, -29129.5756852121, -71415.99165391823, -27537.59503812731, -27722.242799072603, -52062.6890138017, -98991.45054715282, -187500.02235174447, -187500.02235174447, -46851.290387069035, -45504.39661793669, -77457.24349704308, -47962.283845220074, -87245.96646380026, -30937.89886687981, 0.0, 0.0, 0.0, 193.0, 0.0, 1.0, 1.0, 0.0, 0.0, 1.0, 1.0, 256.0, 1.0, 1.750527681428971E9, 0.0, 2025-06-21 19:41:21.428
172.0, -43051.27031222228, -37904.69174441001, -29121.95374035284, -71398.22201707626, -27527.089718233314, -27722.71218570616, -52043.06418216994, -98974.82084927808, -187500.02235174447, -187500.02235174447, -46839.10868634089, -45486.82814679482, -77452.57198245192, -47931.617251827396, -87251.93437956982, -30909.199226999193, 0.0, 0.0, 0.0, 193.0, 0.0, 1.0, 1.0, 0.0, 0.0, 1.0, 1.0, 256.0, 1.0, 1.750527681437999E9, 0.0, 2025-06-21 19:41:21.437
174.0, -43077.600667190636, -37924.36127953068, -29140.550391739656, -71422.0042731767, -27536.74567183801, -27704.450810486178, -52069.70746156067, -98995.47386115478, -187500.02235174447, -187500.02235174447, -46860.36519531789, -45505.44714992609, -77463.65844770175, -47960.02631903009, -87253.56605691506, -30932.10976506588, 0.0, 0.0, 0.0, 193.0, 0.0, 1.0, 1.0, 0.0, 0.0, 1.0, 1.0, 256.0, 1.0, 1.750527681445E9, 0.0, 2025-06-21 19:41:21.445
176.0, -43053.818411090186, -37900.534319941326, -29123.13838280897, -71391.8964733954, -27521.837058286317, -27716.20782806967, -52036.336307088895, -98969.25526490872, -187500.02235174447, -187500.02235174447, -46864.790840720045, -45504.083693514316, -77468.1287965928, -47948.4704671467, -87253.3425394705, -30925.426593473745, 0.0, 0.0, 0.0, 193.0, 0.0, 1.0, 1.0, 0.0, 0.0, 1.0, 1.0, 256.0, 1.0, 1.750527681453006E9, 0.0, 2025-06-21 19:41:21.453
178.0, -43062.46853619439, -37912.69366892501, -29135.6777114484, -71417.53392428564, -27536.700968349098, -27719.4935345046, -52061.86199925685, -98990.73529133026, -187500.02235174447, -187500.02235174447, -46839.55572123, -45482.93894325959, -77450.00153183956, -47924.330583134964, -87238.12100149645, -30903.097200762895, 0.0, 0.0, 0.0, 193.0, 0.0, 1.0, 1.0, 0.0, 0.0, 1.0, 1.0, 256.0, 1.0, 1.750527681461061E9, 0.0, 2025-06-21 19:41:21.461
180.0, -43074.06909156669, -37919.62270970616, -29148.507612765745, -71429.62621803596, -27550.73786386703, -27728.031900886526, -52069.70746156067, -99000.41359667941, -187500.02235174447, -187500.02235174447, -46876.65961702581, -45524.02144956845, -77479.3940757983, -47976.901886093845, -87260.83037386303, -30953.008646131595, 0.0, 0.0, 0.0, 193.0, 0.0, 1.0, 1.0, 0.0, 0.0, 1.0, 1.0, 256.0, 1.0, 1.750527681468062E9, 0.0, 2025-06-21 19:41:21.468
182.0, -43067.14005078555, -37914.21358754797, -29154.430825046402, -71429.78268024715, -27545.865183575774, -27712.67625244573, -52056.54228407649, -98989.70711108531, -187500.02235174447, -187500.02235174447, -46870.22231462268, -45519.10406578828, -77483.48444503361, -47955.48891490566, -87275.67193218136, -30934.59080870042, 0.0, 0.0, 0.0, 193.0, 0.0, 1.0, 1.0, 0.0, 0.0, 1.0, 1.0, 256.0, 1.0, 1.750527681477131E9, 0.0, 2025-06-21 19:41:21.477
184.0, -43069.889315353554, -37923.4001545191, -29135.23067655929, -71424.3065028556, -27531.58241886883, -27719.806458926974, -52061.34790913438, -98989.3718349185, -187500.02235174447, -187500.02235174447, -46868.836506466454, -45521.00396406698, -77475.95190715216, -47968.56468541201, -87259.57867617354, -30945.096128594418, 0.0, 0.0, 0.0, 193.0, 0.0, 1.0, 1.0, 0.0, 0.0, 1.0, 1.0, 256.0, 1.0, 1.750527681485121E9, 0.0, 2025-06-21 19:41:21.485
186.0, -43058.7134431259, -37909.43031423454, -29134.85069690355, -71413.86823819498, -27537.68444510513, -27735.855011445885, -52055.625862553825, -98984.74502381624, -187500.02235174447, -187500.02235174447, -46853.70437547021, -45509.6939813726, -77467.61470647034, -47957.00883352862, -87254.92951332683, -30936.781279657043, 0.0, 0.0, 0.0, 193.0, 0.0, 1.0, 1.0, 0.0, 0.0, 1.0, 1.0, 256.0, 1.0, 1.750527681492181E9, 0.0, 2025-06-21 19:41:21.492
188.0, -43070.38105373157, -37923.71307894147, -29147.792356943177, -71434.99063670525, -27544.79229984192, -27723.494496762098, -52086.98536002462, -99007.43204443838, -187500.02235174447, -187500.02235174447, -46857.63828249434, -45506.43062668212, -77470.2298605716, -47955.95830153922, -87264.87603960944, -30936.44600349021, 0.0, 0.0, 0.0, 193.0, 0.0, 1.0, 1.0, 0.0, 0.0, 1.0, 1.0, 256.0, 1.0, 1.750527681500149E9, 0.0, 2025-06-21 19:41:21.500
190.0, -43088.95535337393, -37938.197009348514, -29169.518252553735, -71449.45221536783, -27562.02549481696, -27727.942493908704, -52116.444959216715, -99032.98008835079, -187500.02235174447, -187500.02235174447, -46893.4681288562, -45540.47233348755, -77494.86148296137, -48001.73467418369, -87283.51739448517, -30978.579041788467, 0.0, 0.0, 0.0, 193.0, 0.0, 1.0, 1.0, 0.0, 0.0, 1.0, 1.0, 256.0, 1.0, 1.750527681509174E9, 0.0, 2025-06-21 19:41:21.509
192.0, -43083.9709143604, -37929.59158773322, -29167.640706019487, -71442.09849144203, -27563.008971572996, -27728.814211942463, -52107.45955794568, -99026.94511734786, -187500.02235174447, -187500.02235174447, -46887.07552994198, -45532.381001994734, -77500.20354988618, -47980.053482062045, -87298.71658071478, -30957.121367111373, 0.0, 0.0, 0.0, 193.0, 0.0, 1.0, 1.0, 0.0, 0.0, 1.0, 1.0, 256.0, 1.0, 1.750527681517142E9, 0.0, 2025-06-21 19:41:21.517
194.0, -43082.38394050407, -37926.529398742845, -29158.25297334826, -71444.57953507657, -27546.73690160953, -27717.86185715936, -52100.68697937572, -99021.60305042304, -187500.02235174447, -187500.02235174447, -46887.433157853266, -45535.37613575174, -77494.07917190543, -47988.27892402159, -87280.36579851697, -30962.84341369193, 0.0, 0.0, 0.0, 193.0, 0.0, 1.0, 1.0, 0.0, 0.0, 1.0, 1.0, 256.0, 1.0, 1.750527681524185E9, 0.0, 2025-06-21 19:41:21.524
196.0, -43066.02246356278, -37912.67131718055, -29140.505688250745, -71417.53392428564, -27543.74176785252, -27743.320494093954, -52068.411060382256, -98997.75373908922, -187500.02235174447, -187500.02235174447, -46873.50802105761, -45517.695905887595, -77480.75753221006, -47968.67644413429, -87268.98876058921, -30946.79486117302, 0.0, 0.0, 0.0, 193.0, 0.0, 1.0, 1.0, 0.0, 0.0, 1.0, 1.0, 256.0, 1.0, 1.75052768153219E9, 0.0, 2025-06-21 19:41:21.532
198.0, -43053.885466323554, -37901.27192750835, -29127.899304377952, -71409.95668291529, -27527.40264265569, -27698.549949949975, -52053.524798575025, -98983.113346471, -187500.02235174447, -187500.02235174447, -46859.80640170651, -45502.92140280264, -77470.07339836043, -47954.41603117181, -87265.01015007618, -30932.221523788157, 0.0, 0.0, 0.0, 193.0, 0.0, 1.0, 1.0, 0.0, 0.0, 1.0, 1.0, 256.0, 1.0, 1.75052768154126E9, 0.0, 2025-06-21 19:41:21.541
200.0, -43076.37132124559, -37919.98033761744, -29143.120842352015, -71422.6524737659, -27545.909887064685, -27722.645130472796, -52065.81825802544, -98994.13275648747, -187500.02235174447, -187500.02235174447, -46858.1076691279, -45498.20518472257, -77455.81298539793, -47961.166257997305, -87243.17249574335, -30937.205962801694, 0.0, 0.0, 0.0, 193.0, 0.0, 1.0, 1.0, 0.0, 0.0, 1.0, 1.0, 256.0, 1.0, 1.750527681548315E9, 0.0, 2025-06-21 19:41:21.548
202.0, -43079.23234453587, -37928.2504830659, -29147.367673798522, -71422.67482551037, -27549.46381443308, -27730.647054987796, -52058.755106777564, -98989.93062852987, -187500.02235174447, -187500.02235174447, -46872.23397162366, -45511.30330697338, -77481.02575314352, -47956.51709515061, -87274.8002141476, -30937.49653547961, 0.0, 0.0, 0.0, 193.0, 0.0, 1.0, 1.0, 0.0, 0.0, 1.0, 1.0, 256.0, 1.0, 1.750527681556335E9, 0.0, 2025-06-21 19:41:21.556
204.0, -43092.46457725341, -37939.962797160486, -29156.665999491932, -71440.98090421926, -27555.230564502548, -27694.124304547826, -52078.759918065065, -99004.63807638147, -187500.02235174447, -187500.02235174447, -46888.86366949841, -45529.72114440455, -77490.1899683702, -47983.11567105242, -87274.10731006949, -30959.110672367893, 0.0, 0.0, 0.0, 193.0, 0.0, 1.0, 1.0, 0.0, 0.0, 1.0, 1.0, 256.0, 1.0, 1.750527681564371E9, 0.0, 2025-06-21 19:41:21.564
206.0, -43079.23234453587, -37921.94729112951, -29144.618409230523, -71419.858505709, -27553.73299762404, -27742.67229350475, -52062.35373763487, -98992.32226518658, -187500.02235174447, -187500.02235174447, -46883.83452699596, -45524.73670539102, -77485.60786075686, -47969.414051701315, -87271.96154260177, -30947.93480014024, 0.0, 0.0, 0.0, 193.0, 0.0, 1.0, 1.0, 0.0, 0.0, 1.0, 1.0, 256.0, 1.0, 1.750527681573404E9, 0.0, 2025-06-21 19:41:21.573
208.0, -43073.733815399864, -37919.44389575051, -29137.48820274928, -71419.23265686425, -27536.097471248802, -27720.05232811598, -52056.83285675441, -98985.4155761499, -187500.02235174447, -187500.02235174447, -46869.59646577793, -45511.95150756258, -77478.45530253116, -47951.08562124796, -87267.15591754389, -30930.299273765002, 0.0, 0.0, 0.0, 193.0, 0.0, 1.0, 1.0, 0.0, 0.0, 1.0, 1.0, 256.0, 1.0, 1.750527681580366E9, 0.0, 2025-06-21 19:41:21.580
210.0, -43082.09336782615, -37924.294224297315, -29148.14998485446, -71422.25014236572, -27540.321950950856, -27724.38856654031, -52059.64917655578, -98992.59048612005, -187500.02235174447, -187500.02235174447, -46874.312683858, -45514.94664131959, -77472.6885524617, -47962.52971440908, -87251.24147549171, -30938.144736068814, 0.0, 0.0, 0.0, 193.0, 0.0, 1.0, 1.0, 0.0, 0.0, 1.0, 1.0, 256.0, 1.0, 1.750527681588447E9, 0.0, 2025-06-21 19:41:21.588
212.0, -43071.81156537671, -37925.38945977562, -29138.404624271945, -71418.18212487485, -27548.748558610507, -27732.904581177783, -52051.222568896126, -98987.58369536206, -187500.02235174447, -187500.02235174447, -46878.626570537876, -45514.32079247484, -77484.17734911172, -47950.83975205896, -87271.8050803906, -30931.059233076485, 0.0, 0.0, 0.0, 193.0, 0.0, 1.0, 1.0, 0.0, 0.0, 1.0, 1.0, 256.0, 1.0, 1.750527681597472E9, 0.0, 2025-06-21 19:41:21.597
214.0, -43086.608420206125, -37936.00653839189, -29149.781662199697, -71437.98577046226, -27553.39772145721, -27705.25547328657, -52072.97081625114, -99003.7663583477, -187500.02235174447, -187500.02235174447, -46875.676140269774, -45523.3956007237, -77479.8858141763, -47966.15069701084, -87256.62824590543, -30944.06794834947, 0.0, 0.0, 0.0, 193.0, 0.0, 1.0, 1.0, 0.0, 0.0, 1.0, 1.0, 256.0, 1.0, 1.750527681604516E9, 0.0, 2025-06-21 19:41:21.604
216.0, -43077.62301893509, -37921.47790449594, -29144.43959527488, -71416.95277892982, -27550.246125489015, -27744.68395050573, -52053.189522408196, -98992.61283786451, -187500.02235174447, -187500.02235174447, -46891.5682305775, -45528.737667648515, -77492.93923293821, -47973.325606980994, -87272.94501935781, -30952.472204264668, 0.0, 0.0, 0.0, 193.0, 0.0, 1.0, 1.0, 0.0, 0.0, 1.0, 1.0, 256.0, 1.0, 1.750527681612518E9, 0.0, 2025-06-21 19:41:21.612
218.0, -43078.76295790231, -37935.8053726918, -29140.505688250745, -71421.3560725875, -27540.053730017393, -27727.651921230787, -52060.07385970043, -98996.09970999953, -187500.02235174447, -187500.02235174447, -46868.277712855066, -45508.263469727455, -77476.10836936336, -47948.00108051313, -87257.07528079454, -30927.862933619374, 0.0, 0.0, 0.0, 193.0, 0.0, 1.0, 1.0, 0.0, 0.0, 1.0, 1.0, 256.0, 1.0, 1.750527681620561E9, 0.0, 2025-06-21 19:41:21.620
220.0, -43072.79504213274, -37925.635328964636, -29133.554295725145, -71415.03052890665, -27533.661131103174, -27707.691813432197, -52048.65211828377, -98985.54968661664, -187500.02235174447, -187500.02235174447, -46875.966712947695, -45521.07101930035, -77476.0860176189, -47964.451964432235, -87245.72059461125, -30941.6539599483, 0.0, 0.0, 0.0, 193.0, 0.0, 1.0, 1.0, 0.0, 0.0, 1.0, 1.0, 256.0, 1.0, 1.750527681629588E9, 0.0, 2025-06-21 19:41:21.629
222.0, -43080.75226315883, -37933.83841917973, -29143.00908362974, -71419.43382256434, -27551.207250500593, -27732.97163641115, -52053.61420555285, -98991.2717331972, -187500.02235174447, -187500.02235174447, -46872.63630302386, -45514.276088985935, -77481.47278803262, -47942.18962695475, -87258.08110929503, -30924.152544039793, 0.0, 0.0, 0.0, 193.0, 0.0, 1.0, 1.0, 0.0, 0.0, 1.0, 1.0, 256.0, 1.0, 1.750527681635592E9, 0.0, 2025-06-21 19:41:21.635
224.0, -43109.36249606163, -37958.73826250294, -29166.54547054118, -71448.89342175644, -27567.389913486233, -27719.515886249053, -52080.45865064367, -99013.69053288586, -187500.02235174447, -187500.02235174447, -46890.316532888006, -45528.02241182595, -77488.11125613586, -47970.55399066854, -87262.66321690836, -30947.420710017766, 0.0, 0.0, 0.0, 193.0, 0.0, 1.0, 1.0, 0.0, 0.0, 1.0, 1.0, 256.0, 1.0, 1.750527681644667E9, 0.0, 2025-06-21 19:41:21.644
226.0, -43090.452920252435, -37939.046375637816, -29150.072234877618, -71423.88181971095, -27556.03522730294, -27734.58096201193, -52056.85520849886, -98995.16093673241, -187500.02235174447, -187500.02235174447, -46900.75479754863, -45539.35474626479, -77501.27643362003, -47972.52094418061, -87272.00624609069, -30953.36627404288, 0.0, 0.0, 0.0, 193.0, 0.0, 1.0, 1.0, 0.0, 0.0, 1.0, 1.0, 256.0, 1.0, 1.750527681652699E9, 0.0, 2025-06-21 19:41:21.652
228.0, -43085.93786787246, -37942.80146870631, -29146.786528442688, -71430.54263955864, -27543.518250407968, -27736.3467498239, -52060.76676377854, -98998.22312572278, -187500.02235174447, -187500.02235174447, -46881.12996591687, -45522.5462344344, -77487.41835205775, -47957.43351667327, -87267.37943498844, -30939.73170992514, 0.0, 0.0, 0.0, 193.0, 0.0, 1.0, 1.0, 0.0, 0.0, 1.0, 1.0, 256.0, 1.0, 1.750527681660727E9, 0.0, 2025-06-21 19:41:21.660
230.0, -43086.94369637295, -37940.588646005235, -29151.86037443404, -71435.12474717197, -27550.134366766735, -27735.810307956974, -52063.13604869081, -99000.39124493496, -187500.02235174447, -187500.02235174447, -46887.05317819753, -45533.2974235174, -77486.94896542418, -47980.45581346224, -87259.37751047344, -30959.93768691274, 0.0, 0.0, 0.0, 193.0, 0.0, 1.0, 1.0, 0.0, 0.0, 1.0, 1.0, 256.0, 1.0, 1.750527681668798E9, 0.0, 2025-06-21 19:41:21.668
232.0, -43090.40821676353, -37942.28737858384, -29156.464833791833, -71435.57178206107, -27553.420073201665, -27744.751005739094, -52060.386784122806, -99001.30766645762, -187500.02235174447, -187500.02235174447, -46889.84714625444, -45532.82803688384, -77500.15884639727, -47969.36934821241, -87281.90806888438, -30953.098053109417, 0.0, 0.0, 0.0, 193.0, 0.0, 1.0, 1.0, 0.0, 0.0, 1.0, 1.0, 256.0, 1.0, 1.750527681676809E9, 0.0, 2025-06-21 19:41:21.676
234.0, -43103.99807739235, -37957.12893690216, -29165.67375250742, -71450.32393340158, -27550.44729118911, -27724.522677007044, -52071.92028426174, -99008.84020433905, -187500.02235174447, -187500.02235174447, -46896.15033819084, -45541.902845132696, -77498.41541032975, -47983.69681640826, -87271.82743213505, -30964.78801545954, 0.0, 0.0, 0.0, 193.0, 0.0, 1.0, 1.0, 0.0, 0.0, 1.0, 1.0, 256.0, 1.0, 1.750527681684845E9, 0.0, 2025-06-21 19:41:21.684
236.0, -43085.133205072074, -37935.15717210259, -29150.452214533358, -71417.57862777455, -27551.520174922967, -27722.041633372504, -52046.662813027244, -98985.28146568316, -187500.02235174447, -187500.02235174447, -46900.35246614843, -45543.51217073348, -77504.56214005496, -47975.359615726426, -87278.39884500491, -30955.31087581049, 0.0, 0.0, 0.0, 193.0, 0.0, 1.0, 1.0, 0.0, 0.0, 1.0, 1.0, 256.0, 1.0, 1.750527681691804E9, 0.0, 2025-06-21 19:41:21.691
238.0, -43102.0758273692, -37953.55265778931, -29161.561031527643, -71437.69519778433, -27568.12752105326, -27733.48572653362, -52074.11075521836, -99004.83924208157, -187500.02235174447, -187500.02235174447, -46875.60908503641, -45514.03021979693, -77480.60106999887, -47937.22753968567, -87254.01309180417, -30915.07773579094, 0.0, 0.0, 0.0, 193.0, 0.0, 1.0, 1.0, 0.0, 0.0, 1.0, 1.0, 256.0, 1.0, 1.750527681700896E9, 0.0, 2025-06-21 19:41:21.700
240.0, -43120.04662991126, -37962.538059060345, -29184.58332831661, -71455.75540730423, -27589.3616782858, -27764.711113537684, -52092.37213043834, -99023.16767253491, -187500.02235174447, -187500.02235174447, -46925.36406819392, -45561.23710408653, -77520.0518989625, -48004.729807940705, -87289.82058642157, -30979.137835399848, 0.0, 0.0, 0.0, 193.0, 0.0, 1.0, 1.0, 0.0, 0.0, 1.0, 1.0, 256.0, 1.0, 1.750527681708927E9, 0.0, 2025-06-21 19:41:21.708
242.0, -43104.06513262572, -37952.27860835536, -29168.28890660869, -71439.10335768502, -27568.194576286623, -27760.576040813452, -52070.579179594424, -99002.0676257691, -187500.02235174447, -187500.02235174447, -46908.66731508581, -45535.26437702947, -77509.36776511285, -47974.510249437124, -87291.78753993363, -30954.595619987922, 0.0, 0.0, 0.0, 193.0, 0.0, 1.0, 1.0, 0.0, 0.0, 1.0, 1.0, 256.0, 1.0, 1.750527681716951E9, 0.0, 2025-06-21 19:41:21.716
244.0, -43117.94556593247, -37960.39229159264, -29176.894328223985, -71459.68931432835, -27569.714494909585, -27724.38856654031, -52087.20887746917, -99015.7245416313, -187500.02235174447, -187500.02235174447, -46911.7742075651, -45547.51313299098, -77510.17242791325, -47995.990275858676, -87283.20447006279, -30973.572251030477, 0.0, 0.0, 0.0, 193.0, 0.0, 1.0, 1.0, 0.0, 0.0, 1.0, 1.0, 256.0, 1.0, 1.750527681724008E9, 0.0, 2025-06-21 19:41:21.724
246.0, -43108.401371050044, -37956.61484677969, -29165.606697274055, -71438.94689547383, -27567.07698906386, -27739.274828347545, -52067.584045837415, -99001.24061122426, -187500.02235174447, -187500.02235174447, -46910.14253021986, -45546.708470190584, -77508.78661975701, -47992.79397640157, -87289.32884804354, -30972.119387640883, 0.0, 0.0, 0.0, 193.0, 0.0, 1.0, 1.0, 0.0, 0.0, 1.0, 1.0, 256.0, 1.0, 1.750527681733008E9, 0.0, 2025-06-21 19:41:21.733
248.0, -43113.944603674965, -37967.65660854061, -29164.220889117827, -71442.41141586441, -27569.17805304266, -27740.235953359123, -52076.05535698597, -99004.1686897479, -187500.02235174447, -187500.02235174447, -46897.022056224596, -45532.85038862829, -77499.53299755252, -47971.313949980016, -87280.54461247261, -30951.242858319627, 0.0, 0.0, 0.0, 193.0, 0.0, 1.0, 1.0, 0.0, 0.0, 1.0, 1.0, 256.0, 1.0, 1.750527681741045E9, 0.0, 2025-06-21 19:41:21.741
250.0, -43119.93487118898, -37965.063806183796, -29167.663057763944, -71445.00421822122, -27571.524986210465, -27739.25247660309, -52081.21860995515, -99008.92961131688, -187500.02235174447, -187500.02235174447, -46918.59148962396, -45551.98348188204, -77510.30653837998, -47995.05150259155, -87274.37553100295, -30973.259326608102, 0.0, 0.0, 0.0, 193.0, 0.0, 1.0, 1.0, 0.0, 0.0, 1.0, 1.0, 256.0, 1.0, 1.750527681748085E9, 0.0, 2025-06-21 19:41:21.748
252.0, -43099.01363837882, -37945.59543676322, -29146.987694142783, -71421.62429352097, -27558.672733148665, -27731.094089876904, -52058.17396142173, -98989.30477968512, -187500.02235174447, -187500.02235174447, -46892.28348640007, -45524.826112368835, -77495.33086959492, -47956.628853872884, -87271.76037690167, -30939.284675036037, 0.0, 0.0, 0.0, 193.0, 0.0, 1.0, 1.0, 0.0, 0.0, 1.0, 1.0, 256.0, 1.0, 1.750527681756113E9, 0.0, 2025-06-21 19:41:21.756
254.0, -43122.30415610125, -37963.27566662737, -29175.173243900925, -71459.33168641708, -27574.654230434207, -27727.786031697517, -52092.12626124934, -99019.25611725524, -187500.02235174447, -187500.02235174447, -46897.55849809152, -45535.957281107585, -77494.14622713879, -47979.897019850854, -87270.91101061237, -30957.255477578103, 0.0, 0.0, 0.0, 193.0, 0.0, 1.0, 1.0, 0.0, 0.0, 1.0, 1.0, 256.0, 1.0, 1.750527681765089E9, 0.0, 2025-06-21 19:41:21.765
0.0, -43117.677344999, -37955.36314909019, -29184.493921338788, -71450.43569212387, -27584.913681139195, -27765.426369360255, -52090.00284552608, -99023.59235567956, -187500.02235174447, -187500.02235174447, -46928.113332761925, -45559.91835116367, -77523.06938446396, -48011.301220810565, -87311.16650237638, -30987.586794803956, 0.0, 0.0, 0.0, 193.0, 0.0, 1.0, 1.0, 0.0, 0.0, 1.0, 1.0, 256.0, 1.0, 1.750527681772177E9, 0.0, 2025-06-21 19:41:21.772
2.0, -43106.613231493626, -37946.89183794163, -29169.272383364725, -71446.92646824438, -27576.509425223998, -27734.2456858451, -52086.85124955788, -99017.2221085098, -187500.02235174447, -187500.02235174447, -46904.12991096138, -45535.10791481828, -77501.85757897588, -47987.07192982101, -87298.4036562924, -30962.821061947474, 0.0, 0.0, 0.0, 193.0, 0.0, 1.0, 1.0, 0.0, 0.0, 1.0, 1.0, 256.0, 1.0, 1.75052768178021E9, 0.0, 2025-06-21 19:41:21.780
4.0, -43120.04662991126, -37959.2076491365, -29180.582366059112, -71454.4143026369, -27581.78443691545, -27741.73352023763, -52093.53442115002, -99022.81004462362, -187500.02235174447, -187500.02235174447, -46910.25428894214, -45547.46842950206, -77500.58352954192, -48004.46158700724, -87286.55723173109, -30979.18253888876, 0.0, 0.0, 0.0, 193.0, 0.0, 1.0, 1.0, 0.0, 0.0, 1.0, 1.0, 256.0, 1.0, 1.750527681788181E9, 0.0, 2025-06-21 19:41:21.788
6.0, -43108.71429547242, -37948.8587914537, -29167.037208919195, -71439.4609855963, -27581.31505028189, -27736.52556377954, -52078.78226980952, -99012.43883519636, -187500.02235174447, -187500.02235174447, -46914.09878898845, -45541.07583058785, -77508.0937156789, -47988.301275766054, -87305.66797324037, -30968.11842538338, 0.0, 0.0, 0.0, 193.0, 0.0, 1.0, 1.0, 0.0, 0.0, 1.0, 1.0, 256.0, 1.0, 1.750527681797294E9, 0.0, 2025-06-21 19:41:21.797
8.0, -43118.03497291028, -37964.39325385013, -29175.173243900925, -71456.15773870442, -27576.77764615746, -27732.278732333034, -52089.82403157044, -99021.93832658987, -187500.02235174447, -187500.02235174447, -46906.05216098454, -45541.76873466596, -77497.90132020728, -47993.1292525684, -87282.10923458448, -30969.817157961985, 0.0, 0.0, 0.0, 193.0, 0.0, 1.0, 1.0, 0.0, 0.0, 1.0, 1.0, 256.0, 1.0, 1.750527681804297E9, 0.0, 2025-06-21 19:41:21.804
10.0, -43095.07973135469, -37931.82676217875, -29153.53675526819, -71426.67578776786, -27560.237355260535, -27747.67908426274, -52055.35764162036, -98995.69737859933, -187500.02235174447, -187500.02235174447, -46910.7236755757, -45541.67932768814, -77503.6904220212, -47986.58019144299, -87284.61262996348, -30965.70443698221, 0.0, 0.0, 0.0, 193.0, 0.0, 1.0, 1.0, 0.0, 0.0, 1.0, 1.0, 256.0, 1.0, 1.750527681812346E9, 0.0, 2025-06-21 19:41:21.812
12.0, -43110.34597281766, -37946.7577274749, -29161.516328038735, -71443.6631135539, -27568.239279775535, -27732.882229433326, -52081.33036867742, -99013.19879450784, -187500.02235174447, -187500.02235174447, -46885.42150085229, -45521.562757678366, -77485.92078517923, -47961.72505160869, -87273.7049786693, -30941.206925059192, 0.0, 0.0, 0.0, 193.0, 0.0, 1.0, 1.0, 0.0, 0.0, 1.0, 1.0, 256.0, 1.0, 1.750527681821354E9, 0.0, 2025-06-21 19:41:21.821
14.0, -43117.34206883217, -37955.58666653474, -29167.998333930773, -71448.26757291169, -27565.199442529614, -27737.95607542468, -52084.280798945525, -99017.98206782129, -187500.02235174447, -187500.02235174447, -46904.353428405935, -45539.55591196488, -77496.76138124007, -47995.16326131383, -87274.57669670305, -30972.119387640883, 0.0, 0.0, 0.0, 193.0, 0.0, 1.0, 1.0, 0.0, 0.0, 1.0, 1.0, 256.0, 1.0, 1.750527681828397E9, 0.0, 2025-06-21 19:41:21.828
16.0, -43126.729801503396, -37964.19208815004, -29171.61931653253, -71446.88176475547, -27581.13623632625, -27749.26605811907, -52088.30411294748, -99025.2240330248, -187500.02235174447, -187500.02235174447, -46908.64496334136, -45540.986423610026, -77508.80897150146, -47987.36250249893, -87301.80112144961, -30968.52075678358, 0.0, 0.0, 0.0, 193.0, 0.0, 1.0, 1.0, 0.0, 0.0, 1.0, 1.0, 256.0, 1.0, 1.750527681836413E9, 0.0, 2025-06-21 19:41:21.836
18.0, -43128.696755015466, -37967.67896028506, -29174.882671223007, -71460.65043933994, -27582.589099715842, -27738.33605508042, -52097.289514218515, -99029.56027144913, -187500.02235174447, -187500.02235174447, -46917.8762338014, -45550.88824640372, -77506.03735518901, -47999.54420322707, -87290.08880735503, -30975.94153594274, 0.0, 0.0, 0.0, 193.0, 0.0, 1.0, 1.0, 0.0, 0.0, 1.0, 1.0, 256.0, 1.0, 1.750527681844439E9, 0.0, 2025-06-21 19:41:21.844
20.0, -43115.86685369812, -37956.81601247979, -29165.025551918217, -71441.18206991936, -27578.63284094725, -27759.59256405742, -52077.17294420874, -99013.75758811923, -187500.02235174447, -187500.02235174447, -46905.15809120633, -45549.74830743651, -77506.8420179894, -47995.05150259155, -87291.18404283334, -30973.6616580083, 0.0, 0.0, 0.0, 193.0, 0.0, 1.0, 1.0, 0.0, 0.0, 1.0, 1.0, 256.0, 1.0, 1.750527681853459E9, 0.0, 2025-06-21 19:41:21.853
22.0, -43115.91155718703, -37960.41464333709, -29170.81465373214, -71451.55327934663, -27576.375314757268, -27745.53331679503, -52087.23122921363, -99022.16184403442, -187500.02235174447, -187500.02235174447, -46901.559460349024, -45534.884397373724, -77503.46690457665, -47979.65115066185, -87287.87598465395, -30958.753044456607, 0.0, 0.0, 0.0, 193.0, 0.0, 1.0, 1.0, 0.0, 0.0, 1.0, 1.0, 256.0, 1.0, 1.750527681860508E9, 0.0, 2025-06-21 19:41:21.860
24.0, -43111.86589144062, -37948.99290192043, -29167.372485086024, -71444.11014844301, -27563.88068960675, -27733.351616066888, -52073.95429300718, -99007.74496886074, -187500.02235174447, -187500.02235174447, -46913.227070954694, -45545.948510879105, -77505.23269238863, -47998.24780204866, -87276.43189149283, -30975.89683245383, 0.0, 0.0, 0.0, 193.0, 0.0, 1.0, 1.0, 0.0, 0.0, 1.0, 1.0, 256.0, 1.0, 1.750527681868523E9, 0.0, 2025-06-21 19:41:21.868
26.0, -43110.48008328439, -37950.646931010124, -29162.67861875041, -71435.43767159435, -27568.038114075436, -27748.573154040954, -52063.35956613536, -99000.10067225703, -187500.02235174447, -187500.02235174447, -46897.44673936925, -45527.01658332546, -77496.56021553997, -47963.08850802047, -87279.31526652757, -30943.64326520482, 0.0, 0.0, 0.0, 193.0, 0.0, 1.0, 1.0, 0.0, 0.0, 1.0, 1.0, 256.0, 1.0, 1.750527681876505E9, 0.0, 2025-06-21 19:41:21.876
28.0, -43144.87941800111, -37983.772216292884, -29182.862243993553, -71466.3724859205, -27578.74459966953, -27736.838488201916, -52102.050435787496, -99034.23178604028, -187500.02235174447, -187500.02235174447, -46914.61287911092, -45551.84937141531, -77508.294881379, -47996.88434563689, -87290.4017317774, -30973.37108533038, 0.0, 0.0, 0.0, 193.0, 0.0, 1.0, 1.0, 0.0, 0.0, 1.0, 1.0, 256.0, 1.0, 1.750527681884635E9, 0.0, 2025-06-21 19:41:21.884
30.0, -43128.45088582646, -37967.45544284051, -29172.893365966484, -71444.35601763202, -27578.83400664735, -27766.946287983214, -52079.318711676446, -99016.2162800093, -187500.02235174447, -187500.02235174447, -46920.983126280684, -45555.246836572514, -77515.0004047156, -47992.12342406791, -87295.22970857975, -30971.27002135158, 0.0, 0.0, 0.0, 193.0, 0.0, 1.0, 1.0, 0.0, 0.0, 1.0, 1.0, 256.0, 1.0, 1.750527681892609E9, 0.0, 2025-06-21 19:41:21.892
32.0, -43126.41687708103, -37970.11530043069, -29168.802996731163, -71447.01587522219, -27572.419055988677, -27727.093127619402, -52080.65981634377, -99014.5175474307, -187500.02235174447, -187500.02235174447, -46897.71496030271, -45531.621042683255, -77496.98489868462, -47963.624949887395, -87280.11992932796, -30943.41974776027, 0.0, 0.0, 0.0, 193.0, 0.0, 1.0, 1.0, 0.0, 0.0, 1.0, 1.0, 256.0, 1.0, 1.750527681900673E9, 0.0, 2025-06-21 19:41:21.900
34.0, -43131.49072307238, -37973.35630337671, -29181.11880792604, -71459.62225909499, -27582.74556192703, -27761.11248268038, -52085.06311000146, -99023.122969046, -187500.02235174447, -187500.02235174447, -46927.33102170599, -45563.33816806533, -77519.09077395091, -48005.31095329654, -87294.49210101273, -30981.976506945673, 0.0, 0.0, 0.0, 193.0, 0.0, 1.0, 1.0, 0.0, 0.0, 1.0, 1.0, 256.0, 1.0, 1.750527681909714E9, 0.0, 2025-06-21 19:41:21.909
36.0, -43107.082618127184, -37950.66928275458, -29155.883688435995, -71432.33077911506, -27570.139178054236, -27761.939497225227, -52064.65596731377, -99004.72748335928, -187500.02235174447, -187500.02235174447, -46902.5205853606, -45537.36544100827, -77504.8974162218, -47969.905790079334, -87286.22195556427, -30952.539259498033, 0.0, 0.0, 0.0, 193.0, 0.0, 1.0, 1.0, 0.0, 0.0, 1.0, 1.0, 256.0, 1.0, 1.750527681915654E9, 0.0, 2025-06-21 19:41:21.915
38.0, -43137.41393535303, -37975.21149816651, -29172.043999677182, -71459.13052071698, -27571.41322748819, -27733.530430022533, -52095.88135431783, -99030.38728599397, -187500.02235174447, -187500.02235174447, -46906.43214064028, -45543.37806026675, -77501.1870266422, -47987.876592621404, -87275.4484147368, -30967.112596882893, 0.0, 0.0, 0.0, 193.0, 0.0, 1.0, 1.0, 0.0, 0.0, 1.0, 1.0, 256.0, 1.0, 1.75052768192479E9, 0.0, 2025-06-21 19:41:21.924
40.0, -43131.64718528357, -37968.528326574364, -29169.13827289799, -71442.85845075351, -27575.391838001233, -27759.011418701582, -52083.386729167316, -99021.29012600066, -187500.02235174447, -187500.02235174447, -46917.11627448991, -45550.95530163709, -77510.55240756899, -47991.721092667714, -87288.01009512068, -30972.633477763353, 0.0, 0.0, 0.0, 193.0, 0.0, 1.0, 1.0, 0.0, 0.0, 1.0, 1.0, 256.0, 1.0, 1.750527681932749E9, 0.0, 2025-06-21 19:41:21.932
42.0, -43137.61510105313, -37975.97145747799, -29184.96330797235, -71457.54354686064, -27578.07404733587, -27747.00853192908, -52090.67339785974, -99025.80517838063, -187500.02235174447, -187500.02235174447, -46913.98703026617, -45541.76873466596, -77508.76426801256, -47980.321702995505, -87293.7544934457, -30961.03292239105, 0.0, 0.0, 0.0, 193.0, 0.0, 1.0, 1.0, 0.0, 0.0, 1.0, 1.0, 256.0, 1.0, 1.750527681940811E9, 0.0, 2025-06-21 19:41:21.940
44.0, -43133.74824926237, -37972.395178365136, -29189.657174307966, -71465.45606439782, -27581.627974704264, -27736.950246924192, -52093.17679323874, -99027.63802142597, -187500.02235174447, -187500.02235174447, -46930.5273211631, -45562.06411863138, -77519.06842220646, -48011.100055110466, -87296.88373766944, -30987.318573870492, 0.0, 0.0, 0.0, 193.0, 0.0, 1.0, 1.0, 0.0, 0.0, 1.0, 1.0, 256.0, 1.0, 1.750527681947852E9, 0.0, 2025-06-21 19:41:21.947
46.0, -43112.04470539626, -37953.68676825604, -29173.698028766878, -71445.38419787696, -27576.531776968455, -27763.481767592642, -52070.221551683135, -99007.3202857161, -187500.02235174447, -187500.02235174447, -46914.277602944094, -45550.59767372581, -77518.24140766161, -47986.66959842081, -87304.68449648435, -30967.93961142774, 0.0, 0.0, 0.0, 193.0, 0.0, 1.0, 1.0, 0.0, 0.0, 1.0, 1.0, 256.0, 1.0, 1.750527681956866E9, 0.0, 2025-06-21 19:41:21.956
48.0, -43117.58793802118, -37966.159041662104, -29167.193671130382, -71454.72722705928, -27565.959401841093, -27733.552781766986, -52085.756014079576, -99017.19975676535, -187500.02235174447, -187500.02235174447, -46899.21252718121, -45537.47719973054, -77497.43193357372, -47982.44511871876, -87275.33665601452, -30960.31766656848, 0.0, 0.0, 0.0, 193.0, 0.0, 1.0, 1.0, 0.0, 0.0, 1.0, 1.0, 256.0, 1.0, 1.750527681964894E9, 0.0, 2025-06-21 19:41:21.964
50.0, -43127.60151953716, -37963.36507360519, -29174.703857267366, -71451.57563109108, -27583.952556127617, -27744.52748829454, -52086.806546068976, -99021.58069867859, -187500.02235174447, -187500.02235174447, -46915.48459714468, -45554.08454586084, -77514.30750063747, -47997.30902878154, -87297.19666209181, -30977.595565032432, 0.0, 0.0, 0.0, 193.0, 0.0, 1.0, 1.0, 0.0, 0.0, 1.0, 1.0, 256.0, 1.0, 1.750527681971972E9, 0.0, 2025-06-21 19:41:21.971
52.0, -43137.12336267512, -37979.23481216846, -29182.236395148804, -71465.07608474209, -27592.26740506499, -27749.10959590788, -52104.73264512213, -99037.53984421967, -187500.02235174447, -187500.02235174447, -46915.19402446676, -45551.06706035937, -77513.68165179272, -47996.23614504768, -87311.6582407544, -30975.829777220464, 0.0, 0.0, 0.0, 193.0, 0.0, 1.0, 1.0, 0.0, 0.0, 1.0, 1.0, 256.0, 1.0, 1.750527681980986E9, 0.0, 2025-06-21 19:41:21.980
54.0, -43131.60248179465, -37971.054073697815, -29180.180034658915, -71457.364732905, -27590.009878875004, -27776.043447976524, -52103.81622359947, -99036.60107095254, -187500.02235174447, -187500.02235174447, -46916.021039011604, -45554.01749062747, -77504.56214005496, -48013.826967934016, -87301.3093830716, -30989.620803549387, 0.0, 0.0, 0.0, 193.0, 0.0, 1.0, 1.0, 0.0, 0.0, 1.0, 1.0, 256.0, 1.0, 1.750527681988981E9, 0.0, 2025-06-21 19:41:21.988
56.0, -43123.68996425748, -37963.789756749844, -29177.25195613527, -71447.23939266674, -27581.98560261555, -27768.935593239737, -52087.36533968036, -99023.81587312411, -187500.02235174447, -187500.02235174447, -46910.298992431046, -45541.56756896586, -77508.78661975701, -47987.20604028774, -87306.11500812949, -30966.7102654827, 0.0, 0.0, 0.0, 193.0, 0.0, 1.0, 1.0, 0.0, 0.0, 1.0, 1.0, 256.0, 1.0, 1.750527681996075E9, 0.0, 2025-06-21 19:41:21.996
58.0, -43129.12143816012, -37966.874297484675, -29181.565842815144, -71453.85550902552, -27571.4579309771, -27740.235953359123, -52093.17679323874, -99023.21237602382, -187500.02235174447, -187500.02235174447, -46914.43406515528, -45545.43442075663, -77507.98195695663, -47993.956267113244, -87288.5018334987, -30970.398303317823, 0.0, 0.0, 0.0, 193.0, 0.0, 1.0, 1.0, 0.0, 0.0, 1.0, 1.0, 256.0, 1.0, 1.750527682004037E9, 0.0, 2025-06-21 19:41:22.004
60.0, -43137.30217663076, -37971.88108824266, -29190.126560941528, -71459.0187619947, -27591.529797497966, -27766.36514262738, -52096.06016827347, -99033.29301277317, -187500.02235174447, -187500.02235174447, -46923.97826003769, -45552.96695863807, -77516.9003029943, -47996.9290491258, -87301.33173481605, -30975.74037024264, 0.0, 0.0, 0.0, 193.0, 0.0, 1.0, 1.0, 0.0, 0.0, 1.0, 1.0, 256.0, 1.0, 1.750527682013164E9, 0.0, 2025-06-21 19:41:22.013
62.0, -43149.036842469795, -37989.49426287344, -29197.145008700492, -71478.04009652617, -27592.40151553172, -27745.44390981721, -52111.907555092286, -99041.31728903262, -187500.02235174447, -187500.02235174447, -46929.879120573896, -45560.23127558605, -77526.24333217661, -48000.952363127755, -87316.24034836773, -30983.541129057543, 0.0, 0.0, 0.0, 193.0, 0.0, 1.0, 1.0, 0.0, 0.0, 1.0, 1.0, 256.0, 1.0, 1.750527682021176E9, 0.0, 2025-06-21 19:41:22.021
64.0, -43147.226351168916, -37977.26785865639, -29185.16447367245, -71466.03720975366, -27588.64642246323, -27762.96767747017, -52107.616020156864, -99040.15499832094, -187500.02235174447, -187500.02235174447, -46935.24353924317, -45570.423671057666, -77524.43284087573, -48024.712267483745, -87309.06543839758, -31004.28354791207, 0.0, 0.0, 0.0, 193.0, 0.0, 1.0, 1.0, 0.0, 0.0, 1.0, 1.0, 256.0, 1.0, 1.750527682028138E9, 0.0, 2025-06-21 19:41:22.028
66.0, -43131.49072307238, -37970.785852764355, -29174.413284589446, -71447.14998568893, -27585.47247475058, -27753.35642735439, -52082.78323206702, -99022.00538182324, -187500.02235174447, -187500.02235174447, -46913.092960487964, -45546.842580657314, -77511.26766339155, -47988.45773797724, -87306.07030464057, -30972.387608574347, 0.0, 0.0, 0.0, 193.0, 0.0, 1.0, 1.0, 0.0, 0.0, 1.0, 1.0, 256.0, 1.0, 1.750527682036151E9, 0.0, 2025-06-21 19:41:22.036
68.0, -43133.83765624019, -37969.22123065248, -29174.614450289544, -71451.866203769, -27586.590061973344, -27735.25151434559, -52104.84440384441, -99034.52235871821, -187500.02235174447, -187500.02235174447, -46905.09103597296, -45537.38779275272, -77494.43679981671, -47988.90477286634, -87284.07618809656, -30967.805500961007, 0.0, 0.0, 0.0, 193.0, 0.0, 1.0, 1.0, 0.0, 0.0, 1.0, 1.0, 256.0, 1.0, 1.750527682045163E9, 0.0, 2025-06-21 19:41:22.045
70.0, -43116.33624033168, -37949.596399020724, -29164.48911005129, -71434.83417449406, -27575.056561834404, -27749.087244163424, -52081.2409616996, -99020.68662890037, -187500.02235174447, -187500.02235174447, -46918.90441404634, -45552.29640630441, -77511.31236688046, -48000.326514283006, -87303.47750228376, -30980.054256922514, 0.0, 0.0, 0.0, 193.0, 0.0, 1.0, 1.0, 0.0, 0.0, 1.0, 1.0, 256.0, 1.0, 1.750527682052187E9, 0.0, 2025-06-21 19:41:22.052
72.0, -43145.52761859031, -37986.27561167188, -29192.78641853171, -71469.9711167778, -27591.306280053414, -27759.793729757515, -52109.73943588012, -99041.25023379925, -187500.02235174447, -187500.02235174447, -46895.7703585351, -45528.335336248325, -77494.74972423908, -47971.33630172447, -87286.28901079763, -30952.22633507566, 0.0, 0.0, 0.0, 193.0, 0.0, 1.0, 1.0, 0.0, 0.0, 1.0, 1.0, 256.0, 1.0, 1.750527682060266E9, 0.0, 2025-06-21 19:41:22.060
74.0, -43159.43040364151, -37994.03166699787, -29207.40445940548, -71480.02940178268, -27605.521989526987, -27770.00847697359, -52115.79675862751, -99041.0267163547, -187500.02235174447, -187500.02235174447, -46948.833399872, -45577.620932772275, -77535.11697472537, -48032.51302629865, -87320.06249666959, -31011.03377473757, 0.0, 0.0, 0.0, 193.0, 0.0, 1.0, 1.0, 0.0, 0.0, 1.0, 1.0, 256.0, 1.0, 1.750527682068246E9, 0.0, 2025-06-21 19:41:22.068
76.0, -43122.66178401253, -37960.68286427055, -29175.083836923106, -71444.78070077667, -27579.236338047547, -27758.363218112376, -52080.1904297102, -99013.77993986369, -187500.02235174447, -187500.02235174447, -46925.85580657194, -45548.38485102473, -77518.53198033953, -47995.58794445848, -87317.31323210159, -30977.595565032432, 0.0, 0.0, 0.0, 193.0, 0.0, 1.0, 1.0, 0.0, 0.0, 1.0, 1.0, 256.0, 1.0, 1.750527682077279E9, 0.0, 2025-06-21 19:41:22.077
78.0, -43146.242874412885, -37978.45250111252, -29195.423924377435, -71476.56488139211, -27587.282966051458, -27751.612991286875, -52118.79189238452, -99055.28712931719, -187500.02235174447, -187500.02235174447, -46913.651754099345, -45544.87562714525, -77501.56700629795, -48000.795900916564, -87299.32007781506, -30978.75785574411, 0.0, 0.0, 0.0, 193.0, 0.0, 1.0, 1.0, 0.0, 0.0, 1.0, 1.0, 256.0, 1.0, 1.750527682084319E9, 0.0, 2025-06-21 19:41:22.084
80.0, -43154.0883367167, -37983.995733737436, -29201.83887503611, -71475.58140463608, -27622.129335657282, -27774.009439231093, -52117.54019469502, -99043.48540824479, -187500.02235174447, -187500.02235174447, -46936.71875437722, -45570.49072629103, -77528.56791359997, -48029.65200300837, -87333.07121194259, -31009.960891003717, 0.0, 0.0, 0.0, 193.0, 0.0, 1.0, 1.0, 0.0, 0.0, 1.0, 1.0, 256.0, 1.0, 1.750527682092287E9, 0.0, 2025-06-21 19:41:22.092
82.0, -43150.422650626024, -37987.92964076158, -29187.600813818077, -71468.83117781057, -27583.34905902732, -27732.569305010955, -52104.17385151075, -99026.56513769212, -187500.02235174447, -187500.02235174447, -46922.01130652563, -45554.48687726103, -77516.7438407831, -48000.102996838454, -87316.7097350013, -30983.295259868537, 0.0, 0.0, 0.0, 193.0, 0.0, 1.0, 1.0, 0.0, 0.0, 1.0, 1.0, 256.0, 1.0, 1.750527682100381E9, 0.0, 2025-06-21 19:41:22.100
84.0, -43160.369176908636, -37991.21534719651, -29194.932185999416, -71475.60375638053, -27596.69305046714, -27758.407921601287, -52112.01931381456, -99042.34546927757, -187500.02235174447, -187500.02235174447, -46934.550635165055, -45566.69092973363, -77519.26958790656, -48020.64424999288, -87306.49498778522, -31000.17082693229, 0.0, 0.0, 0.0, 193.0, 0.0, 1.0, 1.0, 0.0, 0.0, 1.0, 1.0, 256.0, 1.0, 1.7505276821084E9, 0.0, 2025-06-21 19:41:22.108
86.0, -43147.3828133801, -37982.5652220923, -29179.531834069712, -71456.69418057134, -27611.244036107546, -27776.870462521372, -52096.46249967367, -99022.877099857, -187500.02235174447, -187500.02235174447, -46926.727524605696, -45556.431479028644, -77522.46588736367, -47998.53837472658, -87320.12955190297, -30981.64123077884, 0.0, 0.0, 0.0, 193.0, 0.0, 1.0, 1.0, 0.0, 0.0, 1.0, 1.0, 256.0, 1.0, 1.750527682116444E9, 0.0, 2025-06-21 19:41:22.116
88.0, -43160.03390074181, -37996.6691728436, -29188.718401040842, -71474.08383775757, -27600.872826680283, -27755.859822733382, -52121.831729630445, -99042.41252451093, -187500.02235174447, -187500.02235174447, -46920.89371930286, -45551.335281292835, -77509.52422732404, -48000.43827300528, -87297.91191791439, -30981.50712031211, 0.0, 0.0, 0.0, 193.0, 0.0, 1.0, 1.0, 0.0, 0.0, 1.0, 1.0, 256.0, 1.0, 1.750527682124406E9, 0.0, 2025-06-21 19:41:22.124
90.0, -43136.385755108095, -37973.13278593216, -29173.452159577868, -71448.75931128972, -27584.04196310544, -27777.093979965925, -52091.008674026576, -99031.05783832763, -187500.02235174447, -187500.02235174447, -46931.04141128557, -45556.20796158409, -77517.83907626141, -48006.85322366396, -87308.79721746412, -30989.620803549387, 0.0, 0.0, 0.0, 193.0, 0.0, 1.0, 1.0, 0.0, 0.0, 1.0, 1.0, 256.0, 1.0, 1.750527682133514E9, 0.0, 2025-06-21 19:41:22.133
92.0, -43133.502380073354, -37971.99284696494, -29169.093569409084, -71451.64268632444, -27572.64257343323, -27749.02018893006, -52088.97466528114, -99019.25611725524, -187500.02235174447, -187500.02235174447, -46900.91125975982, -45532.76098165047, -77497.81191322947, -47975.292560493064, -87292.83807192303, -30959.64711423482, 0.0, 0.0, 0.0, 193.0, 0.0, 1.0, 1.0, 0.0, 0.0, 1.0, 1.0, 256.0, 1.0, 1.750527682140511E9, 0.0, 2025-06-21 19:41:22.140
94.0, -43163.49842113238, -37991.10358847423, -29193.032287720718, -71473.63680286847, -27596.067201622394, -27754.40695934379, -52109.672380646756, -99038.83624539808, -187500.02235174447, -187500.02235174447, -46919.61966986891, -45552.229351071044, -77506.90907322276, -48006.182671330294, -87290.02175212167, -30986.55861455901, 0.0, 0.0, 0.0, 193.0, 0.0, 1.0, 1.0, 0.0, 0.0, 1.0, 1.0, 256.0, 1.0, 1.750527682148542E9, 0.0, 2025-06-21 19:41:22.148
96.0, -43165.06304324425, -38001.541853134855, -29199.134313957016, -71474.19559647985, -27613.501562297533, -27787.956927771203, -52118.99305808462, -99047.30755654664, -187500.02235174447, -187500.02235174447, -46942.23963525768, -45572.14475538072, -77539.02853000505, -48009.71424695424, -87330.72427877478, -30993.957041973717, 0.0, 0.0, 0.0, 193.0, 0.0, 1.0, 1.0, 0.0, 0.0, 1.0, 1.0, 256.0, 1.0, 1.750527682156557E9, 0.0, 2025-06-21 19:41:22.156
98.0, -43164.973636266426, -38011.15310325064, -29189.612470819055, -71479.87293957149, -27604.963195915607, -27754.83164248844, -52129.69954367871, -99055.60005373956, -187500.02235174447, -187500.02235174447, -46937.970452066715, -45571.09422339132, -77527.53973335502, -48015.279831323605, -87306.7632087187, -30997.33215538647, 0.0, 0.0, 0.0, 193.0, 0.0, 1.0, 1.0, 0.0, 0.0, 1.0, 1.0, 256.0, 1.0, 1.750527682164553E9, 0.0, 2025-06-21 19:41:22.164
100.0, -43139.87262724312, -37979.23481216846, -29171.418150832436, -71445.96534323279, -27592.088591109346, -27781.094942223426, -52099.234115986124, -99029.49321621576, -187500.02235174447, -187500.02235174447, -46925.00644028264, -45560.92417966416, -77515.51449483806, -48002.87461315091, -87300.21414759329, -30986.04452443654, 0.0, 0.0, 0.0, 193.0, 0.0, 1.0, 1.0, 0.0, 0.0, 1.0, 1.0, 256.0, 1.0, 1.750527682172617E9, 0.0, 2025-06-21 19:41:22.172
102.0, -43157.843429785185, -37996.08802748776, -29190.864168508553, -71472.5192156457, -27607.42188780569, -27758.519680323563, -52116.91434585027, -99044.71475418983, -187500.02235174447, -187500.02235174447, -46908.10852147442, -45540.248816043, -77504.2939191215, -47975.49372619316, -87292.65925796739, -30960.87646017986, 0.0, 0.0, 0.0, 193.0, 0.0, 1.0, 1.0, 0.0, 0.0, 1.0, 1.0, 256.0, 1.0, 1.750527682180679E9, 0.0, 2025-06-21 19:41:22.180
104.0, -43168.2369909569, -38000.93835603456, -29199.715459312854, -71478.39772443744, -27607.08661163886, -27763.995857715116, -52119.50714820709, -99048.40279202495, -187500.02235174447, -187500.02235174447, -46950.04039407258, -45581.666598518685, -77531.94302701272, -48026.27688959562, -87302.18110110535, -31009.24563518115, 0.0, 0.0, 0.0, 193.0, 0.0, 1.0, 1.0, 0.0, 0.0, 1.0, 1.0, 256.0, 1.0, 1.750527682189765E9, 0.0, 2025-06-21 19:41:22.189
106.0, -43156.61408384015, -37994.076370486786, -29191.40061037548, -71462.2150614518, -27606.349004071835, -27797.031736020057, -52106.94546782321, -99034.92469011841, -187500.02235174447, -187500.02235174447, -46931.10846651894, -45559.82894418585, -77526.75742229908, -47991.855203134444, -87314.27339485567, -30977.528509799067, 0.0, 0.0, 0.0, 193.0, 0.0, 1.0, 1.0, 0.0, 0.0, 1.0, 1.0, 256.0, 1.0, 1.750527682196695E9, 0.0, 2025-06-21 19:41:22.196
108.0, -43174.65194161558, -38011.80130383984, -29198.933148256918, -71489.30537573164, -27600.671660980188, -27755.45749133319, -52141.0095263731, -99063.24435034327, -187500.02235174447, -187500.02235174447, -46934.684745631785, -45573.79878447042, -77525.17044844276, -48013.08936036699, -87302.29285982763, -30996.996879219638, 0.0, 0.0, 0.0, 193.0, 0.0, 1.0, 1.0, 0.0, 0.0, 1.0, 1.0, 256.0, 1.0, 1.750527682204775E9, 0.0, 2025-06-21 19:41:22.204
110.0, -43160.413880397544, -37998.01027751092, -29201.704764569375, -71476.09549475856, -27615.937902443162, -27778.4574363777, -52138.97551762766, -99062.0820596316, -187500.02235174447, -187500.02235174447, -46948.38636498289, -45583.477089819564, -77536.9498177707, -48026.478055295716, -87320.62129028098, -31011.86078928242, 0.0, 0.0, 0.0, 193.0, 0.0, 1.0, 1.0, 0.0, 0.0, 1.0, 1.0, 256.0, 1.0, 1.750527682212836E9, 0.0, 2025-06-21 19:41:22.212
112.0, -43180.93278180752, -38019.512655676925, -29220.21200897837, -71497.19554152436, -27631.405309606234, -27782.324288168467, -52175.922951212284, -99096.7943187707, -187500.02235174447, -187500.02235174447, -46942.35139397996, -45573.5082117925, -77536.32396892595, -48016.24095633518, -87336.87100849999, -30999.857902509917, 0.0, 0.0, 0.0, 193.0, 0.0, 1.0, 1.0, 0.0, 0.0, 1.0, 1.0, 256.0, 1.0, 1.750527682220757E9, 0.0, 2025-06-21 19:41:22.220
114.0, -43173.19907822598, -38011.08604801727, -29210.287834440212, -71488.99245130927, -27609.254730851026, -27758.139700667823, -52159.67323299328, -99085.6407982875, -187500.02235174447, -187500.02235174447, -46964.92665587982, -45595.792901014436, -77542.4036434178, -48048.069840439544, -87318.02848792417, -31031.23975172517, 0.0, 0.0, 0.0, 193.0, 0.0, 1.0, 1.0, 0.0, 0.0, 1.0, 1.0, 256.0, 1.0, 1.750527682227895E9, 0.0, 2025-06-21 19:41:22.227
116.0, -43139.76086852084, -37981.98407673646, -29180.314145125645, -71454.0119712367, -27580.97977411506, -27779.575023600464, -52115.08150280494, -99043.3289460336, -187500.02235174447, -187500.02235174447, -46918.39032392387, -45551.35763303729, -77516.20739891617, -47987.876592621404, -87313.80400822211, -30971.672352751775, 0.0, 0.0, 0.0, 193.0, 0.0, 1.0, 1.0, 0.0, 0.0, 1.0, 1.0, 256.0, 1.0, 1.750527682236846E9, 0.0, 2025-06-21 19:41:22.236
118.0, -43199.015343071864, -38035.60591168475, -29219.36264268907, -71503.58814043857, -27614.194466375648, -27768.10857869489, -52155.89578818033, -99084.88083897601, -187500.02235174447, -187500.02235174447, -46951.605016184454, -45584.2594008755, -77536.9498177707, -48027.729752985215, -87312.73112448826, -31012.151361960336, 0.0, 0.0, 0.0, 193.0, 0.0, 1.0, 1.0, 0.0, 0.0, 1.0, 1.0, 256.0, 1.0, 1.750527682244891E9, 0.0, 2025-06-21 19:41:22.244
120.0, -43174.80840382676, -38013.90236781864, -29198.10613371207, -71472.7203813458, -27617.346062343844, -27795.44476216373, -52120.02123832956, -99052.53786474919, -187500.02235174447, -187500.02235174447, -46963.51849597913, -45594.58590681385, -77550.6514371218, -48033.42944782132, -87326.611557795, -31018.253388196637, 0.0, 0.0, 0.0, 193.0, 0.0, 1.0, 1.0, 0.0, 0.0, 1.0, 1.0, 256.0, 1.0, 1.750527682251903E9, 0.0, 2025-06-21 19:41:22.251
122.0, -43196.780168626334, -38036.2764640184, -29202.86705528105, -71487.29371873065, -27610.774649473984, -27769.15911068429, -52130.37009601237, -99061.85854218705, -187500.02235174447, -187500.02235174447, -46935.71292587673, -45569.06021464589, -77534.13349796933, -47997.08551133698, -87319.36959259148, -30980.6130505339, 0.0, 0.0, 0.0, 193.0, 0.0, 1.0, 1.0, 0.0, 0.0, 1.0, 1.0, 256.0, 1.0, 1.750527682259943E9, 0.0, 2025-06-21 19:41:22.259
124.0, -43212.56050021178, -38047.899371135165, -29219.96613978936, -71499.4754194588, -27619.60358853383, -27750.31659010847, -52138.46142750519, -99068.89934169047, -187500.02235174447, -187500.02235174447, -46973.64383621739, -45607.79578778694, -77554.09360576792, -48046.28170088312, -87312.64171751043, -31030.18921973577, 0.0, 0.0, 0.0, 193.0, 0.0, 1.0, 1.0, 0.0, 0.0, 1.0, 1.0, 256.0, 1.0, 1.750527682268998E9, 0.0, 2025-06-21 19:41:22.268
126.0, -43194.07560754724, -38034.42126922861, -29199.335479657115, -71469.63584061096, -27605.097306382337, -27812.208570505212, -52114.25448826009, -99049.09569610306, -187500.02235174447, -187500.02235174447, -46951.470905717724, -45576.68215950515, -77545.89051555282, -48008.015514375635, -87339.2179416678, -30989.821969249486, 0.0, 0.0, 0.0, 193.0, 0.0, 1.0, 1.0, 0.0, 0.0, 1.0, 1.0, 256.0, 1.0, 1.750527682276039E9, 0.0, 2025-06-21 19:41:22.276
128.0, -43244.881122694154, -38077.761301727456, -29222.000148534793, -71514.98753011078, -27613.61332101981, -27765.24755540461, -52152.38656430085, -99091.49695533479, -187500.02235174447, -187500.02235174447, -46955.740088908686, -45593.15539516871, -77542.58245737344, -48031.66366000935, -87317.71556350178, -31015.437068395266, 0.0, 0.0, 0.0, 193.0, 0.0, 1.0, 1.0, 0.0, 0.0, 1.0, 1.0, 256.0, 1.0, 1.750527682284031E9, 0.0, 2025-06-21 19:41:22.284
130.0, -43230.86657892067, -38056.30362705036, -29204.029345992727, -71476.90015755894, -27614.485039053565, -27805.435991935254, -52113.427473715245, -99044.13360883399, -187500.02235174447, -187500.02235174447, -46970.7381094382, -45601.91727899519, -77558.65336163681, -48037.51981705664, -87329.78550550765, -31021.80731556503, 0.0, 0.0, 0.0, 193.0, 0.0, 1.0, 1.0, 0.0, 0.0, 1.0, 1.0, 256.0, 1.0, 1.750527682292095E9, 0.0, 2025-06-21 19:41:22.292
132.0, -43284.71193131351, -38107.042086963906, -29232.43841319542, -71511.21008529783, -27636.479155597586, -27775.3058404095, -52141.814189173485, -99080.5893040406, -187500.02235174447, -187500.02235174447, -46961.93152212281, -45587.8580317328, -77559.56978315947, -48013.826967934016, -87346.4152033824, -30992.54888207303, 0.0, 0.0, 0.0, 193.0, 0.0, 1.0, 1.0, 0.0, 0.0, 1.0, 1.0, 256.0, 1.0, 1.75052768230109E9, 0.0, 2025-06-21 19:41:22.301
134.0, -43300.112283243216, -38110.77482828794, -29229.555038160688, -71504.14693404996, -27619.08949841136, -27775.462302620686, -52136.27095654857, -99056.40471653995, -187500.02235174447, -187500.02235174447, -47011.28417388012, -45633.58970088836, -77583.55320496002, -48061.23501792372, -87328.5114560737, -31042.817955353017, 0.0, 0.0, 0.0, 193.0, 0.0, 1.0, 1.0, 0.0, 0.0, 1.0, 1.0, 256.0, 1.0, 1.750527682308109E9, 0.0, 2025-06-21 19:41:22.308
136.0, -43290.85866103872, -38102.95171772858, -29216.903950798984, -71484.90208207394, -27630.332425872377, -27830.40289049183, -52125.810340143486, -99041.58550996608, -187500.02235174447, -187500.02235174447, -46972.32508329453, -45592.9095259797, -77569.73982688664, -48008.842528920475, -87347.75630804972, -30987.631498292867, 0.0, 0.0, 0.0, 193.0, 0.0, 1.0, 1.0, 0.0, 0.0, 1.0, 1.0, 256.0, 1.0, 1.750527682316141E9, 0.0, 2025-06-21 19:41:22.316
138.0, -43342.3794320082, -38146.55997116089, -29243.256657511793, -71526.72219594983, -27657.71331283013, -27781.609032345896, -52173.10663141092, -99101.73405429532, -187500.02235174447, -187500.02235174447, -46992.12872888193, -45617.98818325856, -77575.32776300046, -48041.25255838067, -87328.93613921835, -31021.89672254285, 0.0, 0.0, 0.0, 193.0, 0.0, 1.0, 1.0, 0.0, 0.0, 1.0, 1.0, 256.0, 1.0, 1.750527682325191E9, 0.0, 2025-06-21 19:41:22.325
140.0, -43299.03939950936, -38105.276299151934, -29214.266444953257, -71481.41520993892, -27637.574391075897, -27817.349471729933, -52126.59265119942, -99053.85661767205, -187500.02235174447, -187500.02235174447, -47002.00819993117, -45618.32345942539, -77583.4637979822, -48055.08828819851, -87350.63968308446, -31035.486583171678, 0.0, 0.0, 0.0, 193.0, 0.0, 1.0, 1.0, 0.0, 0.0, 1.0, 1.0, 256.0, 1.0, 1.75052768233223E9, 0.0, 2025-06-21 19:41:22.332
142.0, -43316.607870651234, -38120.27431968145, -29233.533648673732, -71512.01474809823, -27629.505411327533, -27795.198892974724, -52147.53623575404, -99073.52615279272, -187500.02235174447, -187500.02235174447, -46966.62538845842, -45583.208868886104, -77561.02264654907, -48009.40132253186, -87346.70577606032, -30986.55861455901, 0.0, 0.0, 0.0, 193.0, 0.0, 1.0, 1.0, 0.0, 0.0, 1.0, 1.0, 256.0, 1.0, 1.75052768234024E9, 0.0, 2025-06-21 19:41:22.340
144.0, -43317.457236940536, -38114.865197523264, -29244.77657613475, -71521.33542553609, -27619.044794922447, -27788.180445215756, -52147.73740145414, -99086.5348680657, -187500.02235174447, -187500.02235174447, -47023.37646763044, -45646.03962254997, -77594.50555974312, -48082.536230389625, -87341.63193006896, -31063.694484674274, 0.0, 0.0, 0.0, 193.0, 0.0, 1.0, 1.0, 0.0, 0.0, 1.0, 1.0, 256.0, 1.0, 1.750527682348241E9, 0.0, 2025-06-21 19:41:22.348
146.0, -43279.66043706661, -38090.52414781143, -29214.936997286917, -71484.58915765157, -27632.09821368435, -27822.289207254555, -52118.83659587343, -99057.94698690737, -187500.02235174447, -187500.02235174447, -46968.614693714946, -45583.67825551966, -77564.19659426172, -48020.26427033714, -87359.35686342203, -30996.527492586076, 0.0, 0.0, 0.0, 193.0, 0.0, 1.0, 1.0, 0.0, 0.0, 1.0, 1.0, 256.0, 1.0, 1.750527682357278E9, 0.0, 2025-06-21 19:41:22.357
148.0, -43315.64674563966, -38118.46382838057, -29241.98260807784, -71527.21393432784, -27643.274085912002, -27745.689779006218, -52160.58965451594, -99069.88281844651, -187500.02235174447, -187500.02235174447, -46984.39502530039, -45610.12036921029, -77567.39289371883, -48049.90268348488, -87333.00415670921, -31028.423431923802, 0.0, 0.0, 0.0, 193.0, 0.0, 1.0, 1.0, 0.0, 0.0, 1.0, 1.0, 256.0, 1.0, 1.750527682364302E9, 0.0, 2025-06-21 19:41:22.364
150.0, -43277.9170009991, -38084.13154889722, -29234.226552751847, -71493.52985543369, -27636.456803853132, -27823.65266366633, -52134.03578210304, -99047.64283271348, -187500.02235174447, -187500.02235174447, -47002.83521447602, -45619.776322814985, -77583.37439100437, -48062.17379119084, -87356.02645349818, -31037.98997855067, 0.0, 0.0, 0.0, 193.0, 0.0, 1.0, 1.0, 0.0, 0.0, 1.0, 1.0, 256.0, 1.0, 1.750527682372315E9, 0.0, 2025-06-21 19:41:22.372
152.0, -43293.47381513999, -38105.11983694075, -29242.675512155954, -71516.35098652256, -27652.41594939422, -27795.534169141552, -52147.98327064315, -99077.75063249478, -187500.02235174447, -187500.02235174447, -46978.605923486466, -45591.05433118992, -77572.3549809879, -48029.897872197376, -87367.11291874801, -31003.70240255623, 0.0, 0.0, 0.0, 193.0, 0.0, 1.0, 1.0, 0.0, 0.0, 1.0, 1.0, 256.0, 1.0, 1.750527682380342E9, 0.0, 2025-06-21 19:41:22.380
154.0, -43295.53017562988, -38104.76220902946, -29257.025332096262, -71529.27029481773, -27661.89308904327, -27796.852922064416, -52162.37779407237, -99085.08200467611, -187500.02235174447, -187500.02235174447, -47024.85168276449, -45646.956044072635, -77594.93024288777, -48099.2553352422, -87359.28980818867, -31077.15023483637, 0.0, 0.0, 0.0, 193.0, 0.0, 1.0, 1.0, 0.0, 0.0, 1.0, 1.0, 256.0, 1.0, 1.750527682388375E9, 0.0, 2025-06-21 19:41:22.388
156.0, -43233.79465744432, -38055.96835088353, -29208.700860583886, -71473.94972729085, -27626.733795015076, -27818.154134530323, -52136.717991437676, -99050.43680077039, -187500.02235174447, -187500.02235174447, -46973.75559493966, -45584.527621808964, -77568.01874256358, -48029.182616374805, -87373.1702414954, -31003.61299557841, 0.0, 0.0, 0.0, 193.0, 0.0, 1.0, 1.0, 0.0, 0.0, 1.0, 1.0, 256.0, 1.0, 1.750527682396408E9, 0.0, 2025-06-21 19:41:22.396
158.0, -43295.23960295196, -38111.42302887714, -29250.722140159865, -71533.96416115334, -27633.036986951472, -27762.230069903144, -52185.89182923935, -99102.24814441778, -187500.02235174447, -187500.02235174447, -46983.61271424445, -45604.264212163, -77562.11788202738, -48050.93086372982, -87334.09939218753, -31029.697481357754, 0.0, 0.0, 0.0, 193.0, 0.0, 1.0, 1.0, 0.0, 0.0, 1.0, 1.0, 256.0, 1.0, 1.750527682404435E9, 0.0, 2025-06-21 19:41:22.404
160.0, -43233.615843488675, -38055.789536927885, -29216.725136843343, -71486.10907627453, -27633.52872532949, -27798.104619753914, -52136.49447399312, -99064.13842012148, -187500.02235174447, -187500.02235174447, -46993.80510971607, -45619.55280537043, -77576.40064673431, -48060.34094814551, -87354.08185173057, -31038.5264204176, 0.0, 0.0, 0.0, 193.0, 0.0, 1.0, 1.0, 0.0, 0.0, 1.0, 1.0, 256.0, 1.0, 1.750527682413499E9, 0.0, 2025-06-21 19:41:22.413
162.0, -43259.6109222902, -38079.39297907269, -29226.291683470212, -71509.39959399696, -27630.377129361288, -27783.59833760242, -52159.919102182284, -99074.44257431538, -187500.02235174447, -187500.02235174447, -46949.302786505556, -45580.21373512909, -77551.18787898873, -48011.61414523294, -87349.1197644615, -30989.03965819355, 0.0, 0.0, 0.0, 193.0, 0.0, 1.0, 1.0, 0.0, 0.0, 1.0, 1.0, 256.0, 1.0, 1.750527682419517E9, 0.0, 2025-06-21 19:41:22.419
164.0, -43268.81984100579, -38094.63686879121, -29241.91555284447, -71528.75620469525, -27640.122489943802, -27806.665337880295, -52178.247532635636, -99084.29969362018, -187500.02235174447, -187500.02235174447, -47003.34930459849, -45637.27773872349, -77581.63095493686, -48085.08432925753, -87335.44049685485, -31068.924792876816, 0.0, 0.0, 0.0, 193.0, 0.0, 1.0, 1.0, 0.0, 0.0, 1.0, 1.0, 256.0, 1.0, 1.750527682428556E9, 0.0, 2025-06-21 19:41:22.428
166.0, -43208.179558298536, -38049.374586269216, -29199.089610468105, -71472.16158773442, -27615.736736743063, -27822.02098632109, -52147.42447703177, -99042.0772483441, -187500.02235174447, -187500.02235174447, -46955.605978441956, -45581.376025840764, -77558.04986453652, -48021.51596802664, -87364.9224477914, -30998.583853075965, 0.0, 0.0, 0.0, 193.0, 0.0, 1.0, 1.0, 0.0, 0.0, 1.0, 1.0, 256.0, 1.0, 1.750527682436569E9, 0.0, 2025-06-21 19:41:22.436
168.0, -43265.95881771551, -38093.72044726854, -29234.94180857442, -71522.05068135867, -27632.90287648474, -27745.77918598404, -52196.978294489185, -99087.60775179956, -187500.02235174447, -187500.02235174447, -46967.65356870337, -45600.55382258342, -77548.304503954, -48042.6383665369, -87322.70000251532, -31024.020138266103, 0.0, 0.0, 0.0, 193.0, 0.0, 1.0, 1.0, 0.0, 0.0, 1.0, 1.0, 256.0, 1.0, 1.750527682444606E9, 0.0, 2025-06-21 19:41:22.444
170.0, -43214.23688104592, -38049.151068824656, -29207.11388672756, -71480.99052679427, -27632.90287648474, -27820.97045433169, -52164.83648596245, -99050.83913217059, -187500.02235174447, -187500.02235174447, -46981.10931886546, -45612.847282033836, -77566.23060300715, -48055.24475040969, -87347.51043886071, -31034.033719782085, 0.0, 0.0, 0.0, 193.0, 0.0, 1.0, 1.0, 0.0, 0.0, 1.0, 1.0, 256.0, 1.0, 1.750527682451628E9, 0.0, 2025-06-21 19:41:22.451
172.0, -43243.36120407119, -38071.458109791056, -29215.384032176025, -71497.28494850219, -27617.5695797884, -27760.039598946525, -52193.71493979871, -99074.26376035974, -187500.02235174447, -187500.02235174447, -46936.47288518821, -45562.578208753854, -77535.74282357012, -47999.477147993704, -87336.98276722226, -30974.488672553143, 0.0, 0.0, 0.0, 193.0, 0.0, 1.0, 1.0, 0.0, 0.0, 1.0, 1.0, 256.0, 1.0, 1.75052768246067E9, 0.0, 2025-06-21 19:41:22.460
174.0, -43249.32911984076, -38077.56013602736, -29227.16340150397, -71504.7280794058, -27635.60743756383, -27781.474921879166, -52204.4214253928, -99086.82544074362, -187500.02235174447, -187500.02235174447, -47001.13648189742, -45629.007593275026, -77569.78453037555, -48072.23207619573, -87322.07415367058, -31053.14446129137, 0.0, 0.0, 0.0, 193.0, 0.0, 1.0, 1.0, 0.0, 0.0, 1.0, 1.0, 256.0, 1.0, 1.750527682468707E9, 0.0, 2025-06-21 19:41:22.468
176.0, -43206.637287931124, -38039.38335649769, -29194.932185999416, -71467.91475628791, -27624.632731036276, -27832.68276842627, -52180.46035533671, -99060.51743751972, -187500.02235174447, -187500.02235174447, -46941.278510246106, -45568.099089634314, -77542.18012597325, -48004.75215968516, -87348.80684003912, -30977.483806310156, 0.0, 0.0, 0.0, 193.0, 0.0, 1.0, 1.0, 0.0, 0.0, 1.0, 1.0, 256.0, 1.0, 1.75052768247679E9, 0.0, 2025-06-21 19:41:22.476
178.0, -43277.46996610999, -38100.4930258385, -29240.97677957735, -71525.85047791606, -27633.729891029587, -27762.07360769196, -52224.20271923575, -99097.42016761543, -187500.02235174447, -187500.02235174447, -46973.353263539466, -45603.30308715142, -77552.55133540051, -48044.024174693135, -87323.61642403799, -31020.153286475335, 0.0, 0.0, 0.0, 193.0, 0.0, 1.0, 1.0, 0.0, 0.0, 1.0, 1.0, 256.0, 1.0, 1.750527682484797E9, 0.0, 2025-06-21 19:41:22.484
180.0, -43220.204796815495, -38054.02374911591, -29207.62797685003, -71475.33553544707, -27630.04185319446, -27823.89853285534, -52183.25432339362, -99053.34252754957, -187500.02235174447, -187500.02235174447, -46987.054882890574, -45612.6684680782, -77568.73399838615, -48052.62959630843, -87341.5648748356, -31027.775231334595, 0.0, 0.0, 0.0, 193.0, 0.0, 1.0, 1.0, 0.0, 0.0, 1.0, 1.0, 256.0, 1.0, 1.750527682492802E9, 0.0, 2025-06-21 19:41:22.492
182.0, -43252.6595297646, -38077.85070870527, -29227.766898604263, -71507.16441955142, -27637.79790852045, -27776.937517754737, -52200.59927709094, -99075.85073421607, -187500.02235174447, -187500.02235174447, -46951.58266444, -45577.911505450196, -77550.07029176597, -48009.73659869869, -87346.86223827151, -30981.79769299003, 0.0, 0.0, 0.0, 193.0, 0.0, 1.0, 1.0, 0.0, 0.0, 1.0, 1.0, 256.0, 1.0, 1.750527682499801E9, 0.0, 2025-06-21 19:41:22.499
184.0, -43254.91705595458, -38076.844880204786, -29241.93790458893, -71520.9330941359, -27628.79015550496, -27774.34471539792, -52208.10946322793, -99076.36482433854, -187500.02235174447, -187500.02235174447, -47013.65345879239, -45640.42933469169, -77582.63678343735, -48081.70921584478, -87330.83603749705, -31058.397121238366, 0.0, 0.0, 0.0, 193.0, 0.0, 1.0, 1.0, 0.0, 0.0, 1.0, 1.0, 256.0, 1.0, 1.75052768250785E9, 0.0, 2025-06-21 19:41:22.507
186.0, -43202.993953584904, -38032.163743038625, -29199.000203490283, -71469.5687853776, -27613.814486719908, -27822.713890399205, -52165.52939004057, -99035.70700117433, -187500.02235174447, -187500.02235174447, -46958.66816743233, -45578.60440952831, -77554.0041987901, -48012.79878768907, -87357.3675581655, -30982.982335446162, 0.0, 0.0, 0.0, 193.0, 0.0, 1.0, 1.0, 0.0, 0.0, 1.0, 1.0, 256.0, 1.0, 1.750527682516855E9, 0.0, 2025-06-21 19:41:22.516
188.0, -43276.061806209305, -38102.30351713938, -29250.78919539323, -71539.97678041182, -27646.537440602475, -27759.704322779697, -52227.309611715034, -99100.08002520562, -187500.02235174447, -187500.02235174447, -46968.79350767058, -45594.965886469596, -77548.79624233201, -48045.43233459382, -87322.47648507077, -31020.823838808996, 0.0, 0.0, 0.0, 193.0, 0.0, 1.0, 1.0, 0.0, 0.0, 1.0, 1.0, 256.0, 1.0, 1.750527682524853E9, 0.0, 2025-06-21 19:41:22.524
190.0, -43205.60910768618, -38027.536931936374, -29203.35879365907, -71473.122712746, -27617.010786177016, -27827.586570690462, -52179.85685823642, -99047.15109433545, -187500.02235174447, -187500.02235174447, -46996.17439462834, -45619.17282571469, -77576.9594403457, -48065.07951797003, -87352.20430519633, -31040.448670440757, 0.0, 0.0, 0.0, 193.0, 0.0, 1.0, 1.0, 0.0, 0.0, 1.0, 1.0, 256.0, 1.0, 1.750527682531931E9, 0.0, 2025-06-21 19:41:22.531
192.0, -43236.99095690143, -38065.19962134357, -29217.954482788384, -71499.09543980306, -27626.80085024844, -27794.349526685422, -52204.26496318162, -99073.34733883708, -187500.02235174447, -187500.02235174447, -46936.6293473994, -45555.35859529479, -77531.51834386807, -47997.15256657035, -87338.70385154532, -30970.018323662083, 0.0, 0.0, 0.0, 193.0, 0.0, 1.0, 1.0, 0.0, 0.0, 1.0, 1.0, 256.0, 1.0, 1.75052768253993E9, 0.0, 2025-06-21 19:41:22.539
194.0, -43256.32521585527, -38079.6388482617, -29244.284837756735, -71522.8776959035, -27639.69780679915, -27770.477863607153, -52219.93353604479, -99088.94885646689, -187500.02235174447, -187500.02235174447, -47008.221984889744, -45630.03577351997, -77574.56780368899, -48083.787928079124, -87337.87683700047, -31062.085159073493, 0.0, 0.0, 0.0, 193.0, 0.0, 1.0, 1.0, 0.0, 0.0, 1.0, 1.0, 256.0, 1.0, 1.75052768254895E9, 0.0, 2025-06-21 19:41:22.548
196.0, -43204.8491483747, -38031.15791453814, -29206.800962305184, -71474.01678252421, -27617.413117577213, -27814.35433797292, -52184.55072457204, -99047.19579782436, -187500.02235174447, -187500.02235174447, -46957.99761509867, -45577.330360094355, -77553.31129471198, -48022.87942443841, -87375.51717466321, -30993.219434406692, 0.0, 0.0, 0.0, 193.0, 0.0, 1.0, 1.0, 0.0, 0.0, 1.0, 1.0, 256.0, 1.0, 1.750527682555973E9, 0.0, 2025-06-21 19:41:22.555
198.0, -43264.14832641463, -38085.45030182008, -29242.49669820031, -71532.3324838081, -27634.869829996805, -27757.02211344506, -52228.31544021553, -99095.67673154792, -187500.02235174447, -187500.02235174447, -46978.382406041914, -45601.76081678401, -77554.11595751237, -48053.344852131, -87333.58530206505, -31029.94335054676, 0.0, 0.0, 0.0, 193.0, 0.0, 1.0, 1.0, 0.0, 0.0, 1.0, 1.0, 256.0, 1.0, 1.750527682563991E9, 0.0, 2025-06-21 19:41:22.563
200.0, -43207.73252340943, -38038.55634195284, -29210.757221073774, -71482.82336983959, -27611.780477974473, -27818.154134530323, -52182.06968093749, -99047.08403910209, -187500.02235174447, -187500.02235174447, -46981.802222943574, -45607.50521510902, -77563.23546925014, -48061.12325920144, -87350.19264819536, -31036.425356438802, 0.0, 0.0, 0.0, 193.0, 0.0, 1.0, 1.0, 0.0, 0.0, 1.0, 1.0, 256.0, 1.0, 1.75052768257302E9, 0.0, 2025-06-21 19:41:22.573
202.0, -43252.637178020144, -38075.03438890391, -29238.87571559855, -71524.10704184855, -27637.21676316461, -27786.347602170423, -52221.11817850092, -99086.91484772145, -187500.02235174447, -187500.02235174447, -46957.57293195402, -45579.54318279543, -77553.06542552297, -48027.39447681839, -87364.69893034684, -30999.14264668735, 0.0, 0.0, 0.0, 193.0, 0.0, 1.0, 1.0, 0.0, 0.0, 1.0, 1.0, 256.0, 1.0, 1.750527682580991E9, 0.0, 2025-06-21 19:41:22.580
204.0, -43262.82957349176, -38083.14807214118, -29249.470442470367, -71535.39467279849, -27644.078748712393, -27782.391343401832, -52228.96364080473, -99091.87693499052, -187500.02235174447, -187500.02235174447, -47020.49309259571, -45647.47013419511, -77590.70576318572, -48102.96572482178, -87344.3141394036, -31082.447598272276, 0.0, 0.0, 0.0, 193.0, 0.0, 1.0, 1.0, 0.0, 0.0, 1.0, 1.0, 256.0, 1.0, 1.750527682588064E9, 0.0, 2025-06-21 19:41:22.588
206.0, -43215.086247335224, -38042.87022863272, -29206.644500094, -71483.40451519543, -27635.22745790809, -27834.157983560322, -52186.830602506474, -99049.34156529208, -187500.02235174447, -187500.02235174447, -46963.1832198123, -45584.326456108865, -77560.37444595987, -48030.657831508855, -87373.23729672877, -31003.143608944847, 0.0, 0.0, 0.0, 193.0, 0.0, 1.0, 1.0, 0.0, 0.0, 1.0, 1.0, 256.0, 1.0, 1.750527682596125E9, 0.0, 2025-06-21 19:41:22.596
208.0, -43282.72262605699, -38106.99738347499, -29256.846518140617, -71550.61621077254, -27662.876565799306, -27750.830680230938, -52245.772152635116, -99113.58047885663, -187500.02235174447, -187500.02235174447, -46988.954781169276, -45617.78701755846, -77572.13146354335, -48066.75589880418, -87339.84379051255, -31045.164888520827, 0.0, 0.0, 0.0, 193.0, 0.0, 1.0, 1.0, 0.0, 0.0, 1.0, 1.0, 256.0, 1.0, 1.750527682605142E9, 0.0, 2025-06-21 19:41:22.605
210.0, -43226.642099218625, -38055.163688083136, -29227.476325926345, -71500.10126830355, -27636.546210830955, -27830.89462886985, -52198.67702706779, -99062.39498405397, -187500.02235174447, -187500.02235174447, -47012.11118842497, -45636.98716604557, -77594.23733880966, -48082.245657711705, -87368.54343039315, -31059.358246249947, 0.0, 0.0, 0.0, 193.0, 0.0, 1.0, 1.0, 0.0, 0.0, 1.0, 1.0, 256.0, 1.0, 1.75052768261224E9, 0.0, 2025-06-21 19:41:22.612
212.0, -43263.477774080966, -38086.43377857611, -29243.74839588981, -71524.84464941558, -27652.05832148294, -27800.02686977707, -52222.5263384016, -99086.95955121036, -187500.02235174447, -187500.02235174447, -46958.19878079877, -45583.52179330847, -77557.37931220286, -48020.26427033714, -87359.42391865539, -30992.839454750952, 0.0, 0.0, 0.0, 193.0, 0.0, 1.0, 1.0, 0.0, 0.0, 1.0, 1.0, 256.0, 1.0, 1.750527682620146E9, 0.0, 2025-06-21 19:41:22.620
214.0, -43268.84219275024, -38082.566926785345, -29253.89608787252, -71532.91362916394, -27643.4752516121, -27782.748971313118, -52223.889794813374, -99089.37353961154, -187500.02235174447, -187500.02235174447, -47037.41336314838, -45659.74124190107, -77608.07306862749, -48105.17854752285, -87351.42199414039, -31081.39706628288, 0.0, 0.0, 0.0, 193.0, 0.0, 1.0, 1.0, 0.0, 0.0, 1.0, 1.0, 256.0, 1.0, 1.750527682628246E9, 0.0, 2025-06-21 19:41:22.628
216.0, -43222.03763986083, -38052.436775259586, -29215.898122298495, -71488.9700995648, -27640.480117855088, -27837.51074522862, -52182.628474548874, -99050.63796647049, -187500.02235174447, -187500.02235174447, -46971.43101351631, -45594.27298239148, -77571.52796644306, -48031.82012222053, -87375.6736368744, -31002.629518822378, 0.0, 0.0, 0.0, 193.0, 0.0, 1.0, 1.0, 0.0, 0.0, 1.0, 1.0, 256.0, 1.0, 1.750527682637302E9, 0.0, 2025-06-21 19:41:22.637
218.0, -43290.34457091625, -38111.91476725516, -29256.623000696065, -71545.47530954782, -27643.207030678637, -27769.65084906231, -52229.45537918274, -99098.91773449395, -187500.02235174447, -187500.02235174447, -46981.13167060992, -45611.93086051117, -77566.43176870725, -48054.1942184203, -87331.0595549416, -31031.597379636456, 0.0, 0.0, 0.0, 193.0, 0.0, 1.0, 1.0, 0.0, 0.0, 1.0, 1.0, 256.0, 1.0, 1.750527682644291E9, 0.0, 2025-06-21 19:41:22.644
220.0, -43256.81695423328, -38083.08101690782, -29231.812564350676, -71506.69503291787, -27636.590914319866, -27834.403852749332, -52194.7207682992, -99060.27156833072, -187500.02235174447, -187500.02235174447, -47021.029534462636, -45645.704346383136, -77602.90981565832, -48087.56537289207, -87372.09735776155, -31063.29215327408, 0.0, 0.0, 0.0, 193.0, 0.0, 1.0, 1.0, 0.0, 0.0, 1.0, 1.0, 256.0, 1.0, 1.750527682652305E9, 0.0, 2025-06-21 19:41:22.652
222.0, -43303.465044911514, -38123.31415692737, -29247.07880581365, -71526.76689943873, -27650.51605111552, -27811.292148982546, -52211.015190007114, -99084.00912094225, -187500.02235174447, -187500.02235174447, -46959.13755406589, -45588.50623232201, -77559.61448664838, -48025.561633773046, -87362.32964543458, -30998.829722264974, 0.0, 0.0, 0.0, 193.0, 0.0, 1.0, 1.0, 0.0, 0.0, 1.0, 1.0, 256.0, 1.0, 1.750527682660288E9, 0.0, 2025-06-21 19:41:22.660
224.0, -43349.733155933995, -38152.84081135283, -29273.6103264821, -71554.55011779668, -27669.447978669166, -27794.08130575196, -52241.72648688871, -99108.37252239854, -187500.02235174447, -187500.02235174447, -47049.3044911986, -45666.402061748755, -77617.326690832, -48118.6566494294, -87363.0225495127, -31097.24445310169, 0.0, 0.0, 0.0, 193.0, 0.0, 1.0, 1.0, 0.0, 0.0, 1.0, 1.0, 256.0, 1.0, 1.750527682668363E9, 0.0, 2025-06-21 19:41:22.668
226.0, -43337.95378660605, -38154.04780555342, -29230.27029398326, -71501.15180029295, -27643.94463824566, -27856.107396615436, -52196.15127994434, -99068.65347250146, -187500.02235174447, -187500.02235174447, -46993.894516693894, -45613.85311053433, -77589.23054805167, -48052.49548584169, -87394.04677081667, -31023.886027799374, 0.0, 0.0, 0.0, 193.0, 0.0, 1.0, 1.0, 0.0, 0.0, 1.0, 1.0, 256.0, 1.0, 1.750527682676389E9, 0.0, 2025-06-21 19:41:22.676
228.0, -43440.637700633735, -38235.20698967064, -29268.178852579458, -71557.72406550933, -27648.817318536916, -27783.620689346873, -52246.599167179964, -99118.87784229254, -187500.02235174447, -187500.02235174447, -47017.050923949595, -45642.016308548016, -77598.73003944517, -48081.32923618904, -87358.66395934392, -31057.614810182433, 0.0, 0.0, 0.0, 193.0, 0.0, 1.0, 1.0, 0.0, 0.0, 1.0, 1.0, 256.0, 1.0, 1.750527682684428E9, 0.0, 2025-06-21 19:41:22.684
230.0, -43425.460866148576, -38218.689050518165, -29237.44520395341, -71509.48900097478, -27643.452899867643, -27852.70993145823, -52197.470032867204, -99075.71662374934, -187500.02235174447, -187500.02235174447, -47033.65827007989, -45651.67226215271, -77612.69987972974, -48088.07946301454, -87373.95255255135, -31062.778063151607, 0.0, 0.0, 0.0, 193.0, 0.0, 1.0, 1.0, 0.0, 0.0, 1.0, 1.0, 256.0, 1.0, 1.750527682692468E9, 0.0, 2025-06-21 19:41:22.692
232.0, -43477.13809932925, -38273.71904536713, -29245.536535446234, -71528.10800410605, -27640.860097510827, -27820.232846764666, -52205.024922493096, -99086.31135062115, -187500.02235174447, -187500.02235174447, -46986.20551660127, -45605.82883427487, -77582.32385901497, -48034.27881411062, -87374.24312522926, -31004.574120589987, 0.0, 0.0, 0.0, 193.0, 0.0, 1.0, 1.0, 0.0, 0.0, 1.0, 1.0, 256.0, 1.0, 1.750527682699459E9, 0.0, 2025-06-21 19:41:22.699
234.0, -43554.34102467788, -38342.29419735601, -29281.03110564126, -71567.73764702531, -27664.79881582246, -27811.962701316203, -52241.2794519996, -99117.8943655365, -187500.02235174447, -187500.02235174447, -47071.991511820735, -45691.81599519444, -77643.94761847825, -48122.41174249789, -87365.95062803634, -31101.67009850384, 0.0, 0.0, 0.0, 193.0, 0.0, 1.0, 1.0, 0.0, 0.0, 1.0, 1.0, 256.0, 1.0, 1.750527682708515E9, 0.0, 2025-06-21 19:41:22.708
236.0, -43531.8775215003, -38324.7480779586, -29243.055491811694, -71517.40151851196, -27639.22842016559, -27871.57480377851, -52192.53029734258, -99069.79341146868, -187500.02235174447, -187500.02235174447, -47023.86820600846, -45640.183465502676, -77617.572560021, -48059.71509930076, -87398.91945110793, -31031.597379636456, 0.0, 0.0, 0.0, 193.0, 0.0, 1.0, 1.0, 0.0, 0.0, 1.0, 1.0, 256.0, 1.0, 1.750527682716564E9, 0.0, 2025-06-21 19:41:22.716
238.0, -43613.14846433979, -38404.05206728602, -29275.711390460896, -71565.12249292404, -27654.025274995005, -27804.228997734666, -52231.24351873917, -99111.01002824427, -187500.02235174447, -187500.02235174447, -47045.66115685239, -45661.37291924631, -77625.46272581372, -48080.010483266175, -87357.38990990997, -31055.960781092737, 0.0, 0.0, 0.0, 193.0, 0.0, 1.0, 1.0, 0.0, 0.0, 1.0, 1.0, 256.0, 1.0, 1.750527682724578E9, 0.0, 2025-06-21 19:41:22.724
240.0, -43594.17183329724, -38394.776093337074, -29259.46167224189, -71533.24890533077, -27642.08944345587, -27865.495129286664, -52195.34661714394, -99075.49310630478, -187500.02235174447, -187500.02235174447, -47075.25486651121, -45687.94914340367, -77654.49764186116, -48098.696541630816, -87382.69208463337, -31073.998638868172, 0.0, 0.0, 0.0, 193.0, 0.0, 1.0, 1.0, 0.0, 0.0, 1.0, 1.0, 256.0, 1.0, 1.750527682731604E9, 0.0, 2025-06-21 19:41:22.731
242.0, -43639.92585419725, -38445.76042243963, -29280.449960285423, -71567.96116446986, -27659.367341919824, -27847.144347088855, -52228.00251579315, -99103.87982176302, -187500.02235174447, -187500.02235174447, -47035.8040375476, -45657.08138431089, -77633.86698172892, -48059.737451045214, -87394.35969523904, -31031.82089708101, 0.0, 0.0, 0.0, 193.0, 0.0, 1.0, 1.0, 0.0, 0.0, 1.0, 1.0, 256.0, 1.0, 1.750527682740637E9, 0.0, 2025-06-21 19:41:22.740
244.0, -43672.805270291006, -38482.2831728796, -29288.518940033788, -71578.53353959722, -27663.792987321973, -27828.480640468675, -52222.39222793487, -99109.6912753214, -187500.02235174447, -187500.02235174447, -47101.987552879764, -45720.04624844149, -77675.77650258261, -48132.85000715852, -87377.61823864201, -31110.92372070834, 0.0, 0.0, 0.0, 193.0, 0.0, 1.0, 1.0, 0.0, 0.0, 1.0, 1.0, 256.0, 1.0, 1.750527682748677E9, 0.0, 2025-06-21 19:41:22.748
246.0, -43631.476894793144, -38453.292960321065, -29262.03212285425, -71538.45686178886, -27652.19243194967, -27881.834254483492, -52189.95984673022, -99078.2870743617, -187500.02235174447, -187500.02235174447, -47056.99349129123, -45672.682901940694, -77651.63661857089, -48069.102831971984, -87401.73577090929, -31041.253333241148, 0.0, 0.0, 0.0, 193.0, 0.0, 1.0, 1.0, 0.0, 0.0, 1.0, 1.0, 256.0, 1.0, 1.750527682755668E9, 0.0, 2025-06-21 19:41:22.755
248.0, -43708.657468397316, -38521.309318698564, -29299.13601865006, -71591.65401359249, -27662.76480707703, -27799.35631744341, -52236.45147519725, -99124.4434266619, -187500.02235174447, -187500.02235174447, -47080.84280262504, -45696.33104757441, -77660.331447164, -48099.0541695421, -87371.4268054279, -31074.110397590448, 0.0, 0.0, 0.0, 193.0, 0.0, 1.0, 1.0, 0.0, 0.0, 1.0, 1.0, 256.0, 1.0, 1.750527682763809E9, 0.0, 2025-06-21 19:41:22.763
250.0, -43650.47587758015, -38480.09270192298, -29260.422797253468, -71538.07688213311, -27636.81443176442, -27874.525234046607, -52183.09786118244, -99068.60876901256, -187500.02235174447, -187500.02235174447, -47085.067282327094, -45701.24843135458, -77664.80179605506, -48103.0551317996, -87383.11676777802, -31075.83148191351, 0.0, 0.0, 0.0, 193.0, 0.0, 1.0, 1.0, 0.0, 0.0, 1.0, 1.0, 256.0, 1.0, 1.750527682772756E9, 0.0, 2025-06-21 19:41:22.772
252.0, -43672.20177319071, -38508.52412087013, -29264.669628699976, -71552.31494335114, -27644.36932139031, -27843.255143553633, -52188.50698334062, -99078.64470227298, -187500.02235174447, -187500.02235174447, -47029.92552875585, -45653.683919153686, -77628.90489445983, -48050.05914569607, -87382.02153229971, -31019.23686495267, 0.0, 0.0, 0.0, 193.0, 0.0, 1.0, 1.0, 0.0, 0.0, 1.0, 1.0, 256.0, 1.0, 1.750527682779814E9, 0.0, 2025-06-21 19:41:22.779
254.0, -43733.46790474271, -38564.76110991968, -29312.45765834542, -71594.87266479405, -27677.226385739614, -27847.74784418915, -52225.25325122515, -99112.8428712896, -187500.02235174447, -187500.02235174447, -47111.93407916237, -45730.46216135766, -77685.36540095395, -48132.7606001807, -87376.7241688638, -31107.63801427341, 0.0, 0.0, 0.0, 193.0, 0.0, 1.0, 1.0, 0.0, 0.0, 1.0, 1.0, 256.0, 1.0, 1.750527682787816E9, 0.0, 2025-06-21 19:41:22.787
0.0, -43682.796500062526, -38530.741754858704, -29279.17591085147, -71545.96704792583, -27653.868812783818, -27895.535873834597, -52184.48366933867, -99071.35803358055, -187500.02235174447, -187500.02235174447, -47088.80002365113, -45694.20763185115, -77676.75997933865, -48082.58093387853, -87423.59577698658, -31050.641065912376, 0.0, 0.0, 0.0, 193.0, 0.0, 1.0, 1.0, 0.0, 0.0, 1.0, 1.0, 256.0, 1.0, 1.750527682796852E9, 0.0, 2025-06-21 19:41:22.796
2.0, -43730.51747447461, -38579.91559266038, -29289.45771330091, -71583.94266175541, -27646.559792346932, -27818.288244997057, -52220.44762616725, -99111.27824917773, -187500.02235174447, -187500.02235174447, -47082.51918345919, -45700.644934254284, -77664.89120303288, -48092.30394271659, -87369.63866587146, -31067.851909142963, 0.0, 0.0, 0.0, 193.0, 0.0, 1.0, 1.0, 0.0, 0.0, 1.0, 1.0, 256.0, 1.0, 1.75052768280487E9, 0.0, 2025-06-21 19:41:22.804
4.0, -43685.29989544152, -38543.39284222041, -29269.855233413607, -71546.41408281495, -27642.6258853228, -27879.934356204794, -52187.814079262505, -99080.8351732296, -187500.02235174447, -187500.02235174447, -47096.93605863286, -45716.112341417356, -77680.1350927514, -48110.073579558564, -87393.68914290538, -31084.593365739987, 0.0, 0.0, 0.0, 193.0, 0.0, 1.0, 1.0, 0.0, 0.0, 1.0, 1.0, 256.0, 1.0, 1.750527682811842E9, 0.0, 2025-06-21 19:41:22.811
6.0, -43714.71479114471, -38570.77372917816, -29278.684172473455, -71564.0943126791, -27647.56562084742, -27854.855698925938, -52205.42725389329, -99098.02366471573, -187500.02235174447, -187500.02235174447, -47050.399726676915, -45666.111489070834, -77645.13226093439, -48055.93765448781, -87389.93404983688, -31025.22713246669, 0.0, 0.0, 0.0, 193.0, 0.0, 1.0, 1.0, 0.0, 0.0, 1.0, 1.0, 256.0, 1.0, 1.750527682819931E9, 0.0, 2025-06-21 19:41:22.819
8.0, -43750.119954361915, -38604.368401094485, -29303.114629163105, -71587.78716180172, -27673.091313015382, -27830.961684103215, -52220.179405233794, -99110.0936067216, -187500.02235174447, -187500.02235174447, -47118.840768199065, -45734.64193757081, -77688.00290679967, -48133.229986814265, -87377.7299973643, -31108.465028818257, 0.0, 0.0, 0.0, 193.0, 0.0, 1.0, 1.0, 0.0, 0.0, 1.0, 1.0, 256.0, 1.0, 1.750527682829006E9, 0.0, 2025-06-21 19:41:22.829
10.0, -43703.27069798359, -38574.305304802096, -29274.638506727042, -71543.93303918041, -27658.294458185967, -27903.47074311623, -52188.171707173795, -99078.46588831734, -187500.02235174447, -187500.02235174447, -47075.79130837814, -45687.05507362546, -77668.75805482364, -48070.26512268366, -87416.2867565497, -31036.13478376088, 0.0, 0.0, 0.0, 193.0, 0.0, 1.0, 1.0, 0.0, 0.0, 1.0, 1.0, 256.0, 1.0, 1.750527682835956E9, 0.0, 2025-06-21 19:41:22.835
12.0, -43770.30357960505, -38637.225465443786, -29304.723954763886, -71599.00773751829, -27670.923193803217, -27832.168678303802, -52246.77798113561, -99133.40647618848, -187500.02235174447, -187500.02235174447, -47101.27229705719, -45716.33585886191, -77681.87852881891, -48101.557564921095, -87379.94282006536, -31074.356266779458, 0.0, 0.0, 0.0, 193.0, 0.0, 1.0, 1.0, 0.0, 0.0, 1.0, 1.0, 256.0, 1.0, 1.750527682844042E9, 0.0, 2025-06-21 19:41:22.844
14.0, -43709.84211085345, -38591.62790675496, -29274.347934049125, -71546.72700723732, -27642.93880974517, -27886.729286519207, -52188.19405891825, -99081.59513254109, -187500.02235174447, -187500.02235174447, -47108.491910516255, -45724.87422524384, -77690.46159868976, -48111.5040912037, -87393.64443941647, -31084.48160701771, 0.0, 0.0, 0.0, 193.0, 0.0, 1.0, 1.0, 0.0, 0.0, 1.0, 1.0, 256.0, 1.0, 1.750527682852084E9, 0.0, 2025-06-21 19:41:22.852
