%OpenBCI Raw EXG Data
%Number of channels = 16
%Sample Rate = 125 Hz
%Board = OpenBCI_GUI$BoardCytonSerialDaisy
Sample Index, EXG Channel 0, EXG Channel 1, EXG Channel 2, EXG Channel 3, EXG Channel 4, EXG Channel 5, EXG Channel 6, EXG Channel 7, EXG Channel 8, EXG Channel 9, EXG Channel 10, EXG Channel 11, EXG Channel 12, EXG Channel 13, EXG Channel 14, EXG Channel 15, Accel Channel 0, Accel Channel 1, Accel Channel 2, Not Used, Digital Channel 0 (D11), Digital Channel 1 (D12), Digital Channel 2 (D13), Digital Channel 3 (D17), Not Used, Digital Channel 4 (D18), Analog Channel 0, Analog Channel 1, Analog Channel 2, Timestamp, Marker Channel, Timestamp (Formatted)
64.0, -42430.67412742068, -38764.65276058349, -28348.449271732483, -69292.46417194179, -28000.901997196914, -27839.097719084948, -51654.07677341423, -98691.55719179598, -187500.02235174447, -187500.02235174447, -44952.554399079614, -43869.12064184197, -77375.6149262923, -46886.33792237496, -85511.11346615714, -29775.94343137067, 0.0, 0.0, 0.0, 193.0, 0.0, 1.0, 1.0, 0.0, 0.0, 1.0, 1.0, 256.0, 1.0, 1.750526164588179E9, 0.0, 2025-06-21 19:16:04.588
66.0, -42403.025019529465, -38741.2951876277, -28332.199553513477, -69264.1445117169, -28004.143000142933, -27890.0820481875, -51639.101104629175, -98672.4911537756, -187500.02235174447, -187500.02235174447, -44944.97715770926, -43853.31795851207, -77386.61198456431, -46859.94051217324, -85550.0949084872, -29755.089253793867, 0.0, 0.0, 0.0, 193.0, 0.0, 1.0, 1.0, 0.0, 0.0, 1.0, 1.0, 256.0, 1.0, 1.750526164588231E9, 0.0, 2025-06-21 19:16:04.588
0.0, -21022.888543950146, -19124.867811783293, -13943.085246453911, -34446.318083562626, -13658.70400174904, -13832.824091055882, -25542.791252468975, -49025.60103244794, -93750.01117587223, -93750.01117587223, -22459.613974048374, -21918.210019851926, -38681.906602609946, -23419.107308281342, -42761.859925014964, -14867.776914569964, 0.0, 0.0, 0.0, 193.0, 0.0, 1.0, 1.0, 0.0, 0.0, 1.0, 1.0, 256.0, 1.0, 1.75052616468514E9, 0.0, 2025-06-21 19:16:04.685
2.0, -42070.85574517915, -38273.227306989116, -27899.51448434764, -68920.53114420547, -27335.110585106682, -27644.324617901402, -51110.05766511651, -98069.77636453824, -187500.02235174447, -187500.02235174447, -44492.8013673784, -43412.653316575685, -76884.43534188693, -46382.976637241445, -85107.50801652766, -29507.968367095993, 0.0, 0.0, 0.0, 193.0, 0.0, 1.0, 1.0, 0.0, 0.0, 1.0, 1.0, 256.0, 1.0, 1.750526164692175E9, 0.0, 2025-06-21 19:16:04.692
4.0, -42090.122948899625, -38276.44595819068, -27919.116964234945, -68933.65161820073, -27325.521686735356, -27627.739623515565, -51126.88852869136, -98080.77342281025, -187500.02235174447, -187500.02235174447, -44554.402775097224, -43473.3606545163, -76922.61212141659, -46447.90845488411, -85105.45165603777, -29568.47453933651, 0.0, 0.0, 0.0, 193.0, 0.0, 1.0, 1.0, 0.0, 0.0, 1.0, 1.0, 256.0, 1.0, 1.7505261647002E9, 0.0, 2025-06-21 19:16:04.700
6.0, -42067.63709397759, -38261.22442021661, -27910.86917053094, -68911.29987374543, -27353.707236493497, -27675.10297001636, -51108.35893253791, -98070.22339942736, -187500.02235174447, -187500.02235174447, -44530.32994631886, -43426.1984737156, -76911.57035965567, -46401.5509368838, -85132.60902555098, -29527.727309194484, 0.0, 0.0, 0.0, 193.0, 0.0, 1.0, 1.0, 0.0, 0.0, 1.0, 1.0, 256.0, 1.0, 1.750526164708176E9, 0.0, 2025-06-21 19:16:04.708
8.0, -42072.777995202305, -38263.75016734006, -27899.38037388091, -68920.59819943884, -27325.45463150199, -27575.235375790046, -51106.816662170495, -98074.11260296257, -187500.02235174447, -187500.02235174447, -44519.64581246922, -43436.68144186514, -76896.68409784843, -46419.43233244805, -85105.20578684876, -29540.713672723017, 0.0, 0.0, 0.0, 193.0, 0.0, 1.0, 1.0, 0.0, 0.0, 1.0, 1.0, 256.0, 1.0, 1.750526164715257E9, 0.0, 2025-06-21 19:16:04.715
10.0, -42076.77895745981, -38272.28853372199, -27922.96146428126, -68929.0248070985, -27326.12518383565, -27694.39252548129, -51126.84382520245, -98082.36039666658, -187500.02235174447, -187500.02235174447, -44537.16958012219, -43448.527866426455, -76910.40806894399, -46425.98139357346, -85108.5361967726, -29547.866230948715, 0.0, 0.0, 0.0, 193.0, 0.0, 1.0, 1.0, 0.0, 0.0, 1.0, 1.0, 256.0, 1.0, 1.750526164724309E9, 0.0, 2025-06-21 19:16:04.724
12.0, -42090.2347076219, -38297.09897006738, -27921.173324724834, -68938.72546419209, -27333.747128694908, -27667.95041179066, -51124.429836801275, -98092.88806830504, -187500.02235174447, -187500.02235174447, -44538.93536793415, -43446.53856116993, -76921.06985104918, -46413.68793412304, -85134.30775812958, -29538.456146533033, 0.0, 0.0, 0.0, 193.0, 0.0, 1.0, 1.0, 0.0, 0.0, 1.0, 1.0, 256.0, 1.0, 1.75052616473234E9, 0.0, 2025-06-21 19:16:04.732
14.0, -42084.80323371926, -38284.38082747231, -27909.37160365243, -68936.46793800211, -27345.057111389295, -27637.172059675704, -51117.1655198533, -98084.90849553449, -187500.02235174447, -187500.02235174447, -44538.421277811685, -43459.256703765, -76905.44598167491, -46440.80060014732, -85095.34866754398, -29560.38320784369, 0.0, 0.0, 0.0, 193.0, 0.0, 1.0, 1.0, 0.0, 0.0, 1.0, 1.0, 256.0, 1.0, 1.750526164740355E9, 0.0, 2025-06-21 19:16:04.740
16.0, -42067.972370144416, -38269.67337962072, -27903.60485358296, -68919.86059187181, -27341.07850087625, -27652.974743005605, -51106.68255170376, -98075.85603903008, -187500.02235174447, -187500.02235174447, -44531.201664352615, -43444.9068838247, -76915.54897016872, -46418.6053179032, -85143.02493846715, -29542.524164023896, 0.0, 0.0, 0.0, 193.0, 0.0, 1.0, 1.0, 0.0, 0.0, 1.0, 1.0, 256.0, 1.0, 1.750526164747319E9, 0.0, 2025-06-21 19:16:04.747
18.0, -42095.62147803563, -38291.51103395355, -27916.971196767237, -68942.63701947177, -27325.611093713178, -27622.442260079657, -51134.286956106065, -98096.44199567342, -187500.02235174447, -187500.02235174447, -44532.58747250885, -43458.29557875342, -76911.90563582249, -46429.535320941846, -85105.16108335985, -29551.174289128103, 0.0, 0.0, 0.0, 193.0, 0.0, 1.0, 1.0, 0.0, 0.0, 1.0, 1.0, 256.0, 1.0, 1.750526164756404E9, 0.0, 2025-06-21 19:16:04.756
20.0, -42070.98985564588, -38270.00865578755, -27915.607740355463, -68924.2191820406, -27315.37399475265, -27692.783199880505, -51117.1655198533, -98079.67818733194, -187500.02235174447, -187500.02235174447, -44550.781792495465, -43458.63085492025, -76925.42844121795, -46436.82198963428, -85121.45550506777, -29557.790405486874, 0.0, 0.0, 0.0, 193.0, 0.0, 1.0, 1.0, 0.0, 0.0, 1.0, 1.0, 256.0, 1.0, 1.750526164764386E9, 0.0, 2025-06-21 19:16:04.764
22.0, -42059.81398341823, -38260.62092311632, -27896.787571524095, -68919.99470233855, -27321.587779711223, -27641.441242866666, -51100.40171151182, -98067.54119009271, -187500.02235174447, -187500.02235174447, -44510.32513503136, -43426.287880693424, -76901.1991502284, -46401.349771183704, -85122.81896147954, -29528.621378972697, 0.0, 0.0, 0.0, 193.0, 0.0, 1.0, 1.0, 0.0, 0.0, 1.0, 1.0, 256.0, 1.0, 1.750526164772451E9, 0.0, 2025-06-21 19:16:04.772
24.0, -42089.65356226606, -38280.133996025805, -27928.035310272615, -68948.2249555856, -27331.757823438387, -27600.85047493583, -51124.34042982345, -98084.28264668974, -187500.02235174447, -187500.02235174447, -44546.35614709332, -43469.09147132534, -76916.77831611375, -46448.131972328665, -85100.71308621325, -29569.70388528155, 0.0, 0.0, 0.0, 193.0, 0.0, 1.0, 1.0, 0.0, 0.0, 1.0, 1.0, 256.0, 1.0, 1.750526164779488E9, 0.0, 2025-06-21 19:16:04.779
26.0, -42072.576829502206, -38273.96491455614, -27916.591217111498, -68926.36494950831, -27342.240791587927, -27681.652031141763, -51106.99547612613, -98078.15826870898, -187500.02235174447, -187500.02235174447, -44536.43197255516, -43450.338357727334, -76926.09899355161, -46417.17480625806, -85140.02980471014, -29541.518335523408, 0.0, 0.0, 0.0, 193.0, 0.0, 1.0, 1.0, 0.0, 0.0, 1.0, 1.0, 256.0, 1.0, 1.750526164788519E9, 0.0, 2025-06-21 19:16:04.788
28.0, -42085.69730349747, -38286.370132728836, -27913.797249054584, -68932.82460365588, -27312.602378440188, -27642.93880974517, -51121.18883385525, -98087.03191125774, -187500.02235174447, -187500.02235174447, -44533.90622543171, -43443.07404077936, -76905.42362993046, -46428.86476860819, -85108.37973456141, -29546.636885003674, 0.0, 0.0, 0.0, 193.0, 0.0, 1.0, 1.0, 0.0, 0.0, 1.0, 1.0, 256.0, 1.0, 1.750526164795544E9, 0.0, 2025-06-21 19:16:04.795
30.0, -42072.24155333538, -38271.4838709216, -27915.183057210812, -68927.01315009751, -27346.42056780107, -27659.43439715319, -51109.96825813869, -98079.58878035413, -187500.02235174447, -187500.02235174447, -44539.42710631217, -43460.59780843232, -76917.8511998476, -46437.850169879224, -85119.0415166666, -29557.455129320042, 0.0, 0.0, 0.0, 193.0, 0.0, 1.0, 1.0, 0.0, 0.0, 1.0, 1.0, 256.0, 1.0, 1.750526164803525E9, 0.0, 2025-06-21 19:16:04.803
32.0, -42057.62351246161, -38256.46349864763, -27893.32305113352, -68907.8130016104, -27331.511954249378, -27635.093347441358, -51091.03633058505, -98065.64129181401, -187500.02235174447, -187500.02235174447, -44511.01803910948, -43425.77379057095, -76898.96397578287, -46398.8016723158, -85126.35053710348, -29520.2171230575, 0.0, 0.0, 0.0, 193.0, 0.0, 1.0, 1.0, 0.0, 0.0, 1.0, 1.0, 256.0, 1.0, 1.750526164812629E9, 0.0, 2025-06-21 19:16:04.812
34.0, -42087.21722212043, -38282.10094953787, -27920.994510769193, -68934.63509495677, -27337.16694559657, -27618.106021655327, -51138.84671197495, -98090.47407990386, -187500.02235174447, -187500.02235174447, -44535.49319928804, -43453.557008928896, -76904.39544968551, -46435.8608646227, -85095.19220533279, -29551.397806572655, 0.0, 0.0, 0.0, 193.0, 0.0, 1.0, 1.0, 0.0, 0.0, 1.0, 1.0, 256.0, 1.0, 1.750526164820653E9, 0.0, 2025-06-21 19:16:04.820
36.0, -42071.83922193518, -38270.09806276537, -27917.57469386753, -68920.97817909459, -27339.625637486653, -27688.603423667366, -51120.02654314358, -98081.44397514392, -187500.02235174447, -187500.02235174447, -44528.65356548471, -43437.97784304355, -76916.24187424683, -46408.94936429851, -85136.52058083065, -29532.08589936327, 0.0, 0.0, 0.0, 193.0, 0.0, 1.0, 1.0, 0.0, 0.0, 1.0, 1.0, 256.0, 1.0, 1.750526164827683E9, 0.0, 2025-06-21 19:16:04.827
38.0, -42100.9858967049, -38294.61792643284, -27931.76805159665, -68936.31147579092, -27313.339986007213, -27629.103079927336, -51132.118836893904, -98091.77048108226, -187500.02235174447, -187500.02235174447, -44550.69238551764, -43451.21007576109, -76922.07567954966, -46438.47601872397, -85124.9423772028, -29555.04114091887, 0.0, 0.0, 0.0, 193.0, 0.0, 1.0, 1.0, 0.0, 0.0, 1.0, 1.0, 256.0, 1.0, 1.750526164835687E9, 0.0, 2025-06-21 19:16:04.835
40.0, -42056.43887000548, -38254.027158502, -27899.08980120299, -68906.22602775408, -27342.754881710396, -27639.69780679915, -51100.82639465647, -98057.95229172139, -187500.02235174447, -187500.02235174447, -44543.83039996987, -43447.633796648246, -76914.72195562387, -46434.05037332182, -85123.86949346894, -29549.386149571677, 0.0, 0.0, 0.0, 193.0, 0.0, 1.0, 1.0, 0.0, 0.0, 1.0, 1.0, 256.0, 1.0, 1.750526164844765E9, 0.0, 2025-06-21 19:16:04.844
42.0, -42087.77601573182, -38280.066940792436, -27923.162629981358, -68939.59718222584, -27355.964762683485, -27644.816356279418, -51115.28797331906, -98089.62471361455, -187500.02235174447, -187500.02235174447, -44509.78869316443, -43426.086714993326, -76895.7006210924, -46402.22148921746, -85128.07162142654, -29521.60293121373, 0.0, 0.0, 0.0, 193.0, 0.0, 1.0, 1.0, 0.0, 0.0, 1.0, 1.0, 256.0, 1.0, 1.750526164851742E9, 0.0, 2025-06-21 19:16:04.851
44.0, -42094.97327744643, -38289.924060097226, -27931.075147518535, -68952.04710388745, -27338.3515880527, -27613.725079742086, -51140.9701276982, -98098.43130092995, -187500.02235174447, -187500.02235174447, -44564.59517056885, -43487.97869539007, -76930.0105488313, -46461.610074235214, -85119.75677248917, -29577.169367929622, 0.0, 0.0, 0.0, 193.0, 0.0, 1.0, 1.0, 0.0, 0.0, 1.0, 1.0, 256.0, 1.0, 1.750526164859756E9, 0.0, 2025-06-21 19:16:04.859
46.0, -42071.593352746175, -38270.65685637675, -27921.687414847307, -68925.53793496346, -27344.252448588904, -27675.818225838928, -51143.20530214373, -98103.25927773229, -187500.02235174447, -187500.02235174447, -44535.22497835457, -43445.48802918053, -76922.0533278052, -46419.63349814815, -85144.7013193013, -29543.127661124192, 0.0, 0.0, 0.0, 193.0, 0.0, 1.0, 1.0, 0.0, 0.0, 1.0, 1.0, 256.0, 1.0, 1.750526164867772E9, 0.0, 2025-06-21 19:16:04.867
48.0, -42096.89552746958, -38289.67819090822, -27929.130545750922, -68942.39115028277, -27350.823861458764, -27635.540382330466, -51176.934084526794, -98128.69556292244, -187500.02235174447, -187500.02235174447, -44538.44362955614, -43447.477334437055, -76910.87745557755, -46436.307899511805, -85121.14258064539, -29555.532879296887, 0.0, 0.0, 0.0, 193.0, 0.0, 1.0, 1.0, 0.0, 0.0, 1.0, 1.0, 256.0, 1.0, 1.750526164876807E9, 0.0, 2025-06-21 19:16:04.876
50.0, -42075.12492837011, -38263.43724291769, -27928.43764167281, -68924.10742331832, -27360.770387741377, -27674.298307215966, -51142.71356376572, -98095.6596846175, -187500.02235174447, -187500.02235174447, -44555.63212104227, -43455.725128141064, -76925.0037580733, -46445.29330078284, -85139.56041807657, -29563.311286367334, 0.0, 0.0, 0.0, 193.0, 0.0, 1.0, 1.0, 0.0, 0.0, 1.0, 1.0, 256.0, 1.0, 1.75052616488381E9, 0.0, 2025-06-21 19:16:04.883
52.0, -42089.1841756325, -38285.40900771726, -27928.95173179528, -68939.95481013713, -27345.79471895632, -27669.939717047182, -51128.207281614224, -98091.88223980454, -187500.02235174447, -187500.02235174447, -44534.88970218774, -43438.246063977014, -76920.48870569334, -46408.01059103139, -85139.13573493192, -29530.02953887338, 0.0, 0.0, 0.0, 193.0, 0.0, 1.0, 1.0, 0.0, 0.0, 1.0, 1.0, 256.0, 1.0, 1.750526164891846E9, 0.0, 2025-06-21 19:16:04.891
54.0, -42079.61762900563, -38270.29922846547, -27919.67575784633, -68934.85861240132, -27322.817125656264, -27589.27227130798, -51124.563947268005, -98079.65583558749, -187500.02235174447, -187500.02235174447, -44564.01402521301, -43475.372311517276, -76929.31764475319, -46449.09309734024, -85113.96767067525, -29564.451225334553, 0.0, 0.0, 0.0, 193.0, 0.0, 1.0, 1.0, 0.0, 0.0, 1.0, 1.0, 256.0, 1.0, 1.75052616489989E9, 0.0, 2025-06-21 19:16:04.899
56.0, -42065.647788721064, -38262.38671092829, -27909.170437952333, -68922.18517329516, -27329.232076314936, -27652.080673227392, -51110.05766511651, -98071.6986145614, -187500.02235174447, -187500.02235174447, -44537.32604233337, -43446.51620942548, -76920.98044407135, -46408.61408813168, -85132.87724648444, -29532.041195874357, 0.0, 0.0, 0.0, 193.0, 0.0, 1.0, 1.0, 0.0, 0.0, 1.0, 1.0, 256.0, 1.0, 1.750526164907904E9, 0.0, 2025-06-21 19:16:04.907
58.0, -42087.41838782053, -38289.45467346367, -27917.15001072288, -68946.23565032908, -27337.92690490805, -27634.445146852155, -51123.98280191217, -98092.44103341592, -187500.02235174447, -187500.02235174447, -44531.46988528608, -43450.67363389416, -76903.85900781858, -46424.014440061386, -85101.11541761344, -29544.111137880223, 0.0, 0.0, 0.0, 193.0, 0.0, 1.0, 1.0, 0.0, 0.0, 1.0, 1.0, 256.0, 1.0, 1.750526164915874E9, 0.0, 2025-06-21 19:16:04.915
60.0, -42067.61474223313, -38264.73364409609, -27914.490153132698, -68921.8722488728, -27325.298169290803, -27658.696789586164, -51111.51052850611, -98079.0970419761, -187500.02235174447, -187500.02235174447, -44546.803181982425, -43462.922389855674, -76923.7073568949, -46439.884178624656, -85123.82478998003, -29561.254925877445, 0.0, 0.0, 0.0, 193.0, 0.0, 1.0, 1.0, 0.0, 0.0, 1.0, 1.0, 256.0, 1.0, 1.750526164923983E9, 0.0, 2025-06-21 19:16:04.923
62.0, -42079.46116679444, -38279.016408803036, -27916.792382811593, -68927.99662685355, -27339.290361319825, -27635.85330675284, -51116.40556054182, -98079.92405652095, -187500.02235174447, -187500.02235174447, -44530.19583585213, -43435.98853778703, -76914.4537346904, -46405.37308518566, -85131.62554879494, -29530.007187128926, 0.0, 0.0, 0.0, 193.0, 0.0, 1.0, 1.0, 0.0, 0.0, 1.0, 1.0, 256.0, 1.0, 1.750526164932983E9, 0.0, 2025-06-21 19:16:04.932
64.0, -42090.8382047222, -38273.16025175575, -27926.38128118292, -68936.78086242448, -27338.038663630326, -27615.64732976524, -51114.61742098539, -98071.76566979477, -187500.02235174447, -187500.02235174447, -44556.05680418692, -43469.47145098108, -76922.74623188331, -46439.303033268814, -85103.81997869254, -29557.23161187549, 0.0, 0.0, 0.0, 193.0, 0.0, 1.0, 1.0, 0.0, 0.0, 1.0, 1.0, 256.0, 1.0, 1.75052616493896E9, 0.0, 2025-06-21 19:16:04.938
66.0, -42079.282352838796, -38266.41002493024, -27918.513467134653, -68928.06368208691, -27334.59649498421, -27711.983348367616, -51120.18300535477, -98079.83464954313, -187500.02235174447, -187500.02235174447, -44545.193856381644, -43445.82330534736, -76931.39635698752, -46403.4061316736, -85137.41465060886, -29527.302626049834, 0.0, 0.0, 0.0, 193.0, 0.0, 1.0, 1.0, 0.0, 0.0, 1.0, 1.0, 256.0, 1.0, 1.750526164948066E9, 0.0, 2025-06-21 19:16:04.948
68.0, -42098.996591448384, -38302.508092225566, -27923.632016614916, -68950.23661258658, -27345.906477678596, -27624.56567580291, -51138.93611895277, -98098.31954220767, -187500.02235174447, -187500.02235174447, -44551.541751806944, -43467.14686955773, -76929.78703138675, -46433.67039366608, -85117.94628118828, -29556.359893841734, 0.0, 0.0, 0.0, 193.0, 0.0, 1.0, 1.0, 0.0, 0.0, 1.0, 1.0, 256.0, 1.0, 1.750526164956027E9, 0.0, 2025-06-21 19:16:04.956
70.0, -42073.94028591398, -38274.121376767325, -27923.855534059472, -68933.20458331163, -27341.21261134298, -27678.545138662477, -51110.39294128334, -98070.55867559418, -187500.02235174447, -187500.02235174447, -44551.11706866229, -43465.9622271016, -76930.79285988722, -46436.464361722996, -85123.73538300222, -29557.43277757559, 0.0, 0.0, 0.0, 193.0, 0.0, 1.0, 1.0, 0.0, 0.0, 1.0, 1.0, 256.0, 1.0, 1.750526164964084E9, 0.0, 2025-06-21 19:16:04.964
72.0, -42083.842108707686, -38290.72872289762, -27919.072260746034, -68945.78861543997, -27334.797660684308, -27628.79015550496, -51109.07418836048, -98076.16896345247, -187500.02235174447, -187500.02235174447, -44534.93440567666, -43448.0584797929, -76921.51688593828, -46409.396399187615, -85131.7373075172, -29532.711748208018, 0.0, 0.0, 0.0, 193.0, 0.0, 1.0, 1.0, 0.0, 0.0, 1.0, 1.0, 256.0, 1.0, 1.750526164972068E9, 0.0, 2025-06-21 19:16:04.972
74.0, -42095.509719313355, -38297.70246716768, -27930.873981818437, -68957.65739174574, -27339.625637486653, -27626.219704892603, -51124.720409479196, -98090.2058589704, -187500.02235174447, -187500.02235174447, -44571.05482471643, -43493.834852437365, -76943.77922341577, -46466.4156992931, -85122.37192659044, -29581.14797844267, 0.0, 0.0, 0.0, 193.0, 0.0, 1.0, 1.0, 0.0, 0.0, 1.0, 1.0, 256.0, 1.0, 1.750526164980146E9, 0.0, 2025-06-21 19:16:04.980
76.0, -42069.626399234105, -38271.99796104407, -27917.86526654545, -68930.63413269927, -27335.401157784603, -27709.56935996644, -51112.3151913065, -98081.95806526639, -187500.02235174447, -187500.02235174447, -44543.83039996987, -43457.98265433105, -76933.85504887761, -46421.13106502665, -85147.83056352503, -29543.932323924582, 0.0, 0.0, 0.0, 193.0, 0.0, 1.0, 1.0, 0.0, 0.0, 1.0, 1.0, 256.0, 1.0, 1.750526164988175E9, 0.0, 2025-06-21 19:16:04.988
78.0, -42072.84505043567, -38267.30409470846, -27896.742868035184, -68925.40382449672, -27313.228227284937, -27606.930149427673, -51121.211185599714, -98081.06399548818, -187500.02235174447, -187500.02235174447, -44534.73323997656, -43452.84175310633, -76911.39154570003, -46427.09898079622, -85109.02793515062, -29547.75447222644, 0.0, 0.0, 0.0, 193.0, 0.0, 1.0, 1.0, 0.0, 0.0, 1.0, 1.0, 256.0, 1.0, 1.750526164995194E9, 0.0, 2025-06-21 19:16:04.995
80.0, -42067.01124513284, -38272.534402911, -27917.597045611987, -68930.67883618818, -27342.46430903248, -27667.168100734725, -51130.06247640401, -98087.61305661358, -187500.02235174447, -187500.02235174447, -44526.753667206016, -43444.16927625767, -76907.74821135381, -46420.39345745963, -85108.35738281696, -29542.255943090433, 0.0, 0.0, 0.0, 193.0, 0.0, 1.0, 1.0, 0.0, 0.0, 1.0, 1.0, 256.0, 1.0, 1.750526165004243E9, 0.0, 2025-06-21 19:16:05.004
82.0, -42073.31443706923, -38268.935772053694, -27912.120868220434, -68930.9247053772, -27338.463346774977, -27632.209972406625, -51136.49977880714, -98096.62080962906, -187500.02235174447, -187500.02235174447, -44537.43780105565, -43445.68919488063, -76924.5567231842, -46419.99112605943, -85148.36700539196, -29543.41823380211, 0.0, 0.0, 0.0, 193.0, 0.0, 1.0, 1.0, 0.0, 0.0, 1.0, 1.0, 256.0, 1.0, 1.750526165012211E9, 0.0, 2025-06-21 19:16:05.012
84.0, -42060.88686715208, -38249.936789266685, -27921.32978693602, -68936.78086242448, -27326.795736169308, -27629.505411327533, -51131.53769153806, -98098.92303930796, -187500.02235174447, -187500.02235174447, -44541.17054237969, -43455.05457580741, -76908.32935670964, -46447.0143851059, -85109.07263863953, -29562.886603222683, 0.0, 0.0, 0.0, 193.0, 0.0, 1.0, 1.0, 0.0, 0.0, 1.0, 1.0, 256.0, 1.0, 1.750526165019333E9, 0.0, 2025-06-21 19:16:05.019
86.0, -42044.748907655354, -38261.22442021661, -27899.42507736982, -68910.38345222277, -27328.829744914743, -27666.85517631235, -51106.48138600367, -98082.8968385335, -187500.02235174447, -187500.02235174447, -44533.83917019834, -43439.18483724414, -76918.18647601444, -46421.44398944903, -85153.75377580569, -29542.971198913005, 0.0, 0.0, 0.0, 193.0, 0.0, 1.0, 1.0, 0.0, 0.0, 1.0, 1.0, 256.0, 1.0, 1.750526165027306E9, 0.0, 2025-06-21 19:16:05.027
88.0, -42062.719710197416, -38274.09902502287, -27896.117019190435, -68932.37756876678, -27329.209724570483, -27602.772724958984, -51128.18492986976, -98096.12907125105, -187500.02235174447, -187500.02235174447, -44507.575870463355, -43433.015755774475, -76883.67538257544, -46413.41971318957, -85094.32048729903, -29533.13643135267, 0.0, 0.0, 0.0, 193.0, 0.0, 1.0, 1.0, 0.0, 0.0, 1.0, 1.0, 256.0, 1.0, 1.750526165036365E9, 0.0, 2025-06-21 19:16:05.036
90.0, -42027.71687838041, -38238.35858563883, -27883.66709752883, -68901.88978932974, -27311.03775632832, -27688.24579575608, -51108.425987771276, -98076.41483264147, -187500.02235174447, -187500.02235174447, -44518.52822524646, -43441.7552878565, -76897.93579553792, -46424.640288906136, -85111.28546134061, -29543.954675669036, 0.0, 0.0, 0.0, 193.0, 0.0, 1.0, 1.0, 0.0, 0.0, 1.0, 1.0, 256.0, 1.0, 1.750526165044363E9, 0.0, 2025-06-21 19:16:05.044
92.0, -42038.84804711915, -38248.752146810555, -27883.577690551007, -68912.30570224593, -27291.05529678527, -27660.574336120408, -51108.291877304546, -98074.4478791294, -187500.02235174447, -187500.02235174447, -44485.09001554132, -43409.21114792957, -76878.91446100647, -46383.46837561946, -85104.51288277065, -29509.644747930142, 0.0, 0.0, 0.0, 193.0, 0.0, 1.0, 1.0, 0.0, 0.0, 1.0, 1.0, 256.0, 1.0, 1.750526165051357E9, 0.0, 2025-06-21 19:16:05.051
94.0, -42053.73430892638, -38256.10587073635, -27899.872112258927, -68928.26484778701, -27293.223415997436, -27641.93298124468, -51123.31224957851, -98082.82978330014, -187500.02235174447, -187500.02235174447, -44516.51656824548, -43443.4540204351, -76891.27497569025, -46429.02123081937, -85086.27385929512, -29548.827355960293, 0.0, 0.0, 0.0, 193.0, 0.0, 1.0, 1.0, 0.0, 0.0, 1.0, 1.0, 256.0, 1.0, 1.750526165059435E9, 0.0, 2025-06-21 19:16:05.059
96.0, -42023.0677155337, -38238.962082739126, -27888.159798164346, -68909.86936210029, -27314.815201141264, -27642.223553922602, -51105.98964762565, -98071.83272502813, -187500.02235174447, -187500.02235174447, -44517.0083066235, -43442.93993031263, -76914.27492073477, -46409.37404744316, -85139.8956942434, -29535.818640687306, 0.0, 0.0, 0.0, 193.0, 0.0, 1.0, 1.0, 0.0, 0.0, 1.0, 1.0, 256.0, 1.0, 1.750526165068417E9, 0.0, 2025-06-21 19:16:05.068
98.0, -42046.09001232267, -38256.17292596972, -27893.56892032253, -68930.522373977, -27311.350680750693, -27645.956295246637, -51131.09065664896, -98095.72673985086, -187500.02235174447, -187500.02235174447, -44494.455396468096, -43437.5531598989, -76887.96691751086, -46412.07860852225, -85090.14071108589, -29533.78463194187, 0.0, 0.0, 0.0, 193.0, 0.0, 1.0, 1.0, 0.0, 0.0, 1.0, 1.0, 256.0, 1.0, 1.75052616507546E9, 0.0, 2025-06-21 19:16:05.075
100.0, -42014.4175904295, -38222.77941975348, -27887.04221094158, -68907.79064986594, -27278.40420942357, -27692.51497894704, -51110.43764477225, -98074.82785878514, -187500.02235174447, -187500.02235174447, -44513.6555449552, -43441.50941866749, -76899.23219671634, -46423.96973657248, -85109.87730143992, -29542.747681468452, 0.0, 0.0, 0.0, 193.0, 0.0, 1.0, 1.0, 0.0, 0.0, 1.0, 1.0, 256.0, 1.0, 1.750526165083489E9, 0.0, 2025-06-21 19:16:05.083
102.0, -42004.15813972451, -38219.024326684994, -27867.61854500992, -68906.22602775408, -27278.426561168024, -27628.56663806041, -51109.99060988315, -98075.63252158553, -187500.02235174447, -187500.02235174447, -44485.648809152706, -43424.14211322572, -76884.52474886474, -46395.203041458495, -85112.96184217476, -29518.473686989986, 0.0, 0.0, 0.0, 193.0, 0.0, 1.0, 1.0, 0.0, 0.0, 1.0, 1.0, 256.0, 1.0, 1.750526165092518E9, 0.0, 2025-06-21 19:16:05.092
104.0, -42005.14161648055, -38223.53937906497, -27870.434864811286, -68908.23768475505, -27280.415866424548, -27647.878545269796, -51126.106217635424, -98080.12522222105, -187500.02235174447, -187500.02235174447, -44485.626457408245, -43431.83111331834, -76866.68805678941, -46415.81134984629, -85066.64902766336, -29532.778803441382, 0.0, 0.0, 0.0, 193.0, 0.0, 1.0, 1.0, 0.0, 0.0, 1.0, 1.0, 256.0, 1.0, 1.750526165100584E9, 0.0, 2025-06-21 19:16:05.100
106.0, -41986.54496509373, -38208.00491666853, -27869.94312643327, -68897.62060613878, -27275.5878896222, -27668.10687400185, -51103.508603991104, -98071.78802153922, -187500.02235174447, -187500.02235174447, -44472.01424503497, -43409.83699677432, -76873.84061501511, -46382.484898863426, -85105.02697289312, -29507.387221740155, 0.0, 0.0, 0.0, 193.0, 0.0, 1.0, 1.0, 0.0, 0.0, 1.0, 1.0, 256.0, 1.0, 1.750526165107645E9, 0.0, 2025-06-21 19:16:05.107
108.0, -42025.28053823478, -38238.44799261665, -27895.9829087237, -68934.09865308984, -27307.461477215467, -27616.809620476917, -51128.69901999224, -98099.41477768598, -187500.02235174447, -187500.02235174447, -44493.6507336677, -43440.03420353344, -76883.89890002, -46417.1077510247, -85096.26508906664, -29538.970236655503, 0.0, 0.0, 0.0, 193.0, 0.0, 1.0, 1.0, 0.0, 0.0, 1.0, 1.0, 256.0, 1.0, 1.750526165115648E9, 0.0, 2025-06-21 19:16:05.115
110.0, -41984.756825537304, -38199.28773633096, -27878.235623626188, -68900.72749861807, -27277.331325689713, -27671.683153114696, -51117.76901695359, -98082.51685887777, -187500.02235174447, -187500.02235174447, -44509.94515537562, -43443.632834390744, -76899.38865892752, -46431.56932968728, -85117.76746723264, -29554.348236840757, 0.0, 0.0, 0.0, 193.0, 0.0, 1.0, 1.0, 0.0, 0.0, 1.0, 1.0, 256.0, 1.0, 1.750526165123732E9, 0.0, 2025-06-21 19:16:05.123
112.0, -41987.282572660755, -38206.574405023384, -27858.700198972252, -68889.68573685715, -27278.35950593466, -27651.65599008274, -51122.97697341168, -98086.94250427991, -187500.02235174447, -187500.02235174447, -44454.35636691527, -43390.145109909194, -76856.9426962069, -46375.26528540436, -85094.8792809104, -29503.430962971564, 0.0, 0.0, 0.0, 193.0, 0.0, 1.0, 1.0, 0.0, 0.0, 1.0, 1.0, 256.0, 1.0, 1.750526165131733E9, 0.0, 2025-06-21 19:16:05.131
114.0, -41986.94729649393, -38195.84556768484, -27859.102530372445, -68896.50301891602, -27277.91247104555, -27595.821332433385, -51108.20247032672, -98075.58781809662, -187500.02235174447, -187500.02235174447, -44477.49042242652, -43420.92346202415, -76859.62490554154, -46412.45858817799, -85061.66458864983, -29534.65634997563, 0.0, 0.0, 0.0, 193.0, 0.0, 1.0, 1.0, 0.0, 0.0, 1.0, 1.0, 256.0, 1.0, 1.750526165139745E9, 0.0, 2025-06-21 19:16:05.139
116.0, -41991.060017473705, -38214.30810860492, -27882.370696350423, -68911.27752200098, -27284.97562229343, -27698.617005183343, -51112.80692968451, -98089.62471361455, -187500.02235174447, -187500.02235174447, -44482.966599818064, -43422.71160158057, -76883.89890002, -46398.53345138234, -85120.40497307837, -29524.55336148183, 0.0, 0.0, 0.0, 193.0, 0.0, 1.0, 1.0, 0.0, 0.0, 1.0, 1.0, 256.0, 1.0, 1.750526165147789E9, 0.0, 2025-06-21 19:16:05.147
118.0, -41998.30198267722, -38216.67739351719, -27869.33962933298, -68916.99956858154, -27276.191386722494, -27601.40926854721, -51120.9653164107, -98089.8482310591, -187500.02235174447, -187500.02235174447, -44474.718806114055, -43417.43658988913, -76863.00001895429, -46411.43040793305, -85082.80933890455, -29533.739928452964, 0.0, 0.0, 0.0, 193.0, 0.0, 1.0, 1.0, 0.0, 0.0, 1.0, 1.0, 256.0, 1.0, 1.750526165156844E9, 0.0, 2025-06-21 19:16:05.156
120.0, -41975.01146495479, -38191.93401240516, -27869.205518866245, -68899.20757999511, -27266.82600579572, -27640.681283555186, -51099.0606068445, -98064.41194586897, -187500.02235174447, -187500.02235174447, -44478.38449220473, -43425.237348704024, -76869.48202484632, -46411.27394572186, -85092.10766459795, -29533.516411008408, 0.0, 0.0, 0.0, 193.0, 0.0, 1.0, 1.0, 0.0, 0.0, 1.0, 1.0, 256.0, 1.0, 1.750526165163821E9, 0.0, 2025-06-21 19:16:05.163
122.0, -42009.12022699359, -38224.3216901209, -27888.09274293098, -68913.66915865769, -27296.665584643553, -27666.341086189877, -51125.8156449575, -98093.62567587206, -187500.02235174447, -187500.02235174447, -44481.89371608421, -43422.04104924692, -76882.53544360823, -46389.34688441121, -85114.66057475336, -29513.60100669873, 0.0, 0.0, 0.0, 193.0, 0.0, 1.0, 1.0, 0.0, 0.0, 1.0, 1.0, 256.0, 1.0, 1.750526165171865E9, 0.0, 2025-06-21 19:16:05.171
124.0, -42016.38454394157, -38223.002937198034, -27886.14814116337, -68913.28917900195, -27299.437200956014, -27622.554018801933, -51136.90211020734, -98093.64802761651, -187500.02235174447, -187500.02235174447, -44503.70901867259, -43438.26841572147, -76884.144769209, -46422.00278306041, -85084.55277497206, -29538.903181422138, 0.0, 0.0, 0.0, 193.0, 0.0, 1.0, 1.0, 0.0, 0.0, 1.0, 1.0, 256.0, 1.0, 1.750526165179877E9, 0.0, 2025-06-21 19:16:05.179
126.0, -41971.4575375864, -38185.02732336847, -27855.57095474851, -68874.79947504992, -27276.213738466948, -27672.979554293106, -51097.943019621736, -98065.03779471372, -187500.02235174447, -187500.02235174447, -44483.41363470717, -43412.92153750915, -76885.97761225434, -46384.74242505341, -85119.22033062224, -29510.047079330336, 0.0, 0.0, 0.0, 193.0, 0.0, 1.0, 1.0, 0.0, 0.0, 1.0, 1.0, 256.0, 1.0, 1.750526165187978E9, 0.0, 2025-06-21 19:16:05.187
128.0, -42005.7674653253, -38225.3722221103, -27880.22492888271, -68916.4184232257, -27272.101017487174, -27630.533591572475, -51133.03525841657, -98097.2019549849, -187500.02235174447, -187500.02235174447, -44469.46614616706, -43406.17131068365, -76857.92617296294, -46391.87263153466, -85076.2826295236, -29513.198675298536, 0.0, 0.0, 0.0, 193.0, 0.0, 1.0, 1.0, 0.0, 0.0, 1.0, 1.0, 256.0, 1.0, 1.750526165195952E9, 0.0, 2025-06-21 19:16:05.195
130.0, -41986.656723816006, -38204.94272767815, -27881.141350405378, -68900.23576024006, -27282.24870946988, -27661.356647176344, -51108.1130633489, -98078.94057976492, -187500.02235174447, -187500.02235174447, -44495.975315091055, -43428.254834205494, -76882.93777500842, -46410.648096877114, -85094.56635648804, -29532.152954596637, 0.0, 0.0, 0.0, 193.0, 0.0, 1.0, 1.0, 0.0, 0.0, 1.0, 1.0, 256.0, 1.0, 1.750526165203997E9, 0.0, 2025-06-21 19:16:05.203
132.0, -42001.65474434552, -38217.012669684016, -27876.179263136302, -68908.41649871069, -27289.8930060736, -27616.22847512108, -51106.50373774812, -98084.7967368122, -187500.02235174447, -187500.02235174447, -44478.65271313819, -43410.06051421887, -76875.40523712698, -46386.84348903221, -85104.334068815, -29508.907140363117, 0.0, 0.0, 0.0, 193.0, 0.0, 1.0, 1.0, 0.0, 0.0, 1.0, 1.0, 256.0, 1.0, 1.750526165212057E9, 0.0, 2025-06-21 19:16:05.212
134.0, -41989.29422966173, -38203.020477654994, -27869.630202010896, -68901.53216141846, -27268.569441863234, -27613.210989619613, -51098.52416497757, -98067.00474822578, -187500.02235174447, -187500.02235174447, -44493.51662320097, -43437.24023547652, -76873.55004233719, -46420.88519583764, -85070.6276381764, -29537.89735292165, 0.0, 0.0, 0.0, 193.0, 0.0, 1.0, 1.0, 0.0, 0.0, 1.0, 1.0, 256.0, 1.0, 1.750526165219087E9, 0.0, 2025-06-21 19:16:05.219
136.0, -41991.194127940435, -38210.217739369604, -27887.1316179194, -68907.72359463258, -27293.513988675357, -27631.09238518386, -51111.17525233928, -98081.73454782183, -187500.02235174447, -187500.02235174447, -44492.980181334045, -43426.645508604706, -76893.06311524667, -46391.89498327911, -85114.95114743127, -29515.724422421983, 0.0, 0.0, 0.0, 193.0, 0.0, 1.0, 1.0, 0.0, 0.0, 1.0, 1.0, 256.0, 1.0, 1.750526165228107E9, 0.0, 2025-06-21 19:16:05.228
138.0, -42012.249471217336, -38224.9251872212, -27886.2822516301, -68916.0607953144, -27279.052410012773, -27649.443167381665, -51124.45218854573, -98091.39050142652, -187500.02235174447, -187500.02235174447, -44483.748910874005, -43417.52599686694, -76870.10787369107, -46399.963963027476, -85075.79089114557, -29519.59127421275, 0.0, 0.0, 0.0, 193.0, 0.0, 1.0, 1.0, 0.0, 0.0, 1.0, 1.0, 256.0, 1.0, 1.750526165236126E9, 0.0, 2025-06-21 19:16:05.236
140.0, -41992.49052911884, -38205.188596867156, -27886.550472563562, -68902.76150736351, -27283.187482737005, -27661.937792532182, -51108.1130633489, -98071.36333839457, -187500.02235174447, -187500.02235174447, -44496.24353602452, -43426.91372953817, -76885.73174306533, -46414.96198355699, -85103.8870339259, -29534.119908108703, 0.0, 0.0, 0.0, 193.0, 0.0, 1.0, 1.0, 0.0, 0.0, 1.0, 1.0, 256.0, 1.0, 1.75052616524318E9, 0.0, 2025-06-21 19:16:05.243
142.0, -42009.723724093885, -38226.48980933306, -27885.812864996537, -68914.22795226908, -27295.5927009097, -27637.641446309262, -51128.92253743679, -98094.0503590167, -187500.02235174447, -187500.02235174447, -44481.67019863966, -43413.5473863539, -76885.50822562078, -46390.598582100705, -85112.7383247302, -29514.115096821202, 0.0, 0.0, 0.0, 193.0, 0.0, 1.0, 1.0, 0.0, 0.0, 1.0, 1.0, 256.0, 1.0, 1.750526165251188E9, 0.0, 2025-06-21 19:16:05.251
144.0, -42015.0657910187, -38223.24880638705, -27891.221987154724, -68920.8664203723, -27289.848302584687, -27623.783364746974, -51132.58822352746, -98093.67037936096, -187500.02235174447, -187500.02235174447, -44510.32513503136, -43444.12457276876, -76891.14086522351, -46434.94444310003, -85086.31856278403, -29553.253001362446, 0.0, 0.0, 0.0, 193.0, 0.0, 1.0, 1.0, 0.0, 0.0, 1.0, 1.0, 256.0, 1.0, 1.750526165260204E9, 0.0, 2025-06-21 19:16:05.260
146.0, -41983.03574121425, -38196.15849210721, -27871.910079945337, -68897.10651601631, -27280.661735613554, -27650.56075460443, -51100.73698767865, -98077.15244020849, -187500.02235174447, -187500.02235174447, -44487.99574232051, -43415.87196777725, -76887.9445657664, -46398.86872754917, -85119.13092364442, -29523.011091114415, 0.0, 0.0, 0.0, 193.0, 0.0, 1.0, 1.0, 0.0, 0.0, 1.0, 1.0, 256.0, 1.0, 1.750526165268219E9, 0.0, 2025-06-21 19:16:05.268
148.0, -42008.047343259735, -38222.75706800903, -27885.164664407333, -68925.9179146192, -27282.27106121434, -27610.95346342963, -51118.57367975399, -98092.79866132721, -187500.02235174447, -187500.02235174447, -44480.64201839471, -43419.15767421218, -76865.74928352228, -46414.38083820115, -85087.50320524017, -29533.047024374846, 0.0, 0.0, 0.0, 193.0, 0.0, 1.0, 1.0, 0.0, 0.0, 1.0, 1.0, 256.0, 1.0, 1.750526165275265E9, 0.0, 2025-06-21 19:16:05.275
150.0, -41969.46823232988, -38191.37521879378, -27860.22011759521, -68887.27174845597, -27248.96696197593, -27664.597650122363, -51088.220010783676, -98056.47707658734, -187500.02235174447, -187500.02235174447, -44478.38449220473, -43414.44145613211, -76869.75024577978, -46412.72680911145, -85091.2359465642, -29532.912913908116, 0.0, 0.0, 0.0, 193.0, 0.0, 1.0, 1.0, 0.0, 0.0, 1.0, 1.0, 256.0, 1.0, 1.750526165283288E9, 0.0, 2025-06-21 19:16:05.283
152.0, -42021.48074167738, -38237.28570190498, -27902.19669368228, -68930.47767048808, -27305.94155859251, -27635.51803058601, -51127.44732230274, -98097.6042863851, -187500.02235174447, -187500.02235174447, -44485.67116089716, -43414.284993920926, -76884.86002503158, -46399.405169416095, -85114.37000207543, -29523.100498092237, 0.0, 0.0, 0.0, 193.0, 0.0, 1.0, 1.0, 0.0, 0.0, 1.0, 1.0, 256.0, 1.0, 1.750526165292303E9, 0.0, 2025-06-21 19:16:05.292
154.0, -42037.73045989638, -38240.81727752892, -27908.90221701887, -68938.85957465883, -27291.63644214111, -27605.767858715997, -51137.6173660299, -98100.93469630895, -187500.02235174447, -187500.02235174447, -44524.76436194949, -43458.0050060755, -76904.97659504136, -46451.03769910785, -85108.91617642835, -29567.580469558296, 0.0, 0.0, 0.0, 193.0, 0.0, 1.0, 1.0, 0.0, 0.0, 1.0, 1.0, 256.0, 1.0, 1.750526165299354E9, 0.0, 2025-06-21 19:16:05.299
156.0, -42006.303907192225, -38223.360565109324, -27886.639879541384, -68917.62541742629, -27291.904663074576, -27672.934850804195, -51116.942002408745, -98085.8025653127, -187500.02235174447, -187500.02235174447, -44503.172576805664, -43437.754325598995, -76907.68115612044, -46413.48676842294, -85137.41465060886, -29538.50085002194, 0.0, 0.0, 0.0, 193.0, 0.0, 1.0, 1.0, 0.0, 0.0, 1.0, 1.0, 256.0, 1.0, 1.750526165307395E9, 0.0, 2025-06-21 19:16:05.307
158.0, -42008.58378512666, -38219.739582507566, -27885.030553940604, -68923.72744366259, -27281.935785047506, -27636.56856257541, -51118.43956928725, -98088.59653336961, -187500.02235174447, -187500.02235174447, -44491.795538877916, -43433.03810751893, -76884.45769363138, -46418.985297558946, -85094.32048729903, -29539.685492478075, 0.0, 0.0, 0.0, 193.0, 0.0, 1.0, 1.0, 0.0, 0.0, 1.0, 1.0, 256.0, 1.0, 1.7505261653164E9, 0.0, 2025-06-21 19:16:05.316
160.0, -42002.593517612644, -38219.0690301739, -27886.036382441092, -68909.33292023337, -27289.6918403735, -27665.13409198929, -51118.752493709624, -98082.22628619985, -187500.02235174447, -187500.02235174447, -44506.257117540496, -43433.95452904159, -76895.9017867925, -46428.30597499681, -85109.38556306191, -29545.98868441447, 0.0, 0.0, 0.0, 193.0, 0.0, 1.0, 1.0, 0.0, 0.0, 1.0, 1.0, 256.0, 1.0, 1.750526165324418E9, 0.0, 2025-06-21 19:16:05.324
162.0, -42007.53325313726, -38230.55782682393, -27878.101513159458, -68913.2668272575, -27283.276889714827, -27633.52872532949, -51117.59020299795, -98092.17281248246, -187500.02235174447, -187500.02235174447, -44477.46807068206, -43405.72427579454, -76875.78521678272, -46391.626762345644, -85105.27284208214, -29512.282253775866, 0.0, 0.0, 0.0, 193.0, 0.0, 1.0, 1.0, 0.0, 0.0, 1.0, 1.0, 256.0, 1.0, 1.750526165331476E9, 0.0, 2025-06-21 19:16:05.331
164.0, -42020.74313411035, -38236.99512922706, -27896.09466744598, -68930.88000188828, -27285.91439556055, -27625.66091128122, -51135.762171240116, -98102.54402190972, -187500.02235174447, -187500.02235174447, -44512.24738505452, -43454.13815428474, -76895.61121411457, -46449.78600141835, -85093.53817624309, -29566.149957913156, 0.0, 0.0, 0.0, 193.0, 0.0, 1.0, 1.0, 0.0, 0.0, 1.0, 1.0, 256.0, 1.0, 1.750526165339499E9, 0.0, 2025-06-21 19:16:05.339
166.0, -41984.26508715929, -38198.43837004166, -27873.027667168102, -68902.78385910796, -27266.915412773542, -27643.743472545564, -51094.05381608651, -98069.39638488251, -187500.02235174447, -187500.02235174447, -44487.034617308935, -43420.34231666831, -76889.48683613383, -46399.51692813837, -85118.12509514393, -29521.625282958186, 0.0, 0.0, 0.0, 193.0, 0.0, 1.0, 1.0, 0.0, 0.0, 1.0, 1.0, 256.0, 1.0, 1.750526165348531E9, 0.0, 2025-06-21 19:16:05.348
168.0, -42022.12894226658, -38229.95432972364, -27893.345402877978, -68931.46114724412, -27280.035886768805, -27623.202219391136, -51124.429836801275, -98097.87250731856, -187500.02235174447, -187500.02235174447, -44487.57105917586, -43425.68438359313, -76876.25460341628, -46416.61601264668, -85093.09114135399, -29534.924570909094, 0.0, 0.0, 0.0, 193.0, 0.0, 1.0, 1.0, 0.0, 0.0, 1.0, 1.0, 256.0, 1.0, 1.750526165355509E9, 0.0, 2025-06-21 19:16:05.355
170.0, -41999.75484606682, -38209.61424226931, -27889.322088876022, -68913.17742027968, -27284.081552515217, -27663.18949022168, -51122.55229026703, -98086.56252462418, -187500.02235174447, -187500.02235174447, -44518.416466524184, -43449.60075016031, -76908.44111543192, -46435.413829733596, -85116.15814163187, -29556.292838608366, 0.0, 0.0, 0.0, 193.0, 0.0, 1.0, 1.0, 0.0, 0.0, 1.0, 1.0, 256.0, 1.0, 1.750526165363545E9, 0.0, 2025-06-21 19:16:05.363
172.0, -42022.66538413351, -38241.91251300723, -27894.82061801203, -68924.06271982941, -27282.181654236516, -27654.785234306484, -51130.59891827094, -98096.46434741787, -187500.02235174447, -187500.02235174447, -44486.49817544201, -43409.658182818675, -76884.25652793128, -46393.77252981336, -85113.31947008605, -29517.110230578215, 0.0, 0.0, 0.0, 193.0, 0.0, 1.0, 1.0, 0.0, 0.0, 1.0, 1.0, 256.0, 1.0, 1.750526165371622E9, 0.0, 2025-06-21 19:16:05.371
174.0, -42027.627471402586, -38239.14089669477, -27901.99552798218, -68932.24345830006, -27308.824933627242, -27618.79892573344, -51116.15969135281, -98089.13297523654, -187500.02235174447, -187500.02235174447, -44528.206530595606, -43455.859238607794, -76904.64131887452, -46450.925940385576, -85105.45165603777, -29565.05472243485, 0.0, 0.0, 0.0, 193.0, 0.0, 1.0, 1.0, 0.0, 0.0, 1.0, 1.0, 256.0, 1.0, 1.750526165380601E9, 0.0, 2025-06-21 19:16:05.380
176.0, -41989.49539536183, -38210.441256814156, -27874.122902646413, -68906.1142690318, -27274.44795065498, -27667.749246090563, -51116.58437449746, -98090.09410024811, -187500.02235174447, -187500.02235174447, -44489.80623362139, -43419.13532246773, -76890.8502925456, -46405.03780901883, -85122.50603705717, -29528.442565017056, 0.0, 0.0, 0.0, 193.0, 0.0, 1.0, 1.0, 0.0, 0.0, 1.0, 1.0, 256.0, 1.0, 1.750526165387579E9, 0.0, 2025-06-21 19:16:05.387
178.0, -42040.27855876429, -38257.134050981294, -27917.105307233967, -68954.95283066665, -27273.598584365678, -27594.480227766067, -51136.47742706269, -98114.21163251539, -187500.02235174447, -187500.02235174447, -44498.32224825886, -43439.78833434443, -76887.85515878859, -46429.5576726863, -85097.71795245624, -29548.022693159903, 0.0, 0.0, 0.0, 193.0, 0.0, 1.0, 1.0, 0.0, 0.0, 1.0, 1.0, 256.0, 1.0, 1.750526165395615E9, 0.0, 2025-06-21 19:16:05.395
180.0, -42004.78398856926, -38220.23132088558, -27900.47560935922, -68925.023844841, -27288.01545953935, -27682.09906603087, -51117.724313464685, -98089.55765838119, -187500.02235174447, -187500.02235174447, -44539.740030734545, -43470.79020390394, -76927.73067089685, -46456.75974568841, -85138.73340353172, -29572.47550159401, 0.0, 0.0, 0.0, 193.0, 0.0, 1.0, 1.0, 0.0, 0.0, 1.0, 1.0, 256.0, 1.0, 1.750526165403675E9, 0.0, 2025-06-21 19:16:05.403
182.0, -42015.15519799652, -38235.385803626275, -27887.869225486425, -68923.25805702902, -27296.419715454547, -27647.56562084742, -51123.75928446762, -98096.53140265125, -187500.02235174447, -187500.02235174447, -44492.24257376702, -43419.023563745446, -76890.87264429005, -46397.997009515406, -85115.75581023167, -29520.753564924427, 0.0, 0.0, 0.0, 193.0, 0.0, 1.0, 1.0, 0.0, 0.0, 1.0, 1.0, 256.0, 1.0, 1.75052616541173E9, 0.0, 2025-06-21 19:16:05.411
184.0, -42029.03563130327, -38237.822143771904, -27904.253054172168, -68936.35617927983, -27294.58687240921, -27614.887370453762, -51137.81853173, -98102.07463527616, -187500.02235174447, -187500.02235174447, -44522.93151890415, -43455.81453511889, -76904.19428398542, -46442.65579493711, -85093.26995530963, -29562.506623566944, 0.0, 0.0, 0.0, 193.0, 0.0, 1.0, 1.0, 0.0, 0.0, 1.0, 1.0, 256.0, 1.0, 1.750526165419738E9, 0.0, 2025-06-21 19:16:05.419
186.0, -41995.664476831495, -38213.68225976018, -27883.108303917445, -68903.32030097488, -27282.91926180354, -27684.91538583224, -51115.80206344152, -98082.0027687553, -187500.02235174447, -187500.02235174447, -44503.91018437269, -43422.57749111384, -76902.96493804037, -46402.28854445083, -85127.78104874863, -29526.900294649637, 0.0, 0.0, 0.0, 193.0, 0.0, 1.0, 1.0, 0.0, 0.0, 1.0, 1.0, 256.0, 1.0, 1.750526165427772E9, 0.0, 2025-06-21 19:16:05.427
188.0, -42033.10364879414, -38248.886257277285, -27900.632071570406, -68939.46307175912, -27299.995994567395, -27627.337292115368, -51142.15477015433, -98114.09987379312, -187500.02235174447, -187500.02235174447, -44500.53507095994, -43429.305366194894, -76890.78323731224, -46421.71221038249, -85099.59549899049, -29541.18305935658, 0.0, 0.0, 0.0, 193.0, 0.0, 1.0, 1.0, 0.0, 0.0, 1.0, 1.0, 256.0, 1.0, 1.750526165436794E9, 0.0, 2025-06-21 19:16:05.436
190.0, -42007.64501185954, -38225.30516687693, -27893.591272066984, -68922.98983609556, -27279.54414839079, -27652.304190671945, -51123.62517400088, -98098.99009454132, -187500.02235174447, -187500.02235174447, -44518.349411290816, -43451.00891006099, -76911.5033044223, -46440.04064083584, -85123.53421730212, -29559.824414232306, 0.0, 0.0, 0.0, 193.0, 0.0, 1.0, 1.0, 0.0, 0.0, 1.0, 1.0, 256.0, 1.0, 1.750526165443868E9, 0.0, 2025-06-21 19:16:05.443
192.0, -42011.78008458377, -38232.63653905827, -27888.98681270919, -68926.9237431197, -27291.368221207646, -27639.876620754796, -51123.22284260069, -98103.0581120322, -187500.02235174447, -187500.02235174447, -44498.03167558094, -43428.053668505396, -76899.92510079445, -46407.07181776426, -85125.72468825874, -29528.487268505964, 0.0, 0.0, 0.0, 193.0, 0.0, 1.0, 1.0, 0.0, 0.0, 1.0, 1.0, 256.0, 1.0, 1.750526165451829E9, 0.0, 2025-06-21 19:16:05.451
194.0, -42010.05900026071, -38227.11565817781, -27890.84200749898, -68928.24249604256, -27271.698686086977, -27613.03217566397, -51132.90114794984, -98100.3088474642, -187500.02235174447, -187500.02235174447, -44506.391228007225, -43449.95837807159, -76893.86777804706, -46435.056201822306, -85084.50807148316, -29552.51539379542, 0.0, 0.0, 0.0, 193.0, 0.0, 1.0, 1.0, 0.0, 0.0, 1.0, 1.0, 256.0, 1.0, 1.75052616545987E9, 0.0, 2025-06-21 19:16:05.459
196.0, -41991.819976785184, -38211.44708531464, -27880.76137074964, -68903.07443178588, -27274.91733728854, -27664.39648442227, -51102.45807200171, -98078.47119313135, -187500.02235174447, -187500.02235174447, -44489.94034408812, -43418.531825367434, -76895.47710364785, -46396.61120135918, -85122.12605740143, -29516.014995099904, 0.0, 0.0, 0.0, 193.0, 0.0, 1.0, 1.0, 0.0, 0.0, 1.0, 1.0, 256.0, 1.0, 1.750526165467872E9, 0.0, 2025-06-21 19:16:05.467
198.0, -42039.60800643063, -38252.037853245485, -27912.836124043006, -68941.38532178228, -27291.614090396655, -27613.1662861307, -51132.320002593995, -98107.03672254524, -187500.02235174447, -187500.02235174447, -44510.99568736502, -43439.94479655562, -76900.5509496392, -46421.13106502665, -85099.57314724603, -29537.673835477097, 0.0, 0.0, 0.0, 193.0, 0.0, 1.0, 1.0, 0.0, 0.0, 1.0, 1.0, 256.0, 1.0, 1.750526165475923E9, 0.0, 2025-06-21 19:16:05.475
200.0, -42020.698430621436, -38232.79300126946, -27909.282196674612, -68925.7167489191, -27296.173846265538, -27673.136016504293, -51132.92349969429, -98101.11351026458, -187500.02235174447, -187500.02235174447, -44544.59035928135, -43464.7105294121, -76933.89975236652, -46443.90749262661, -85135.2465313967, -29562.439568333575, 0.0, 0.0, 0.0, 193.0, 0.0, 1.0, 1.0, 0.0, 0.0, 1.0, 1.0, 256.0, 1.0, 1.750526165483893E9, 0.0, 2025-06-21 19:16:05.483
202.0, -42021.43603818846, -38237.44216411617, -27892.13840867739, -68924.4203477407, -27284.34977344868, -27658.115644230325, -51117.05376113102, -98094.89972530601, -187500.02235174447, -187500.02235174447, -44506.3018210294, -43435.11681975327, -76912.21856024487, -46405.59660263021, -85130.55266506108, -29529.358986539723, 0.0, 0.0, 0.0, 193.0, 0.0, 1.0, 1.0, 0.0, 0.0, 1.0, 1.0, 256.0, 1.0, 1.750526165491964E9, 0.0, 2025-06-21 19:16:05.491
204.0, -42024.14059926756, -38243.38772814128, -27900.877940759416, -68932.35521702233, -27295.078610787226, -27622.106983912825, -51126.68736299126, -98099.34772245261, -187500.02235174447, -187500.02235174447, -44514.23669031104, -43450.22659900506, -76901.64618511751, -46435.63734717815, -85089.26899305213, -29553.051835662347, 0.0, 0.0, 0.0, 193.0, 0.0, 1.0, 1.0, 0.0, 0.0, 1.0, 1.0, 256.0, 1.0, 1.750526165499001E9, 0.0, 2025-06-21 19:16:05.499
206.0, -42001.27476468978, -38222.578254053384, -27885.879920229905, -68909.13175453327, -27278.40420942357, -27645.531612101986, -51096.49015623214, -98077.17479195294, -187500.02235174447, -187500.02235174447, -44503.463149483585, -43427.96426152757, -76906.85414157559, -46399.15930022708, -85122.26016786817, -29523.055794603326, 0.0, 0.0, 0.0, 193.0, 0.0, 1.0, 1.0, 0.0, 0.0, 1.0, 1.0, 256.0, 1.0, 1.750526165507982E9, 0.0, 2025-06-21 19:16:05.507
208.0, -42036.769334884804, -38251.52376312301, -27904.454219872263, -68940.75947293753, -27270.424636653024, -27622.531667057476, -51128.98959267016, -98109.78598711324, -187500.02235174447, -187500.02235174447, -44519.131722346756, -43448.77373561546, -76906.87649332006, -46429.93765234204, -85102.25535658066, -29549.788480971874, 0.0, 0.0, 0.0, 193.0, 0.0, 1.0, 1.0, 0.0, 0.0, 1.0, 1.0, 256.0, 1.0, 1.75052616551597E9, 0.0, 2025-06-21 19:16:05.515
210.0, -42007.354439181625, -38229.64140530126, -27886.036382441092, -68913.75856563551, -27304.89102660311, -27664.57529837791, -51114.30449656302, -98087.21072521339, -187500.02235174447, -187500.02235174447, -44517.07536185686, -43442.716412868074, -76907.43528693143, -46430.2058732755, -85113.05124915257, -29550.07905364979, 0.0, 0.0, 0.0, 193.0, 0.0, 1.0, 1.0, 0.0, 0.0, 1.0, 1.0, 256.0, 1.0, 1.750526165522977E9, 0.0, 2025-06-21 19:16:05.522
212.0, -42027.64982314704, -38245.53349560899, -27895.401763367867, -68927.1249088198, -27302.097058546195, -27649.62198133731, -51119.7136187212, -98100.24179223082, -187500.02235174447, -187500.02235174447, -44497.36112324728, -43422.42102890266, -76900.23802521682, -46399.31576243827, -85114.79468522008, -29524.50865799292, 0.0, 0.0, 0.0, 193.0, 0.0, 1.0, 1.0, 0.0, 0.0, 1.0, 1.0, 256.0, 1.0, 1.750526165531071E9, 0.0, 2025-06-21 19:16:05.531
214.0, -42038.28925350777, -38244.23709443058, -27911.137391464403, -68939.30660954793, -27288.39543919509, -27607.958329672616, -51144.36759285541, -98112.84817610362, -187500.02235174447, -187500.02235174447, -44534.95675742111, -43462.721224155575, -76918.36528997008, -46450.34479502974, -85104.334068815, -29569.905050981648, 0.0, 0.0, 0.0, 193.0, 0.0, 1.0, 1.0, 0.0, 0.0, 1.0, 1.0, 256.0, 1.0, 1.750526165540091E9, 0.0, 2025-06-21 19:16:05.540
216.0, -42032.03076506028, -38247.45574563214, -27924.973121282237, -68940.08892060387, -27309.182561538528, -27649.510222615034, -51144.702869022236, -98117.69850465043, -187500.02235174447, -187500.02235174447, -44524.205568338104, -43441.7552878565, -76925.3613859846, -46418.00182080291, -85145.5506855906, -29543.21706810201, 0.0, 0.0, 0.0, 193.0, 0.0, 1.0, 1.0, 0.0, 0.0, 1.0, 1.0, 256.0, 1.0, 1.750526165548071E9, 0.0, 2025-06-21 19:16:05.548
218.0, -42047.00643384534, -38259.52568763801, -27923.542609637097, -68955.08694113338, -27306.50035220389, -27646.604495835843, -51173.80484030305, -98139.02206886078, -187500.02235174447, -187500.02235174447, -44542.62340576928, -43468.77854690296, -76930.6587494205, -46457.229132321976, -85139.26984539865, -29573.4813300945, 0.0, 0.0, 0.0, 193.0, 0.0, 1.0, 1.0, 0.0, 0.0, 1.0, 1.0, 256.0, 1.0, 1.750526165555169E9, 0.0, 2025-06-21 19:16:05.555
220.0, -42023.760619611814, -38238.85032401685, -27909.2374931857, -68933.0704728449, -27288.730715361922, -27686.055324799458, -51166.04878497706, -98128.85202513362, -187500.02235174447, -187500.02235174447, -44536.521379532984, -43460.3072357544, -76928.3565197416, -46448.534303728855, -85128.80922899357, -29568.206318403045, 0.0, 0.0, 0.0, 193.0, 0.0, 1.0, 1.0, 0.0, 0.0, 1.0, 1.0, 256.0, 1.0, 1.750526165563179E9, 0.0, 2025-06-21 19:16:05.563
222.0, -42014.46229391841, -38239.94555949516, -27881.878957972403, -68912.55157143493, -27279.097113501684, -27622.03992867946, -51128.74372348115, -98104.13099576606, -187500.02235174447, -187500.02235174447, -44504.62544019526, -43425.25970044848, -76902.67436536246, -46405.03780901883, -85119.95793818927, -29525.581541726777, 0.0, 0.0, 0.0, 193.0, 0.0, 1.0, 1.0, 0.0, 0.0, 1.0, 1.0, 256.0, 1.0, 1.750526165572212E9, 0.0, 2025-06-21 19:16:05.572
224.0, -42031.56137842672, -38243.38772814128, -27904.163647194346, -68933.271638545, -27290.138875262604, -27601.856303436318, -51126.173272868786, -98104.91330682198, -187500.02235174447, -187500.02235174447, -44514.0578763554, -43445.46567743608, -76897.22053971536, -46432.41869597658, -85082.54111797108, -29548.201507115547, 0.0, 0.0, 0.0, 193.0, 0.0, 1.0, 1.0, 0.0, 0.0, 1.0, 1.0, 256.0, 1.0, 1.750526165579274E9, 0.0, 2025-06-21 19:16:05.579
226.0, -42031.71784063791, -38248.19335319917, -27911.47266763123, -68935.61857171281, -27309.271968516347, -27653.08650172788, -51121.144130366345, -98104.82389984417, -187500.02235174447, -187500.02235174447, -44531.827513197364, -43455.27809325196, -76934.07856632216, -46424.93086158406, -85149.43988912582, -29549.632018760687, 0.0, 0.0, 0.0, 193.0, 0.0, 1.0, 1.0, 0.0, 0.0, 1.0, 1.0, 256.0, 1.0, 1.750526165587324E9, 0.0, 2025-06-21 19:16:05.587
228.0, -42047.98991060137, -38257.22345795912, -27906.91291176235, -68942.7711299385, -27282.472226914433, -27622.4199083352, -51139.02552593059, -98110.52359468027, -187500.02235174447, -187500.02235174447, -44521.41160028119, -43454.115802540284, -76914.6549003905, -46427.32249824077, -85101.7859699471, -29549.85553620524, 0.0, 0.0, 0.0, 193.0, 0.0, 1.0, 1.0, 0.0, 0.0, 1.0, 1.0, 256.0, 1.0, 1.750526165596362E9, 0.0, 2025-06-21 19:16:05.596
230.0, -42028.43213420297, -38248.17100145471, -27907.94109200729, -68928.80128965393, -27288.39543919509, -27680.42268519672, -51125.748589724135, -98097.78310034075, -187500.02235174447, -187500.02235174447, -44535.336737076854, -43458.22852352006, -76927.2612842633, -46432.128123298666, -85118.21450212176, -29554.214126374023, 0.0, 0.0, 0.0, 193.0, 0.0, 1.0, 1.0, 0.0, 0.0, 1.0, 1.0, 256.0, 1.0, 1.750526165604333E9, 0.0, 2025-06-21 19:16:05.604
232.0, -42017.23391023087, -38245.667606075716, -27884.985850451692, -68921.29110351695, -27290.7423723629, -27635.205106163634, -51117.00905764211, -98095.0561875172, -187500.02235174447, -187500.02235174447, -44504.357219261794, -43435.094468008814, -76910.00573754379, -46405.79776833031, -85127.51282781515, -29531.862381918716, 0.0, 0.0, 0.0, 193.0, 0.0, 1.0, 1.0, 0.0, 0.0, 1.0, 1.0, 256.0, 1.0, 1.750526165611333E9, 0.0, 2025-06-21 19:16:05.611
234.0, -42027.94039582496, -38251.412004400736, -27891.110228432444, -68928.28719953146, -27286.137913005106, -27610.349966329333, -51129.59308977045, -98104.28745797723, -187500.02235174447, -187500.02235174447, -44515.44368451163, -43452.81940136187, -76904.1048770076, -46439.34773675773, -85090.54304248608, -29559.51148980993, 0.0, 0.0, 0.0, 193.0, 0.0, 1.0, 1.0, 0.0, 0.0, 1.0, 1.0, 256.0, 1.0, 1.750526165619417E9, 0.0, 2025-06-21 19:16:05.619
236.0, -42016.988041041855, -38240.213780428625, -27886.95280396376, -68914.40676622473, -27283.16513099255, -27672.532519403998, -51111.04114187255, -98093.13393749404, -187500.02235174447, -187500.02235174447, -44493.740140645525, -43422.42102890266, -76900.59565312811, -46400.76862582787, -85123.08718241302, -29525.112155093215, 0.0, 0.0, 0.0, 193.0, 0.0, 1.0, 1.0, 0.0, 0.0, 1.0, 1.0, 256.0, 1.0, 1.750526165628397E9, 0.0, 2025-06-21 19:16:05.628
238.0, -42044.257169277334, -38268.68990286469, -27901.28027215961, -68943.06170261643, -27293.134009019617, -27617.815448977406, -51121.97114491119, -98102.56637365418, -187500.02235174447, -187500.02235174447, -44516.40480952321, -43449.10901178229, -76905.6024438861, -46427.23309126295, -85098.27674606763, -29546.74864372595, 0.0, 0.0, 0.0, 193.0, 0.0, 1.0, 1.0, 0.0, 0.0, 1.0, 1.0, 256.0, 1.0, 1.750526165635411E9, 0.0, 2025-06-21 19:16:05.635
240.0, -42009.25433746032, -38234.4246786147, -27885.410533596343, -68912.4174609682, -27271.430465153513, -27679.506263674055, -51110.39294128334, -98089.98234152584, -187500.02235174447, -187500.02235174447, -44515.756608934, -43451.07596529436, -76909.35753695459, -46422.114541782685, -85106.21161534925, -29541.630094245684, 0.0, 0.0, 0.0, 193.0, 0.0, 1.0, 1.0, 0.0, 0.0, 1.0, 1.0, 256.0, 1.0, 1.750526165643413E9, 0.0, 2025-06-21 19:16:05.643
242.0, -42030.197922014944, -38257.29051319248, -27885.61169929644, -68920.91112386121, -27299.079573044728, -27628.81250724942, -51125.770941468596, -98103.19222249892, -187500.02235174447, -187500.02235174447, -44501.27267852696, -43434.13334299724, -76908.30700496519, -46397.81819555977, -85114.3923538199, -29521.89350389165, 0.0, 0.0, 0.0, 193.0, 0.0, 1.0, 1.0, 0.0, 0.0, 1.0, 1.0, 256.0, 1.0, 1.750526165651454E9, 0.0, 2025-06-21 19:16:05.651
244.0, -42032.88013134958, -38246.60637934284, -27896.876978501914, -68928.98010360957, -27283.72392460393, -27613.546265786445, -51131.94002293826, -98108.10960627909, -187500.02235174447, -187500.02235174447, -44526.01605963899, -43462.788279388944, -76913.87258933457, -46436.37495474517, -85091.32535354202, -29555.264658363423, 0.0, 0.0, 0.0, 193.0, 0.0, 1.0, 1.0, 0.0, 0.0, 1.0, 1.0, 256.0, 1.0, 1.750526165660491E9, 0.0, 2025-06-21 19:16:05.660
246.0, -42016.65276487503, -38240.25848391753, -27893.36775462243, -68915.88198135878, -27296.21854975445, -27640.3236556439, -51112.51635700659, -98091.79283282672, -187500.02235174447, -187500.02235174447, -44503.21728029457, -43423.62802310324, -76907.18941774243, -46390.933858267534, -85118.86270271096, -29515.903236377628, 0.0, 0.0, 0.0, 193.0, 0.0, 1.0, 1.0, 0.0, 0.0, 1.0, 1.0, 256.0, 1.0, 1.7505261656675E9, 0.0, 2025-06-21 19:16:05.667
248.0, -42047.408765245535, -38268.01935053102, -27901.52614134862, -68943.73225495008, -27288.19427349499, -27631.204143906136, -51137.1703311408, -98111.73058888085, -187500.02235174447, -187500.02235174447, -44521.32219330337, -43458.36263398679, -76915.97365331337, -46425.98139357346, -85106.34572581599, -29544.33465532478, 0.0, 0.0, 0.0, 193.0, 0.0, 1.0, 1.0, 0.0, 0.0, 1.0, 1.0, 256.0, 1.0, 1.750526165675574E9, 0.0, 2025-06-21 19:16:05.675
250.0, -42011.78008458377, -38236.436335615675, -27890.886710987892, -68922.16282155071, -27286.87552057213, -27691.822074868927, -51122.70875247822, -98093.08923400512, -187500.02235174447, -187500.02235174447, -44526.731315461555, -43457.69208165313, -76922.07567954966, -46428.708306397, -85111.41957180735, -29552.001303672947, 0.0, 0.0, 0.0, 193.0, 0.0, 1.0, 1.0, 0.0, 0.0, 1.0, 1.0, 256.0, 1.0, 1.750526165684547E9, 0.0, 2025-06-21 19:16:05.684
252.0, -42027.44865744694, -38252.23901894558, -27899.71565004774, -68934.16570832321, -27294.005727053373, -27622.37520484629, -51115.131511107866, -98100.06297827518, -187500.02235174447, -187500.02235174447, -44498.72457965906, -43432.83694181883, -76904.32839445215, -46400.23218396094, -85117.65570851037, -29524.151030081637, 0.0, 0.0, 0.0, 193.0, 0.0, 1.0, 1.0, 0.0, 0.0, 1.0, 1.0, 256.0, 1.0, 1.750526165691619E9, 0.0, 2025-06-21 19:16:05.691
254.0, -42028.3203754807, -38258.13987948178, -27896.944033735283, -68934.56803972341, -27289.78124735132, -27626.89025722626, -51122.753455967126, -98095.6596846175, -187500.02235174447, -187500.02235174447, -44534.509722532006, -43471.661921937695, -76920.57811267115, -46445.7626874164, -85095.57218498853, -29564.026542189902, 0.0, 0.0, 0.0, 193.0, 0.0, 1.0, 1.0, 0.0, 0.0, 1.0, 1.0, 256.0, 1.0, 1.750526165699649E9, 0.0, 2025-06-21 19:16:05.699
0.0, -42040.07739306419, -38269.89689706527, -27916.09947873348, -68944.80513868394, -27304.846323114198, -27679.036877040493, -51129.97306942619, -98106.6567428895, -187500.02235174447, -187500.02235174447, -44514.23669031104, -43445.666843136176, -76923.48383945035, -46406.93770729753, -85127.60223479298, -29532.197658085544, 0.0, 0.0, 0.0, 193.0, 0.0, 1.0, 1.0, 0.0, 0.0, 1.0, 1.0, 256.0, 1.0, 1.750526165707708E9, 0.0, 2025-06-21 19:16:05.707
2.0, -42044.972425099906, -38261.22442021661, -27917.2394177007, -68954.68460973319, -27284.662697871056, -27600.69401272464, -51131.001249671135, -98106.94731556742, -187500.02235174447, -187500.02235174447, -44540.07530690137, -43475.64053245074, -76934.34678725562, -46446.4108880056, -85124.16006614687, -29568.94392597007, 0.0, 0.0, 0.0, 193.0, 0.0, 1.0, 1.0, 0.0, 0.0, 1.0, 1.0, 256.0, 1.0, 1.750526165716702E9, 0.0, 2025-06-21 19:16:05.716
4.0, -42019.513788165306, -38246.51697236502, -27903.962481494247, -68923.14629830675, -27293.82691309773, -27668.3303914464, -51126.173272868786, -98091.9492950379, -187500.02235174447, -187500.02235174447, -44538.01894641149, -43468.309160269404, -76935.08439482265, -46431.12229479817, -85121.7907812346, -29554.348236840757, 0.0, 0.0, 0.0, 193.0, 0.0, 1.0, 1.0, 0.0, 0.0, 1.0, 1.0, 256.0, 1.0, 1.750526165723746E9, 0.0, 2025-06-21 19:16:05.723
6.0, -42037.685756407474, -38261.872620805814, -27907.225836184723, -68932.69049318916, -27287.434314183512, -27653.399426150256, -51123.31224957851, -98099.906516064, -187500.02235174447, -187500.02235174447, -44519.131722346756, -43441.464715178576, -76923.77441212826, -46401.39447467262, -85126.75286850368, -29526.3191492938, 0.0, 0.0, 0.0, 193.0, 0.0, 1.0, 1.0, 0.0, 0.0, 1.0, 1.0, 256.0, 1.0, 1.750526165731769E9, 0.0, 2025-06-21 19:16:05.731
8.0, -42030.53319818177, -38254.00480675755, -27903.358984393955, -68933.00341761153, -27285.266194971347, -27624.498620569542, -51127.02263915809, -98098.92303930796, -187500.02235174447, -187500.02235174447, -44537.013117910996, -43466.02928233496, -76922.4556592054, -46439.101867568716, -85097.1815105893, -29557.455129320042, 0.0, 0.0, 0.0, 193.0, 0.0, 1.0, 1.0, 0.0, 0.0, 1.0, 1.0, 256.0, 1.0, 1.75052616573981E9, 0.0, 2025-06-21 19:16:05.739
10.0, -42033.41657321651, -38268.5334406535, -27911.025632742123, -68942.72642644959, -27305.539227192312, -27649.95725750414, -51122.57464201148, -98105.18152775546, -187500.02235174447, -187500.02235174447, -44525.92665266117, -43454.182857773645, -76933.00568258831, -46410.26811722137, -85135.47004884125, -29533.78463194187, 0.0, 0.0, 0.0, 193.0, 0.0, 1.0, 1.0, 0.0, 0.0, 1.0, 1.0, 256.0, 1.0, 1.750526165746827E9, 0.0, 2025-06-21 19:16:05.746
12.0, -42038.535122696776, -38264.24190571808, -27908.499885618676, -68951.98004865409, -27290.07182002924, -27651.00778949354, -51129.74955198164, -98108.71310337938, -187500.02235174447, -187500.02235174447, -44529.83820794085, -43475.79699466193, -76930.12230755357, -46439.68301292456, -85108.31267932805, -29560.606725288242, 0.0, 0.0, 0.0, 193.0, 0.0, 1.0, 1.0, 0.0, 0.0, 1.0, 1.0, 256.0, 1.0, 1.750526165755873E9, 0.0, 2025-06-21 19:16:05.755
14.0, -42022.6206806446, -38246.80754504294, -27906.130600706412, -68935.48446124607, -27283.768628092843, -27655.858118040338, -51119.64656348784, -98097.31371370718, -187500.02235174447, -187500.02235174447, -44531.67105098618, -43468.15269805821, -76931.664577921, -46441.11352456969, -85122.72955450173, -29562.19369914457, 0.0, 0.0, 0.0, 193.0, 0.0, 1.0, 1.0, 0.0, 0.0, 1.0, 1.0, 256.0, 1.0, 1.750526165763888E9, 0.0, 2025-06-21 19:16:05.763
16.0, -42049.576884457696, -38276.982400057605, -27916.43475490031, -68951.73417946509, -27295.480942187423, -27642.156498689237, -51135.11397065091, -98110.2553737468, -187500.02235174447, -187500.02235174447, -44508.73816117503, -43444.41514544668, -76920.33224348215, -46409.821082332266, -85125.70233651428, -29536.176268598592, 0.0, 0.0, 0.0, 193.0, 0.0, 1.0, 1.0, 0.0, 0.0, 1.0, 1.0, 256.0, 1.0, 1.750526165770914E9, 0.0, 2025-06-21 19:16:05.770
18.0, -42062.026806119306, -38279.2846297365, -27934.182039997824, -68962.3289063369, -27314.32346276325, -27652.70652207214, -51150.290805136065, -98115.28451624924, -187500.02235174447, -187500.02235174447, -44565.84686825835, -43493.812500692904, -76953.8151566762, -46471.28837958436, -85128.67511852684, -29589.99926924697, 0.0, 0.0, 0.0, 193.0, 0.0, 1.0, 1.0, 0.0, 0.0, 1.0, 1.0, 256.0, 1.0, 1.750526165778962E9, 0.0, 2025-06-21 19:16:05.778
20.0, -42034.35534648363, -38255.70353933615, -27917.306472934066, -68936.35617927983, -27306.16507603706, -27692.872606858327, -51118.79719719854, -98092.9998270273, -187500.02235174447, -187500.02235174447, -44533.10156263132, -43453.22173276207, -76940.5605722142, -46414.58200390125, -85145.5953890795, -29539.685492478075, 0.0, 0.0, 0.0, 193.0, 0.0, 1.0, 1.0, 0.0, 0.0, 1.0, 1.0, 256.0, 1.0, 1.750526165787958E9, 0.0, 2025-06-21 19:16:05.787
22.0, -42041.93258785398, -38263.14667023977, -27903.67190881633, -68942.16763283822, -27296.129142776626, -27600.89517842474, -51130.017772915104, -98103.95218181041, -187500.02235174447, -187500.02235174447, -44546.62436802678, -43473.204192305115, -76936.1125750676, -46443.57221645978, -85128.42924933783, -29562.976010200502, 0.0, 0.0, 0.0, 193.0, 0.0, 1.0, 1.0, 0.0, 0.0, 1.0, 1.0, 256.0, 1.0, 1.750526165796005E9, 0.0, 2025-06-21 19:16:05.796
24.0, -42022.106590522126, -38250.94261776717, -27895.893501745883, -68928.08603383137, -27291.92701481903, -27666.721065845617, -51137.88558696337, -98107.61786790108, -187500.02235174447, -187500.02235174447, -44510.7051146871, -43449.69015713813, -76911.10097302211, -46413.37500970066, -85093.53817624309, -29538.411443044122, 0.0, 0.0, 0.0, 193.0, 0.0, 1.0, 1.0, 0.0, 0.0, 1.0, 1.0, 256.0, 1.0, 1.750526165802999E9, 0.0, 2025-06-21 19:16:05.802
26.0, -42051.76735541432, -38283.129129782814, -27915.80890605556, -68947.3755892963, -27290.183578751516, -27630.779460761485, -51136.522130551595, -98121.18537678545, -187500.02235174447, -187500.02235174447, -44520.22695782506, -43452.48412519504, -76925.02610981776, -46412.391532944624, -85127.0881446705, -29536.668006976608, 0.0, 0.0, 0.0, 193.0, 0.0, 1.0, 1.0, 0.0, 0.0, 1.0, 1.0, 256.0, 1.0, 1.750526165812034E9, 0.0, 2025-06-21 19:16:05.812
28.0, -42043.43015473249, -38269.56162089844, -27917.641749100894, -68947.08501661838, -27293.871616586643, -27651.834804038383, -51136.3209648515, -98115.26216450479, -187500.02235174447, -187500.02235174447, -44553.88868497476, -43483.79891917693, -76936.1125750676, -46456.75974568841, -85109.51967352864, -29572.09552193827, 0.0, 0.0, 0.0, 193.0, 0.0, 1.0, 1.0, 0.0, 0.0, 1.0, 1.0, 256.0, 1.0, 1.750526165820046E9, 0.0, 2025-06-21 19:16:05.820
30.0, -42020.67607887698, -38246.226399687104, -27902.33080414901, -68928.15308906473, -27299.079573044728, -27650.024312737503, -51128.98959267016, -98101.8064143427, -187500.02235174447, -187500.02235174447, -44521.970393892574, -43449.91367458268, -76927.84242961914, -46404.300201451806, -85129.23391213822, -29528.08493710577, 0.0, 0.0, 0.0, 193.0, 0.0, 1.0, 1.0, 0.0, 0.0, 1.0, 1.0, 256.0, 1.0, 1.750526165828026E9, 0.0, 2025-06-21 19:16:05.828
32.0, -42048.883980379585, -38273.495527922576, -27911.025632742123, -68942.54761249395, -27302.63350041312, -27629.348949116345, -51134.17519738379, -98110.94827782492, -187500.02235174447, -187500.02235174447, -44533.70505973161, -43463.52588695597, -76925.94253134044, -46429.98235583095, -85106.32337407152, -29550.101405394245, 0.0, 0.0, 0.0, 193.0, 0.0, 1.0, 1.0, 0.0, 0.0, 1.0, 1.0, 256.0, 1.0, 1.750526165835031E9, 0.0, 2025-06-21 19:16:05.835
34.0, -42032.857779605125, -38255.34591142487, -27910.2880251751, -68929.98593211007, -27301.918244590554, -27661.736626832084, -51125.94975542423, -98099.83946083063, -187500.02235174447, -187500.02235174447, -44540.298824345926, -43464.9116951122, -76937.63249369056, -46433.960966344, -85125.05413592508, -29555.711693252528, 0.0, 0.0, 0.0, 193.0, 0.0, 1.0, 1.0, 0.0, 0.0, 1.0, 1.0, 256.0, 1.0, 1.750526165843162E9, 0.0, 2025-06-21 19:16:05.843
36.0, -42024.542930667754, -38256.30703643645, -27889.389144109387, -68927.28137103097, -27282.91926180354, -27643.296437656456, -51128.609613014414, -98101.76171085378, -187500.02235174447, -187500.02235174447, -44509.72163793107, -43446.292691980925, -76921.09220279363, -46404.85899506319, -85127.40106909288, -29531.057719118326, 0.0, 0.0, 0.0, 193.0, 0.0, 1.0, 1.0, 0.0, 0.0, 1.0, 1.0, 256.0, 1.0, 1.750526165852151E9, 0.0, 2025-06-21 19:16:05.852
38.0, -42033.26011100532, -38261.09030974988, -27906.935263506803, -68938.79251942546, -27288.26132872836, -27658.56267911943, -51147.94387196826, -98120.00073432931, -187500.02235174447, -187500.02235174447, -44518.10354210181, -43457.02152931947, -76911.81622884468, -46436.53141695636, -85088.62079246293, -29557.253963619944, 0.0, 0.0, 0.0, 193.0, 0.0, 1.0, 1.0, 0.0, 0.0, 1.0, 1.0, 256.0, 1.0, 1.750526165859171E9, 0.0, 2025-06-21 19:16:05.859
40.0, -42005.879224047574, -38239.722042050606, -27885.18701615179, -68910.7634318785, -27282.516930403344, -27679.103932273858, -51107.97895288217, -98093.22334447186, -187500.02235174447, -187500.02235174447, -44514.996649622524, -43439.63187213324, -76924.40026097301, -46411.22924223295, -85133.23487439571, -29534.812812186818, 0.0, 0.0, 0.0, 193.0, 0.0, 1.0, 1.0, 0.0, 0.0, 1.0, 1.0, 256.0, 1.0, 1.75052616586815E9, 0.0, 2025-06-21 19:16:05.868
42.0, -42043.005471587836, -38272.19912674417, -27902.286100660098, -68933.4728042451, -27296.86675034365, -27604.13618137076, -51120.652391988326, -98106.85790858959, -187500.02235174447, -187500.02235174447, -44506.92766987415, -43437.37434594326, -76897.5558158822, -46410.715152110475, -85084.23985054968, -29528.867248161707, 0.0, 0.0, 0.0, 193.0, 0.0, 1.0, 1.0, 0.0, 0.0, 1.0, 1.0, 256.0, 1.0, 1.750526165876229E9, 0.0, 2025-06-21 19:16:05.876
44.0, -42031.963709826916, -38265.00186502956, -27908.633996085406, -68935.97619962408, -27305.986262081416, -27661.557812876443, -51140.21016838672, -98117.72085639488, -187500.02235174447, -187500.02235174447, -44539.114181889796, -43471.728977171064, -76933.58682794415, -46437.917225112586, -85123.28834811311, -29558.61742003172, 0.0, 0.0, 0.0, 193.0, 0.0, 1.0, 1.0, 0.0, 0.0, 1.0, 1.0, 256.0, 1.0, 1.75052616588328E9, 0.0, 2025-06-21 19:16:05.883
46.0, -42024.85585509013, -38250.987321256085, -27889.90323423186, -68919.27944651598, -27293.17871250853, -27625.772670003495, -51126.19562461325, -98106.16500451148, -187500.02235174447, -187500.02235174447, -44505.47480648456, -43439.4530581776, -76912.91146432298, -46410.49163466592, -85131.37967960593, -29534.388129042167, 0.0, 0.0, 0.0, 193.0, 0.0, 1.0, 1.0, 0.0, 0.0, 1.0, 1.0, 256.0, 1.0, 1.750526165891379E9, 0.0, 2025-06-21 19:16:05.891
48.0, -42042.11140180963, -38258.318693437424, -27913.70784207676, -68937.13849033577, -27296.754991621376, -27659.81437680893, -51146.15573241183, -98116.3573999831, -187500.02235174447, -187500.02235174447, -44521.769228192476, -43449.779564115954, -76906.72003110887, -46436.15143730062, -85095.4380745218, -29554.035312418382, 0.0, 0.0, 0.0, 193.0, 0.0, 1.0, 1.0, 0.0, 0.0, 1.0, 1.0, 256.0, 1.0, 1.750526165899335E9, 0.0, 2025-06-21 19:16:05.899
50.0, -42017.70329686443, -38248.99801599956, -27899.872112258927, -68917.49130695955, -27297.470247443947, -27673.538347904487, -51128.207281614224, -98102.76753935427, -187500.02235174447, -187500.02235174447, -44529.90526317421, -43449.7572123715, -76934.88322912256, -46415.29725972382, -85146.60121758, -29539.305512822335, 0.0, 0.0, 0.0, 193.0, 0.0, 1.0, 1.0, 0.0, 0.0, 1.0, 1.0, 256.0, 1.0, 1.750526165908365E9, 0.0, 2025-06-21 19:16:05.908
52.0, -42044.70420416644, -38267.81818483093, -27903.090763460492, -68940.11127234832, -27281.511101902855, -27609.053565150927, -51140.07605791999, -98115.59744067163, -187500.02235174447, -187500.02235174447, -44513.83435891085, -43439.67657562215, -76904.21663572987, -46413.28560272284, -85089.85013840797, -29532.912913908116, 0.0, 0.0, 0.0, 193.0, 0.0, 1.0, 1.0, 0.0, 0.0, 1.0, 1.0, 256.0, 1.0, 1.750526165915379E9, 0.0, 2025-06-21 19:16:05.915
54.0, -42008.87435780458, -38240.41494612872, -27886.841045241483, -68919.52531570499, -27285.757933349363, -27648.14676620326, -51120.3171158215, -98096.5090509068, -187500.02235174447, -187500.02235174447, -44535.80612371041, -43465.98457884605, -76931.84339187662, -46440.353565258214, -85122.6401475239, -29560.360856099232, 0.0, 0.0, 0.0, 193.0, 0.0, 1.0, 1.0, 0.0, 0.0, 1.0, 1.0, 256.0, 1.0, 1.750526165923418E9, 0.0, 2025-06-21 19:16:05.923
56.0, -42044.23481753288, -38275.61894364583, -27910.936225764304, -68945.90037416224, -27291.92701481903, -27669.738551347084, -51135.87392996239, -98122.79470238624, -187500.02235174447, -187500.02235174447, -44497.67404766966, -43432.792238329916, -76905.33422295263, -46406.22245147496, -85116.69458349879, -29529.31428305081, 0.0, 0.0, 0.0, 193.0, 0.0, 1.0, 1.0, 0.0, 0.0, 1.0, 1.0, 256.0, 1.0, 1.750526165931442E9, 0.0, 2025-06-21 19:16:05.931
58.0, -42035.80820987323, -38257.73754808158, -27905.05771697256, -68938.52429849199, -27302.20881726847, -27633.886353240774, -51129.90601419283, -98112.49054819233, -187500.02235174447, -187500.02235174447, -44544.25508311452, -43475.729939428566, -76925.78606912924, -46460.984225390464, -85111.01724040715, -29576.342353384778, 0.0, 0.0, 0.0, 193.0, 0.0, 1.0, 1.0, 0.0, 0.0, 1.0, 1.0, 256.0, 1.0, 1.750526165939508E9, 0.0, 2025-06-21 19:16:05.939
60.0, -42018.37384919809, -38244.46061187513, -27893.032478455603, -68915.05496681393, -27301.515913190357, -27679.170987507223, -51112.51635700659, -98097.82780382966, -187500.02235174447, -187500.02235174447, -44518.282356057454, -43442.090564023325, -76923.37208072806, -46412.123312011165, -85133.41368835136, -29535.63982673166, 0.0, 0.0, 0.0, 193.0, 0.0, 1.0, 1.0, 0.0, 0.0, 1.0, 1.0, 256.0, 1.0, 1.750526165947491E9, 0.0, 2025-06-21 19:16:05.947
62.0, -42055.164820571525, -38278.882298336306, -27912.567903109542, -68946.03448462898, -27286.11556126065, -27626.46557408161, -51140.1207614089, -98112.98228657035, -187500.02235174447, -187500.02235174447, -44527.33481256185, -43448.84079084883, -76917.67238589197, -46429.892948853136, -85103.6858682258, -29548.80500421584, 0.0, 0.0, 0.0, 193.0, 0.0, 1.0, 1.0, 0.0, 0.0, 1.0, 1.0, 256.0, 1.0, 1.750526165955522E9, 0.0, 2025-06-21 19:16:05.955
64.0, -42021.547796910745, -38244.058280474936, -27898.91098724735, -68920.32997850538, -27293.268119486347, -27636.36739687531, -51124.318078079, -98092.73160609385, -187500.02235174447, -187500.02235174447, -44534.777943465466, -43462.07302356637, -76932.73746165485, -46434.072725066275, -85119.91323470036, -29554.594106029763, 0.0, 0.0, 0.0, 193.0, 0.0, 1.0, 1.0, 0.0, 0.0, 1.0, 1.0, 256.0, 1.0, 1.750526165963562E9, 0.0, 2025-06-21 19:16:05.963
66.0, -42027.78393361377, -38253.066033490424, -27889.85853074295, -68920.2182197831, -27301.53826493481, -27658.13799597478, -51128.16257812531, -98103.10281552111, -187500.02235174447, -187500.02235174447, -44517.09771360132, -43437.97784304355, -76921.76275512729, -46406.110692752685, -85127.31166211507, -29528.28610280587, 0.0, 0.0, 0.0, 193.0, 0.0, 1.0, 1.0, 0.0, 0.0, 1.0, 1.0, 256.0, 1.0, 1.750526165970594E9, 0.0, 2025-06-21 19:16:05.970
68.0, -42041.5749599427, -38269.5839726429, -27905.0353652281, -68939.21720257011, -27280.549976891278, -27655.32167617341, -51144.568758555506, -98119.39723722903, -187500.02235174447, -187500.02235174447, -44523.91499566019, -43454.540485684935, -76910.07279277717, -46430.69761165352, -85084.23985054968, -29548.80500421584, 0.0, 0.0, 0.0, 193.0, 0.0, 1.0, 1.0, 0.0, 0.0, 1.0, 1.0, 256.0, 1.0, 1.75052616597959E9, 0.0, 2025-06-21 19:16:05.979
70.0, -42014.819921829694, -38252.70840557914, -27894.530045334108, -68923.92860936267, -27298.29726198879, -27681.316754974934, -51122.17231061129, -98105.67326613347, -187500.02235174447, -187500.02235174447, -44519.69051595814, -43448.75138387101, -76927.14952554101, -46418.135931269644, -85142.22027566675, -29541.160707612125, 0.0, 0.0, 0.0, 193.0, 0.0, 1.0, 1.0, 0.0, 0.0, 1.0, 1.0, 256.0, 1.0, 1.750526165987615E9, 0.0, 2025-06-21 19:16:05.987
72.0, -42041.105573309134, -38266.90176330826, -27907.114077462447, -68944.64867647275, -27289.915357818052, -27613.1662861307, -51137.46090381872, -98115.35157148262, -187500.02235174447, -187500.02235174447, -44514.88489090024, -43447.99142455953, -76907.47999042034, -46432.262233765396, -85099.95312690176, -29550.950771683547, 0.0, 0.0, 0.0, 193.0, 0.0, 1.0, 1.0, 0.0, 0.0, 1.0, 1.0, 256.0, 1.0, 1.750526165994714E9, 0.0, 2025-06-21 19:16:05.994
74.0, -42027.87334059159, -38259.25746670455, -27908.119905962936, -68937.78669092497, -27296.88910208811, -27664.687057100185, -51143.18295039928, -98119.28547850675, -187500.02235174447, -187500.02235174447, -44536.029641154964, -43466.67748292416, -76929.87643836456, -46445.80739090531, -85125.45646732528, -29565.121777668213, 0.0, 0.0, 0.0, 193.0, 0.0, 1.0, 1.0, 0.0, 0.0, 1.0, 1.0, 256.0, 1.0, 1.750526166002773E9, 0.0, 2025-06-21 19:16:06.002
76.0, -42030.57790167069, -38259.4809841491, -27899.71565004774, -68934.61274321232, -27301.270044001347, -27629.550114816444, -51143.071191677, -98120.3583622406, -187500.02235174447, -187500.02235174447, -44512.49325424353, -43440.503590167, -76917.27005449178, -46417.7559516139, -85132.25139763969, -29540.221934345, 0.0, 0.0, 0.0, 193.0, 0.0, 1.0, 1.0, 0.0, 0.0, 1.0, 1.0, 256.0, 1.0, 1.750526166011792E9, 0.0, 2025-06-21 19:16:06.011
78.0, -42031.33786098217, -38256.79877481446, -27898.32984189151, -68927.63899894226, -27288.82012233974, -27632.455841595634, -51137.59501428545, -98105.69561787792, -187500.02235174447, -187500.02235174447, -44530.10642887431, -43461.93891309964, -76916.7559643693, -46444.77921066037, -85098.27674606763, -29561.94782995556, 0.0, 0.0, 0.0, 193.0, 0.0, 1.0, 1.0, 0.0, 0.0, 1.0, 1.0, 256.0, 1.0, 1.750526166019728E9, 0.0, 2025-06-21 19:16:06.019
80.0, -42030.68966039296, -38264.15249874026, -27915.04894674408, -68928.37660650928, -27305.606282425677, -27702.77442965203, -51135.42689507329, -98109.62952490206, -187500.02235174447, -187500.02235174447, -44525.971356150076, -43440.59299714482, -76927.86478136359, -46416.392495202126, -85145.37187163495, -29538.634960488675, 0.0, 0.0, 0.0, 193.0, 0.0, 1.0, 1.0, 0.0, 0.0, 1.0, 1.0, 256.0, 1.0, 1.750526166026812E9, 0.0, 2025-06-21 19:16:06.026
82.0, -42045.84414313366, -38270.8803738213, -27906.89056001789, -68938.74781593654, -27308.713174904966, -27624.99035894756, -51136.49977880714, -98109.58482141314, -187500.02235174447, -187500.02235174447, -44533.07921088686, -43454.4063752182, -76920.22048475988, -46435.99497508943, -85116.40401082087, -29552.582449028785, 0.0, 0.0, 0.0, 193.0, 0.0, 1.0, 1.0, 0.0, 0.0, 1.0, 1.0, 256.0, 1.0, 1.750526166035814E9, 0.0, 2025-06-21 19:16:06.035
84.0, -42012.60709912862, -38240.03496647298, -27885.790513252083, -68911.50103944553, -27281.913433303052, -27635.22745790809, -51113.85746167391, -98093.31275144969, -187500.02235174447, -187500.02235174447, -44529.50293177401, -43451.90297983921, -76921.2039615159, -46423.63446040564, -85114.61587126445, -29541.920666923605, 0.0, 0.0, 0.0, 193.0, 0.0, 1.0, 1.0, 0.0, 0.0, 1.0, 1.0, 256.0, 1.0, 1.750526166043955E9, 0.0, 2025-06-21 19:16:06.043
86.0, -42039.65270991954, -38267.23703947509, -27900.967347737238, -68935.79738566845, -27296.21854975445, -27651.4771761271, -51136.83505497397, -98119.33018199565, -187500.02235174447, -187500.02235174447, -44511.01803910948, -43440.74945935601, -76915.79483935772, -46400.52275663886, -85116.24754860968, -29525.17921032658, 0.0, 0.0, 0.0, 193.0, 0.0, 1.0, 1.0, 0.0, 0.0, 1.0, 1.0, 256.0, 1.0, 1.750526166050917E9, 0.0, 2025-06-21 19:16:06.050
88.0, -42039.65270991954, -38266.52178365252, -27907.80698154056, -68943.97812413909, -27293.35752646417, -27641.262428911024, -51141.73008700968, -98112.08821679214, -187500.02235174447, -187500.02235174447, -44541.57287377988, -43472.60069520482, -76926.50132495181, -46443.46045773751, -85097.71795245624, -29562.260754377934, 0.0, 0.0, 0.0, 193.0, 0.0, 1.0, 1.0, 0.0, 0.0, 1.0, 1.0, 256.0, 1.0, 1.750526166059072E9, 0.0, 2025-06-21 19:16:06.059
90.0, -42013.25529971782, -38240.54905659545, -27886.259899885645, -68911.4116324677, -27283.5898141372, -27683.283708487, -51115.42208378579, -98093.6033241276, -187500.02235174447, -187500.02235174447, -44518.63998396874, -43444.348090213316, -76927.19422902992, -46403.67435260706, -85130.1950371498, -29529.001358628437, 0.0, 0.0, 0.0, 193.0, 0.0, 1.0, 1.0, 0.0, 0.0, 1.0, 1.0, 256.0, 1.0, 1.750526166067925E9, 0.0, 2025-06-21 19:16:06.067
92.0, -42059.299893295756, -38284.82786236142, -27913.551379865574, -68953.45526378814, -27316.491581975413, -27642.20120217815, -51159.99146222967, -98131.64599319053, -187500.02235174447, -187500.02235174447, -44519.86932991378, -43447.16441001468, -76913.71612712338, -46421.354582471206, -85099.39433329039, -29540.892486678662, 0.0, 0.0, 0.0, 193.0, 0.0, 1.0, 1.0, 0.0, 0.0, 1.0, 1.0, 256.0, 1.0, 1.750526166075932E9, 0.0, 2025-06-21 19:16:06.075
94.0, -42032.45544820493, -38258.81043181544, -27919.027557257126, -68946.50387126254, -27313.94348310751, -27663.2788971995, -51143.60763354393, -98117.31852499468, -187500.02235174447, -187500.02235174447, -44545.73029824857, -43473.964151616594, -76944.94151412744, -46452.0658793528, -85137.10172618649, -29575.157710928645, 0.0, 0.0, 0.0, 193.0, 0.0, 1.0, 1.0, 0.0, 0.0, 1.0, 1.0, 256.0, 1.0, 1.75052616608294E9, 0.0, 2025-06-21 19:16:06.082
96.0, -42037.41753547401, -38265.42654817421, -27915.56303686655, -68944.44751077265, -27276.72782858942, -27629.885390983272, -51121.23353734417, -98106.16500451148, -187500.02235174447, -187500.02235174447, -44529.77115270748, -43454.540485684935, -76933.09508956612, -46433.3574692437, -85155.72072931776, -29557.365722342223, 0.0, 0.0, 0.0, 193.0, 0.0, 1.0, 1.0, 0.0, 0.0, 1.0, 1.0, 256.0, 1.0, 1.750526166090971E9, 0.0, 2025-06-21 19:16:06.090
98.0, -42043.81013438823, -38267.34879819737, -27908.43283038531, -68946.28035381799, -27294.11748577565, -27619.447126322644, -51147.988575457166, -98121.09596980763, -187500.02235174447, -187500.02235174447, -44539.71767899009, -43469.426747492165, -76925.87547610706, -46457.81027767781, -85108.55854851706, -29577.102312696257, 0.0, 0.0, 0.0, 193.0, 0.0, 1.0, 1.0, 0.0, 0.0, 1.0, 1.0, 256.0, 1.0, 1.750526166099991E9, 0.0, 2025-06-21 19:16:06.099
100.0, -42006.25920370331, -38239.23030367259, -27878.95087944876, -68908.55060917743, -27285.60147113818, -27667.838653068386, -51115.39973204133, -98093.29039970522, -187500.02235174447, -187500.02235174447, -44510.68276294265, -43439.34129945532, -76917.47122019187, -46408.479977664945, -85132.36315636196, -29533.114079608215, 0.0, 0.0, 0.0, 193.0, 0.0, 1.0, 1.0, 0.0, 0.0, 1.0, 1.0, 256.0, 1.0, 1.750526166107034E9, 0.0, 2025-06-21 19:16:06.107
102.0, -42056.95296012795, -38287.44301646269, -27912.947882765282, -68951.19773759815, -27297.73846837741, -27635.786251519472, -51153.33064238199, -98130.90838562351, -187500.02235174447, -187500.02235174447, -44524.96552764959, -43451.47829669456, -76911.52565616676, -46425.35554472871, -85099.4837402682, -29544.066434391312, 0.0, 0.0, 0.0, 193.0, 0.0, 1.0, 1.0, 0.0, 0.0, 1.0, 1.0, 256.0, 1.0, 1.750526166115068E9, 0.0, 2025-06-21 19:16:06.115
104.0, -42018.97734629838, -38259.77155682702, -27894.15006567837, -68922.43104248417, -27300.77830562333, -27674.61123163834, -51127.69319149175, -98104.91330682198, -187500.02235174447, -187500.02235174447, -44539.69532724564, -43468.26445678049, -76932.46924072137, -46431.055239564805, -85121.00847017867, -29550.213164116525, 0.0, 0.0, 0.0, 193.0, 0.0, 1.0, 1.0, 0.0, 0.0, 1.0, 1.0, 256.0, 1.0, 1.750526166124084E9, 0.0, 2025-06-21 19:16:06.124
106.0, -42047.52052396781, -38279.03876054749, -27909.125734463425, -68939.44072001467, -27307.26031151537, -27642.93880974517, -51151.02841270309, -98125.2086907874, -187500.02235174447, -187500.02235174447, -44517.27652755696, -43443.52107566847, -76921.47218244936, -46406.33421019724, -85129.77035400514, -29528.576675483786, 0.0, 0.0, 0.0, 193.0, 0.0, 1.0, 1.0, 0.0, 0.0, 1.0, 1.0, 256.0, 1.0, 1.750526166132142E9, 0.0, 2025-06-21 19:16:06.132
108.0, -42053.30962578173, -38274.456652934154, -27929.15289749538, -68949.6778189752, -27304.68986090301, -27644.458728368132, -51151.67661329229, -98121.54300469674, -187500.02235174447, -187500.02235174447, -44549.954777950625, -43475.0593870949, -76933.11744131058, -46453.496390997934, -85117.40983932136, -29567.42400734711, 0.0, 0.0, 0.0, 193.0, 0.0, 1.0, 1.0, 0.0, 0.0, 1.0, 1.0, 256.0, 1.0, 1.750526166139127E9, 0.0, 2025-06-21 19:16:06.139
110.0, -42025.28053823478, -38253.24484744607, -27906.175304195323, -68923.30276051794, -27296.509122432366, -27692.984365580603, -51136.45507531823, -98109.29424873523, -187500.02235174447, -187500.02235174447, -44541.75168773552, -43455.76983162997, -76944.00274086032, -46428.95417558601, -85165.66725560038, -29549.296742593855, 0.0, 0.0, 0.0, 193.0, 0.0, 1.0, 1.0, 0.0, 0.0, 1.0, 1.0, 256.0, 1.0, 1.750526166147229E9, 0.0, 2025-06-21 19:16:06.147
112.0, -42035.80820987323, -38264.80069932946, -27895.290004645587, -68932.28816178897, -27297.582006166223, -27603.867960437296, -51146.73687776767, -98113.94341158193, -187500.02235174447, -187500.02235174447, -44518.14824559072, -43445.59978790281, -76909.51399916578, -46425.86963485118, -85102.52357751413, -29545.09461463626, 0.0, 0.0, 0.0, 193.0, 0.0, 1.0, 1.0, 0.0, 0.0, 1.0, 1.0, 256.0, 1.0, 1.750526166156202E9, 0.0, 2025-06-21 19:16:06.156
114.0, -42012.78591308426, -38238.89502750576, -27894.641804056384, -68920.4640889721, -27289.6918403735, -27673.515996160033, -51130.88949094886, -98104.13099576606, -187500.02235174447, -187500.02235174447, -44527.714792217594, -43453.31113973989, -76919.52758068175, -46433.178655288066, -85121.27669111213, -29554.348236840757, 0.0, 0.0, 0.0, 193.0, 0.0, 1.0, 1.0, 0.0, 0.0, 1.0, 1.0, 256.0, 1.0, 1.750526166163222E9, 0.0, 2025-06-21 19:16:06.163
116.0, -42019.75965735432, -38254.474193391114, -27886.70693477475, -68920.68760641666, -27269.128235474618, -27651.119548215815, -51127.9167089363, -98111.28355399174, -187500.02235174447, -187500.02235174447, -44499.03750408143, -43427.338412682824, -76901.17679848395, -46407.51885265337, -85123.35540334648, -29533.382300541678, 0.0, 0.0, 0.0, 193.0, 0.0, 1.0, 1.0, 0.0, 0.0, 1.0, 1.0, 256.0, 1.0, 1.750526166171342E9, 0.0, 2025-06-21 19:16:06.171
118.0, -42036.41170697352, -38267.058225519446, -27905.348289650476, -68935.03742635697, -27311.5965499397, -27629.28189388298, -51145.77575275609, -98120.6042314296, -187500.02235174447, -187500.02235174447, -44523.91499566019, -43449.60075016031, -76903.0543450182, -46445.20389380502, -85099.57314724603, -29564.04889393436, 0.0, 0.0, 0.0, 193.0, 0.0, 1.0, 1.0, 0.0, 0.0, 1.0, 1.0, 256.0, 1.0, 1.75052616617933E9, 0.0, 2025-06-21 19:16:06.179
120.0, -42014.88697706306, -38244.46061187513, -27886.528120819108, -68913.66915865769, -27291.569386907744, -27646.559792346932, -51122.12760712238, -98097.8054520852, -187500.02235174447, -187500.02235174447, -44517.164768834686, -43438.6036918883, -76918.81232485919, -46415.16314925708, -85143.33786288952, -29540.51250702292, 0.0, 0.0, 0.0, 193.0, 0.0, 1.0, 1.0, 0.0, 0.0, 1.0, 1.0, 256.0, 1.0, 1.750526166188353E9, 0.0, 2025-06-21 19:16:06.188
122.0, -42043.43015473249, -38267.32644645291, -27898.03926921359, -68933.38339726727, -27290.563558407255, -27631.606475306333, -51140.54544455355, -98110.4565394469, -187500.02235174447, -187500.02235174447, -44507.06178034089, -43436.18970348713, -76896.17000772596, -46410.53633815484, -85091.6829814533, -29531.41534702961, 0.0, 0.0, 0.0, 193.0, 0.0, 1.0, 1.0, 0.0, 0.0, 1.0, 1.0, 256.0, 1.0, 1.750526166195357E9, 0.0, 2025-06-21 19:16:06.195
124.0, -42029.68383189247, -38255.725891080605, -27910.220969941733, -68929.18126930967, -27306.813276626264, -27705.188418053203, -51141.059534676024, -98112.19997551442, -187500.02235174447, -187500.02235174447, -44534.10739113181, -43454.78635487394, -76926.14369704053, -46429.62472791967, -85128.00456619318, -29552.56009728433, 0.0, 0.0, 0.0, 193.0, 0.0, 1.0, 1.0, 0.0, 0.0, 1.0, 1.0, 256.0, 1.0, 1.7505261662034E9, 0.0, 2025-06-21 19:16:06.203
126.0, -42034.73532613937, -38265.180678985205, -27902.017879726634, -68929.78476640997, -27309.093154560705, -27657.33333317439, -51141.21599688721, -98113.8093011152, -187500.02235174447, -187500.02235174447, -44521.88098691476, -43436.81555233187, -76919.39347021503, -46414.42554169006, -85144.16487743436, -29541.98772215697, 0.0, 0.0, 0.0, 193.0, 0.0, 1.0, 1.0, 0.0, 0.0, 1.0, 1.0, 256.0, 1.0, 1.750526166211464E9, 0.0, 2025-06-21 19:16:06.211
128.0, -42045.84414313366, -38271.10389126586, -27904.744792550184, -68937.69728394714, -27297.000860810385, -27622.352853101835, -51155.20818891623, -98118.7043331509, -187500.02235174447, -187500.02235174447, -44538.264815600494, -43461.044843321426, -76916.97948181385, -46445.874446138674, -85104.87051068194, -29567.580469558296, 0.0, 0.0, 0.0, 193.0, 0.0, 1.0, 1.0, 0.0, 0.0, 1.0, 1.0, 256.0, 1.0, 1.750526166219448E9, 0.0, 2025-06-21 19:16:06.219
130.0, -42000.04541874474, -38235.18463792618, -27882.393048094877, -68908.52825743298, -27278.717133845945, -27662.027199510005, -51122.99932515613, -98102.2087457429, -187500.02235174447, -187500.02235174447, -44513.34262053283, -43433.99923253051, -76915.92894982445, -46408.25646022039, -85139.00162446519, -29533.471707519497, 0.0, 0.0, 0.0, 193.0, 0.0, 1.0, 1.0, 0.0, 0.0, 1.0, 1.0, 256.0, 1.0, 1.750526166227514E9, 0.0, 2025-06-21 19:16:06.227
132.0, -42019.35732595412, -38243.14185895227, -27882.884786472892, -68921.9169523617, -27279.007706523862, -27583.21494856059, -51137.23738637417, -98118.7043331509, -187500.02235174447, -187500.02235174447, -44500.40096049321, -43428.99244177252, -76887.9445657664, -46411.94449805552, -85086.85500465096, -29531.437698774065, 0.0, 0.0, 0.0, 193.0, 0.0, 1.0, 1.0, 0.0, 0.0, 1.0, 1.0, 256.0, 1.0, 1.750526166235539E9, 0.0, 2025-06-21 19:16:06.235
134.0, -42005.45454090292, -38238.112716449825, -27883.42122833982, -68912.23864701255, -27292.910491575065, -27660.90961228724, -51131.917671193805, -98106.50028067832, -187500.02235174447, -187500.02235174447, -44515.01900136698, -43440.45888667809, -76907.74821135381, -46418.91824232558, -85105.3398973155, -29541.85361169024, 0.0, 0.0, 0.0, 193.0, 0.0, 1.0, 1.0, 0.0, 0.0, 1.0, 1.0, 256.0, 1.0, 1.750526166243562E9, 0.0, 2025-06-21 19:16:06.243
136.0, -42018.15033175353, -38248.99801599956, -27886.32695511901, -68920.6652546722, -27280.751142591376, -27651.81245229393, -51135.00221192864, -98109.80833885769, -187500.02235174447, -187500.02235174447, -44496.399998235705, -43423.06922949186, -76901.10974325058, -46391.26913443436, -85115.91227244286, -29517.37845151168, 0.0, 0.0, 0.0, 193.0, 0.0, 1.0, 1.0, 0.0, 0.0, 1.0, 1.0, 256.0, 1.0, 1.750526166250583E9, 0.0, 2025-06-21 19:16:06.250
138.0, -42028.92387258099, -38255.52472538051, -27902.151990193368, -68934.21041181212, -27288.864825828652, -27637.41792886471, -51138.64554627485, -98110.76946386928, -187500.02235174447, -187500.02235174447, -44530.62051899678, -43459.010834575995, -76914.94547306842, -46437.9619286015, -85097.91911815634, -29560.159690399134, 0.0, 0.0, 0.0, 193.0, 0.0, 1.0, 1.0, 0.0, 0.0, 1.0, 1.0, 256.0, 1.0, 1.750526166259591E9, 0.0, 2025-06-21 19:16:06.259
140.0, -41996.80441579872, -38228.83674250088, -27880.023763182613, -68906.38248996527, -27270.245822697383, -27654.89699302876, -51116.74083670865, -98094.58680088364, -187500.02235174447, -187500.02235174447, -44503.463149483585, -43421.97399401355, -76909.6034061436, -46394.68895133602, -85133.346633118, -29524.687471948564, 0.0, 0.0, 0.0, 193.0, 0.0, 1.0, 1.0, 0.0, 0.0, 1.0, 1.0, 256.0, 1.0, 1.750526166267596E9, 0.0, 2025-06-21 19:16:06.267
142.0, -42039.429192474985, -38262.6325801173, -27898.061620958048, -68938.27842930298, -27288.529549661824, -27606.304300582924, -51152.816552259515, -98122.50412970831, -187500.02235174447, -187500.02235174447, -44515.488388000536, -43442.69406112362, -76904.84248457462, -46422.89685283862, -85099.70725771275, -29548.067396648814, 0.0, 0.0, 0.0, 193.0, 0.0, 1.0, 1.0, 0.0, 0.0, 1.0, 1.0, 256.0, 1.0, 1.750526166275656E9, 0.0, 2025-06-21 19:16:06.275
144.0, -41990.277706417764, -38228.92614947869, -27875.41930382482, -68904.61670215329, -27273.86680529914, -27658.67443784171, -51120.92061292179, -98094.2515247168, -187500.02235174447, -187500.02235174447, -44525.0102311385, -43447.767907114976, -76915.59367365763, -46423.47799819446, -85108.31267932805, -29548.60383851574, 0.0, 0.0, 0.0, 193.0, 0.0, 1.0, 1.0, 0.0, 0.0, 1.0, 1.0, 256.0, 1.0, 1.750526166282649E9, 0.0, 2025-06-21 19:16:06.282
146.0, -42014.88697706306, -38252.66370209023, -27889.590309809486, -68926.63317044177, -27284.215662981947, -27616.586103032365, -51131.40358107133, -98111.21649875838, -187500.02235174447, -187500.02235174447, -44480.44085269461, -43410.775770041444, -76885.66468783196, -46382.28373316333, -85099.9307751573, -29508.70597466302, 0.0, 0.0, 0.0, 193.0, 0.0, 1.0, 1.0, 0.0, 0.0, 1.0, 1.0, 256.0, 1.0, 1.750526166291667E9, 0.0, 2025-06-21 19:16:06.291
148.0, -42031.62843366009, -38266.14180399678, -27906.95761525126, -68938.14431883626, -27286.383782194112, -27634.445146852155, -51145.08284867798, -98113.76459762629, -187500.02235174447, -187500.02235174447, -44550.714737262104, -43481.49668949803, -76931.17283954297, -46460.090155612255, -85108.24562409469, -29579.493949352975, 0.0, 0.0, 0.0, 193.0, 0.0, 1.0, 1.0, 0.0, 0.0, 1.0, 1.0, 256.0, 1.0, 1.750526166299713E9, 0.0, 2025-06-21 19:16:06.299
150.0, -42017.68094511997, -38253.53542012399, -27899.358022136454, -68921.11228956131, -27293.40222995308, -27686.412952710743, -51133.63875551686, -98105.71796962238, -187500.02235174447, -187500.02235174447, -44510.88392864275, -43429.97591852855, -76917.53827542524, -46396.20886995899, -85125.76939174764, -29522.295835291843, 0.0, 0.0, 0.0, 193.0, 0.0, 1.0, 1.0, 0.0, 0.0, 1.0, 1.0, 256.0, 1.0, 1.750526166306712E9, 0.0, 2025-06-21 19:16:06.306
152.0, -42068.3299980557, -38295.46729272214, -27928.012958528157, -68962.1277406368, -27312.915302862562, -27601.386916802756, -51193.85435507946, -98154.31066206821, -187500.02235174447, -187500.02235174447, -44548.72543200558, -43472.75715741601, -76937.11840356808, -46443.72867867097, -85120.15910388937, -29564.920611968115, 0.0, 0.0, 0.0, 193.0, 0.0, 1.0, 1.0, 0.0, 0.0, 1.0, 1.0, 256.0, 1.0, 1.750526166314753E9, 0.0, 2025-06-21 19:16:06.314
154.0, -42034.042422061255, -38258.56456262643, -27924.280217204123, -68942.5699642384, -27317.273893031346, -27676.354667705855, -51186.83590732049, -98144.40883927452, -187500.02235174447, -187500.02235174447, -44568.28320840398, -43488.06810236789, -76960.69949396844, -46453.518742742395, -85143.51667684516, -29576.76703652943, 0.0, 0.0, 0.0, 193.0, 0.0, 1.0, 1.0, 0.0, 0.0, 1.0, 1.0, 256.0, 1.0, 1.750526166323776E9, 0.0, 2025-06-21 19:16:06.323
156.0, -42035.517637195306, -38259.4809841491, -27909.773935052628, -68939.64188571477, -27310.680128417032, -27648.95142900365, -51190.2333724777, -98152.79074344525, -187500.02235174447, -187500.02235174447, -44524.31732706039, -43442.716412868074, -76929.18353428645, -46413.106788767196, -85140.7450605327, -29538.27733257739, 0.0, 0.0, 0.0, 193.0, 0.0, 1.0, 1.0, 0.0, 0.0, 1.0, 1.0, 256.0, 1.0, 1.750526166330817E9, 0.0, 2025-06-21 19:16:06.330
158.0, -42037.21636977391, -38262.297303950465, -27913.0372897431, -68946.5709264959, -27290.67531712953, -27607.958329672616, -51175.16829671482, -98145.23585381937, -187500.02235174447, -187500.02235174447, -44555.453307086624, -43479.44032900815, -76937.20781054591, -46462.168867846594, -85106.36807756044, -29583.874891266216, 0.0, 0.0, 0.0, 193.0, 0.0, 1.0, 1.0, 0.0, 0.0, 1.0, 1.0, 256.0, 1.0, 1.750526166338809E9, 0.0, 2025-06-21 19:16:06.338
160.0, -41997.72083732139, -38233.66471930322, -27882.23658588369, -68909.89171384474, -27277.219566967437, -27661.244888454068, -51122.57464201148, -98102.76753935427, -187500.02235174447, -187500.02235174447, -44517.54474849043, -43437.28493896544, -76924.5567231842, -46411.29629746632, -85136.2970633861, -29537.31620756581, 0.0, 0.0, 0.0, 193.0, 0.0, 1.0, 1.0, 0.0, 0.0, 1.0, 1.0, 256.0, 1.0, 1.750526166347789E9, 0.0, 2025-06-21 19:16:06.347
162.0, -42059.925742140505, -38284.82786236142, -27921.218028213745, -68957.94796442366, -27298.632538155623, -27614.03800416446, -51153.710622037725, -98135.93752812596, -187500.02235174447, -187500.02235174447, -44519.55640549141, -43446.292691980925, -76906.6529758755, -46431.63638492065, -85100.15429260186, -29550.995475172458, 0.0, 0.0, 0.0, 193.0, 0.0, 1.0, 1.0, 0.0, 0.0, 1.0, 1.0, 256.0, 1.0, 1.750526166355884E9, 0.0, 2025-06-21 19:16:06.355
164.0, -42017.613889886605, -38248.01453924353, -27892.451333099765, -68919.63707442726, -27274.515005888345, -27647.09623421386, -51146.75922951213, -98115.61979241608, -187500.02235174447, -187500.02235174447, -44548.94894945013, -43474.70175918362, -76941.34288327013, -46452.0658793528, -85133.36898486245, -29573.86130975024, 0.0, 0.0, 0.0, 193.0, 0.0, 1.0, 1.0, 0.0, 0.0, 1.0, 1.0, 256.0, 1.0, 1.750526166362948E9, 0.0, 2025-06-21 19:16:06.362
166.0, -42041.41849773151, -38276.1330337683, -27903.00135648267, -68933.38339726727, -27298.207855010973, -27621.883466468273, -51152.57068307051, -98121.23008027436, -187500.02235174447, -187500.02235174447, -44498.366951747776, -43425.59497661531, -76906.31769970867, -46390.68798907852, -85115.35347883147, -29517.35609976722, 0.0, 0.0, 0.0, 193.0, 0.0, 1.0, 1.0, 0.0, 0.0, 1.0, 1.0, 256.0, 1.0, 1.750526166370939E9, 0.0, 2025-06-21 19:16:06.370
168.0, -42052.61672170362, -38270.25452497656, -27914.95953976626, -68945.58744973988, -27311.373032495147, -27626.957312459628, -51167.68046232229, -98129.65668793401, -187500.02235174447, -187500.02235174447, -44557.75553676552, -43484.5141749995, -76940.58292395866, -46462.86177192471, -85112.17953111882, -29584.165463944133, 0.0, 0.0, 0.0, 193.0, 0.0, 1.0, 1.0, 0.0, 0.0, 1.0, 1.0, 256.0, 1.0, 1.750526166379986E9, 0.0, 2025-06-21 19:16:06.379
170.0, -42026.26401499081, -38260.3303504384, -27897.681641302308, -68919.59237093835, -27302.03000331283, -27687.23996725559, -51148.547369068554, -98110.38948421353, -187500.02235174447, -187500.02235174447, -44519.57875723586, -43438.00019478801, -76930.43523197595, -46406.15539624159, -85144.32133964555, -29532.398823785643, 0.0, 0.0, 0.0, 193.0, 0.0, 1.0, 1.0, 0.0, 0.0, 1.0, 1.0, 256.0, 1.0, 1.750526166386996E9, 0.0, 2025-06-21 19:16:06.386
172.0, -42076.46603303743, -38298.238909034604, -27925.487211404707, -68955.66808648921, -27301.180637023528, -27643.698769056653, -51168.37336640041, -98136.54102522625, -187500.02235174447, -187500.02235174447, -44541.30465284642, -43469.94083761464, -76932.80451688821, -46443.23694029295, -85118.81799922204, -29563.735969511985, 0.0, 0.0, 0.0, 193.0, 0.0, 1.0, 1.0, 0.0, 0.0, 1.0, 1.0, 256.0, 1.0, 1.750526166395122E9, 0.0, 2025-06-21 19:16:06.395
174.0, -42029.862645848116, -38262.27495220601, -27899.29096690309, -68920.68760641666, -27276.437255911504, -27679.61802239633, -51128.140226380856, -98102.78989109873, -187500.02235174447, -187500.02235174447, -44546.736126749056, -43467.88447712475, -76939.7112059249, -46440.82295189178, -85128.78687724912, -29561.545498555362, 0.0, 0.0, 0.0, 193.0, 0.0, 1.0, 1.0, 0.0, 0.0, 1.0, 1.0, 256.0, 1.0, 1.750526166403011E9, 0.0, 2025-06-21 19:16:06.403
176.0, -42042.89371286556, -38277.85411809136, -27889.2326818982, -68927.95192336463, -27309.093154560705, -27636.680321297685, -51137.21503462971, -98109.4060074575, -187500.02235174447, -187500.02235174447, -44507.33000127435, -43433.46279066358, -76916.08541203564, -46398.08641649323, -85122.14840914588, -29521.200599813536, 0.0, 0.0, 0.0, 193.0, 0.0, 1.0, 1.0, 0.0, 0.0, 1.0, 1.0, 256.0, 1.0, 1.750526166412158E9, 0.0, 2025-06-21 19:16:06.412
178.0, -42041.19498028696, -38269.159289498246, -27893.09953368897, -68926.40965299722, -27287.054334527773, -27609.45589655112, -51134.62223227289, -98103.34868471012, -187500.02235174447, -187500.02235174447, -44532.52041727548, -43462.87768636676, -76916.13011552455, -46441.962890858995, -85084.93275462781, -29559.489138065477, 0.0, 0.0, 0.0, 193.0, 0.0, 1.0, 1.0, 0.0, 0.0, 1.0, 1.0, 256.0, 1.0, 1.750526166419117E9, 0.0, 2025-06-21 19:16:06.419
180.0, -42054.09193683767, -38282.83855710489, -27916.81473455605, -68936.19971706864, -27303.706384146975, -27661.066074498427, -51129.41427581481, -98106.94731556742, -187500.02235174447, -187500.02235174447, -44533.07921088686, -43450.628930405255, -76942.39341525953, -46414.58200390125, -85150.64688332641, -29539.350216311243, 0.0, 0.0, 0.0, 193.0, 0.0, 1.0, 1.0, 0.0, 0.0, 1.0, 1.0, 256.0, 1.0, 1.75052616642721E9, 0.0, 2025-06-21 19:16:06.427
182.0, -42083.66329475204, -38306.978441116626, -27933.91381906436, -68965.6816680052, -27290.07182002924, -27646.984475491583, -51170.854410034946, -98134.30585078071, -187500.02235174447, -187500.02235174447, -44547.697251760634, -43468.26445678049, -76936.87253437907, -46442.54403621484, -85118.77329573313, -29563.065417178324, 0.0, 0.0, 0.0, 193.0, 0.0, 1.0, 1.0, 0.0, 0.0, 1.0, 1.0, 256.0, 1.0, 1.750526166436182E9, 0.0, 2025-06-21 19:16:06.436
184.0, -42058.2270095619, -38285.297248994975, -27924.3919759264, -68938.45724325863, -27302.767610879855, -27700.405144739765, -51129.23546185916, -98104.10864402159, -187500.02235174447, -187500.02235174447, -44565.57864732488, -43485.67646571118, -76961.57121200219, -46459.21843757849, -85147.6517495694, -29581.393847631676, 0.0, 0.0, 0.0, 193.0, 0.0, 1.0, 1.0, 0.0, 0.0, 1.0, 1.0, 256.0, 1.0, 1.75052616644323E9, 0.0, 2025-06-21 19:16:06.443
186.0, -42074.61083824764, -38302.083409080915, -27905.124772205923, -68935.23859205707, -27296.039735798808, -27633.349911373843, -51145.99927020065, -98116.04447556073, -187500.02235174447, -187500.02235174447, -44531.78280970846, -43445.13040126925, -76936.69372042343, -46414.067913778774, -85143.80724952307, -29538.769070955404, 0.0, 0.0, 0.0, 193.0, 0.0, 1.0, 1.0, 0.0, 0.0, 1.0, 1.0, 256.0, 1.0, 1.750526166451232E9, 0.0, 2025-06-21 19:16:06.451
188.0, -42087.865422709634, -38311.180569074226, -27916.501810133675, -68951.5777172539, -27312.915302862562, -27657.66860934122, -51161.958415741734, -98123.86758612009, -187500.02235174447, -187500.02235174447, -44560.05776644442, -43485.18472733316, -76942.52752572627, -46459.41960327859, -85101.89772866938, -29579.42689411961, 0.0, 0.0, 0.0, 193.0, 0.0, 1.0, 1.0, 0.0, 0.0, 1.0, 1.0, 256.0, 1.0, 1.750526166460355E9, 0.0, 2025-06-21 19:16:06.460
190.0, -42021.21252074391, -38257.71519633713, -27874.771103235616, -68897.35238520532, -27265.127273217116, -27662.585993121385, -51108.895374404834, -98077.15244020849, -187500.02235174447, -187500.02235174447, -44513.879062399756, -43432.45696216309, -76923.7073568949, -46400.99214327242, -85133.41368835136, -29524.4192510151, 0.0, 0.0, 0.0, 193.0, 0.0, 1.0, 1.0, 0.0, 0.0, 1.0, 1.0, 256.0, 1.0, 1.750526166468278E9, 0.0, 2025-06-21 19:16:06.468
192.0, -42109.52426308683, -38323.87635992484, -27942.832165102027, -68973.48242682009, -27307.148552793093, -27595.150780099724, -51173.87189553642, -98141.77133342878, -187500.02235174447, -187500.02235174447, -44542.17637088017, -43466.208096290604, -76928.49063020834, -46439.19127454654, -85105.76458046015, -29558.28214386489, 0.0, 0.0, 0.0, 193.0, 0.0, 1.0, 1.0, 0.0, 0.0, 1.0, 1.0, 256.0, 1.0, 1.750526166474339E9, 0.0, 2025-06-21 19:16:06.474
194.0, -42063.72553869791, -38288.91823159674, -27922.469725903244, -68942.90524040523, -27316.580988953232, -27674.320658960423, -51137.88558696337, -98115.5527371827, -187500.02235174447, -187500.02235174447, -44567.076214203385, -43480.1108813418, -76953.92691539848, -46458.547885244836, -85144.79072627911, -29575.96237372904, 0.0, 0.0, 0.0, 193.0, 0.0, 1.0, 1.0, 0.0, 0.0, 1.0, 1.0, 256.0, 1.0, 1.750526166483367E9, 0.0, 2025-06-21 19:16:06.483
196.0, -42093.52041405683, -38313.37104003084, -27925.82248757154, -68953.41056029923, -27314.859904630175, -27672.644278126274, -51156.90692149483, -98129.74609491182, -187500.02235174447, -187500.02235174447, -44532.65452774221, -43451.74651762802, -76938.95124661342, -46420.12523652616, -85148.25524666968, -29542.61357100172, 0.0, 0.0, 0.0, 193.0, 0.0, 1.0, 1.0, 0.0, 0.0, 1.0, 1.0, 256.0, 1.0, 1.750526166491416E9, 0.0, 2025-06-21 19:16:06.491
198.0, -42087.686608754, -38300.45173173568, -27923.497906148186, -68951.24244108706, -27305.31570974776, -27644.928115001694, -51160.7290697967, -98124.13580705355, -187500.02235174447, -187500.02235174447, -44575.68163581868, -43496.338247816355, -76957.63730497805, -46469.366129561204, -85117.83452246602, -29587.85350177926, 0.0, 0.0, 0.0, 193.0, 0.0, 1.0, 1.0, 0.0, 0.0, 1.0, 1.0, 256.0, 1.0, 1.750526166499376E9, 0.0, 2025-06-21 19:16:06.499
200.0, -42062.76441368633, -38285.43135946171, -27908.81281004105, -68928.018978598, -27308.467305715956, -27659.702618086652, -51128.94488918125, -98093.73743459434, -187500.02235174447, -187500.02235174447, -44536.25315859952, -43450.070136793875, -76946.99787461733, -46408.18940498703, -85149.90927575938, -29532.488230763465, 0.0, 0.0, 0.0, 193.0, 0.0, 1.0, 1.0, 0.0, 0.0, 1.0, 1.0, 256.0, 1.0, 1.750526166507459E9, 0.0, 2025-06-21 19:16:06.507
202.0, -42104.38336186211, -38316.902615654784, -27932.907990563872, -68964.92170869371, -27317.989148853918, -27632.835821251374, -51164.327700654, -98118.4584639619, -187500.02235174447, -187500.02235174447, -44552.614635540805, -43476.489898740045, -76943.66746469348, -46442.72285017048, -85116.47106605423, -29562.506623566944, 0.0, 0.0, 0.0, 193.0, 0.0, 1.0, 1.0, 0.0, 0.0, 1.0, 1.0, 256.0, 1.0, 1.750526166515488E9, 0.0, 2025-06-21 19:16:06.515
204.0, -42064.44079452047, -38286.66070540675, -27912.366737409444, -68937.18319382468, -27298.274910244338, -27700.248682528578, -51145.954566711735, -98100.62177188657, -187500.02235174447, -187500.02235174447, -44565.35512988033, -43479.216811563594, -76958.2184503339, -46456.379766032675, -85139.87334249895, -29575.604745817753, 0.0, 0.0, 0.0, 193.0, 0.0, 1.0, 1.0, 0.0, 0.0, 1.0, 1.0, 256.0, 1.0, 1.750526166523514E9, 0.0, 2025-06-21 19:16:06.523
206.0, -42097.34256235869, -38318.42253427774, -27924.704900348774, -68959.64669700226, -27311.194218539506, -27642.268257411513, -51162.673671564306, -98120.9618593409, -187500.02235174447, -187500.02235174447, -44525.703135216616, -43444.817476846874, -76933.65388317751, -46419.23116674795, -85138.82281050955, -29539.79725120035, 0.0, 0.0, 0.0, 193.0, 0.0, 1.0, 1.0, 0.0, 0.0, 1.0, 1.0, 256.0, 1.0, 1.750526166530523E9, 0.0, 2025-06-21 19:16:06.530
208.0, -42105.14332117359, -38316.85791216587, -27941.736929623716, -68969.05678141794, -27306.92503534854, -27628.74545201605, -51169.06627047852, -98124.58284194265, -187500.02235174447, -187500.02235174447, -44578.5203073645, -43504.27311709799, -76959.20192708993, -46482.19603087855, -85122.90836845737, -29598.738801328996, 0.0, 0.0, 0.0, 193.0, 0.0, 1.0, 1.0, 0.0, 0.0, 1.0, 1.0, 256.0, 1.0, 1.750526166539575E9, 0.0, 2025-06-21 19:16:06.539
210.0, -42074.40967254754, -38299.51295846856, -27919.653406101872, -68935.97619962408, -27300.130105034128, -27695.733630148607, -51154.068249949014, -98106.47792893386, -187500.02235174447, -187500.02235174447, -44551.94408320714, -43462.922389855674, -76959.17957534546, -46431.63638492065, -85167.16482247888, -29552.47069030651, 0.0, 0.0, 0.0, 193.0, 0.0, 1.0, 1.0, 0.0, 0.0, 1.0, 1.0, 256.0, 1.0, 1.750526166547615E9, 0.0, 2025-06-21 19:16:06.547
212.0, -42133.93236803202, -38334.58284551893, -27947.950714582294, -68978.10923792234, -27335.110585106682, -27619.00009143354, -51189.8310410775, -98133.09885658012, -187500.02235174447, -187500.02235174447, -44572.86531601731, -43491.6667332252, -76960.18540384596, -46461.14068760165, -85136.02884245264, -29580.18685343109, 0.0, 0.0, 0.0, 193.0, 0.0, 1.0, 1.0, 0.0, 0.0, 1.0, 1.0, 256.0, 1.0, 1.750526166554659E9, 0.0, 2025-06-21 19:16:06.554
214.0, -42087.55249828727, -38305.369115515845, -27929.95756029577, -68943.6204962278, -27315.105773819185, -27707.133019820812, -51167.03226173309, -98107.90844057899, -187500.02235174447, -187500.02235174447, -44570.47367936059, -43482.167241831696, -76963.38170330306, -46450.6130159632, -85143.15904893387, -29570.307382381845, 0.0, 0.0, 0.0, 193.0, 0.0, 1.0, 1.0, 0.0, 0.0, 1.0, 1.0, 256.0, 1.0, 1.750526166562661E9, 0.0, 2025-06-21 19:16:06.562
216.0, -42108.94311773099, -38331.11832512836, -27934.00322604218, -68964.16174938223, -27325.186410568527, -27615.2673501095, -51174.31893042552, -98117.05030406122, -187500.02235174447, -187500.02235174447, -44546.42320232668, -43464.956398601105, -76954.82098517669, -46423.0086115609, -85155.87719152894, -29544.021730902405, 0.0, 0.0, 0.0, 193.0, 0.0, 1.0, 1.0, 0.0, 0.0, 1.0, 1.0, 256.0, 1.0, 1.750526166571686E9, 0.0, 2025-06-21 19:16:06.571
218.0, -42097.78959724779, -38313.63926096431, -27925.80013582708, -68962.82064471491, -27307.036794070817, -27631.315902628412, -51162.2266366752, -98108.17666151247, -187500.02235174447, -187500.02235174447, -44582.20834519963, -43520.18755915017, -76967.85205219412, -46478.97737967699, -85127.80340049308, -29596.078943738812, 0.0, 0.0, 0.0, 193.0, 0.0, 1.0, 1.0, 0.0, 0.0, 1.0, 1.0, 256.0, 1.0, 1.750526166579722E9, 0.0, 2025-06-21 19:16:06.579
220.0, -42094.12391115713, -38323.65284248029, -27934.517316164653, -68955.10929287784, -27314.72579416344, -27727.62956948633, -51154.492933093665, -98106.61203940058, -187500.02235174447, -187500.02235174447, -44530.55346376341, -43453.80287811791, -76941.43229024796, -46412.36918120017, -85148.81404028107, -29534.298722064344, 0.0, 0.0, 0.0, 193.0, 0.0, 1.0, 1.0, 0.0, 0.0, 1.0, 1.0, 256.0, 1.0, 1.750526166586752E9, 0.0, 2025-06-21 19:16:06.586
222.0, -42137.62040586715, -38348.217409636665, -27949.85061286099, -68982.69134553568, -27330.640236215622, -27631.628827050787, -51182.253799707156, -98128.98613560035, -187500.02235174447, -187500.02235174447, -44591.35020868185, -43511.2692131125, -76974.22229936389, -46475.78108021988, -85146.33299664652, -29593.553196615365, 0.0, 0.0, 0.0, 193.0, 0.0, 1.0, 1.0, 0.0, 0.0, 1.0, 1.0, 256.0, 1.0, 1.750526166594783E9, 0.0, 2025-06-21 19:16:06.594
224.0, -42097.81194899225, -38313.95218538668, -27928.996435284193, -68947.04031312947, -27325.767555924365, -27708.876455888327, -51161.93606399728, -98103.7063126214, -187500.02235174447, -187500.02235174447, -44576.083967218874, -43491.33145705837, -76965.70628472642, -46454.63632996516, -85141.41561286636, -29575.537690584388, 0.0, 0.0, 0.0, 193.0, 0.0, 1.0, 1.0, 0.0, 0.0, 1.0, 1.0, 256.0, 1.0, 1.750526166603797E9, 0.0, 2025-06-21 19:16:06.603
226.0, -42138.693289601004, -38348.440927081225, -27952.242249517712, -68977.23751988859, -27339.737396208933, -27652.348894160856, -51173.13428796939, -98127.64503093304, -187500.02235174447, -187500.02235174447, -44557.04028094295, -43469.762023658994, -76961.05712187971, -46426.115504040186, -85156.9500752628, -29551.04017866137, 0.0, 0.0, 0.0, 193.0, 0.0, 1.0, 1.0, 0.0, 0.0, 1.0, 1.0, 256.0, 1.0, 1.750526166610872E9, 0.0, 2025-06-21 19:16:06.610
228.0, -42116.52035910134, -38330.42542105024, -27961.182947299832, -68982.46782809113, -27319.732584921432, -27654.13703371728, -51178.811631061035, -98126.68390592145, -187500.02235174447, -187500.02235174447, -44606.32587746691, -43523.16034116272, -76985.91226171402, -46491.06967342731, -85144.63426406792, -29611.05461252387, 0.0, 0.0, 0.0, 193.0, 0.0, 1.0, 1.0, 0.0, 0.0, 1.0, 1.0, 256.0, 1.0, 1.750526166618882E9, 0.0, 2025-06-21 19:16:06.618
230.0, -42093.36395184564, -38311.8958248968, -27926.224818971732, -68931.7740716665, -27301.918244590554, -27690.65978415725, -51140.79131374256, -98089.73647233684, -187500.02235174447, -187500.02235174447, -44566.53977233646, -43471.90779112671, -76971.67420049598, -46433.446876221526, -85178.78772959563, -29558.08097816479, 0.0, 0.0, 0.0, 193.0, 0.0, 1.0, 1.0, 0.0, 0.0, 1.0, 1.0, 256.0, 1.0, 1.750526166626924E9, 0.0, 2025-06-21 19:16:06.626
232.0, -42173.47260397347, -38369.69743605822, -27974.437531761832, -68995.72241255312, -27376.17073967108, -27615.937902443162, -51195.03899753559, -98142.17366482898, -187500.02235174447, -187500.02235174447, -44583.48239463358, -43490.817366935895, -76963.69462772545, -46455.10571659872, -85133.41368835136, -29573.168405672124, 0.0, 0.0, 0.0, 193.0, 0.0, 1.0, 1.0, 0.0, 0.0, 1.0, 1.0, 256.0, 1.0, 1.750526166635947E9, 0.0, 2025-06-21 19:16:06.635
234.0, -42132.121876731144, -38337.175647875745, -27956.600839686496, -68964.8323017159, -27355.070692905272, -27670.431455425198, -51153.867084248915, -98107.95314406791, -187500.02235174447, -187500.02235174447, -44615.959479327146, -43519.762876005516, -76997.98220371989, -46481.34666458925, -85173.8032905821, -29598.671746095628, 0.0, 0.0, 0.0, 193.0, 0.0, 1.0, 1.0, 0.0, 0.0, 1.0, 1.0, 256.0, 1.0, 1.750526166642986E9, 0.0, 2025-06-21 19:16:06.642
236.0, -42153.57955140824, -38356.889886485325, -27950.387054727922, -68969.83909247388, -27345.75001546741, -27658.80854830844, -51173.20134320275, -98127.24269953284, -187500.02235174447, -187500.02235174447, -44576.95568525263, -43476.02051210648, -76966.24272659335, -46436.55376870081, -85164.68377884434, -29557.52218455341, 0.0, 0.0, 0.0, 193.0, 0.0, 1.0, 1.0, 0.0, 0.0, 1.0, 1.0, 256.0, 1.0, 1.750526166651029E9, 0.0, 2025-06-21 19:16:06.651
238.0, -42153.91482757507, -38346.58573229143, -27953.00220882919, -68969.66027851823, -27350.13095738065, -27627.024367692993, -51178.185782216286, -98121.3641907411, -187500.02235174447, -187500.02235174447, -44613.50078743706, -43510.8668817123, -76975.18342437547, -46486.66637976961, -85131.089106928, -29605.176103732123, 0.0, 0.0, 0.0, 193.0, 0.0, 1.0, 1.0, 0.0, 0.0, 1.0, 1.0, 256.0, 1.0, 1.750526166660006E9, 0.0, 2025-06-21 19:16:06.660
240.0, -42114.642812567094, -38315.20388307618, -27934.405557442376, -68940.96063863763, -27348.02989340185, -27681.47321718612, -51156.75045928365, -98096.7102166069, -187500.02235174447, -187500.02235174447, -44565.55629558043, -43456.52979094146, -76956.58677298865, -46423.27683249436, -85163.0521014991, -29546.346312325757, 0.0, 0.0, 0.0, 193.0, 0.0, 1.0, 1.0, 0.0, 0.0, 1.0, 1.0, 256.0, 1.0, 1.750526166667047E9, 0.0, 2025-06-21 19:16:06.667
242.0, -42174.27726677385, -38361.851973754405, -27980.71837195377, -68997.44349687618, -27387.74894329893, -27644.816356279418, -51204.85141335147, -98153.43894403445, -187500.02235174447, -187500.02235174447, -44604.22481348811, -43506.91062294372, -76977.64211626556, -46479.75969073292, -85153.41849963886, -29598.314118184346, 0.0, 0.0, 0.0, 193.0, 0.0, 1.0, 1.0, 0.0, 0.0, 1.0, 1.0, 256.0, 1.0, 1.750526166675051E9, 0.0, 2025-06-21 19:16:06.675
244.0, -42127.584472606715, -38316.768505188054, -27959.48421472123, -68958.64086850177, -27377.780065271865, -27671.973725792617, -51167.769869300115, -98118.74903663983, -187500.02235174447, -187500.02235174447, -44615.19952001566, -43505.54716653194, -76992.1260466726, -46483.33596984577, -85177.87130807296, -29602.136266486203, 0.0, 0.0, 0.0, 193.0, 0.0, 1.0, 1.0, 0.0, 0.0, 1.0, 1.0, 256.0, 1.0, 1.750526166683103E9, 0.0, 2025-06-21 19:16:06.683
246.0, -42141.53196114683, -38335.18634261922, -27949.649447160897, -68963.8264732154, -27367.36415235569, -27631.025329950495, -51178.99044501668, -98124.87341462057, -187500.02235174447, -187500.02235174447, -44569.95958923812, -43461.60363693281, -76959.89483116804, -46428.484788952446, -85159.14054621942, -29551.04017866137, 0.0, 0.0, 0.0, 193.0, 0.0, 1.0, 1.0, 0.0, 0.0, 1.0, 1.0, 256.0, 1.0, 1.750526166692122E9, 0.0, 2025-06-21 19:16:06.692
248.0, -42151.00910079588, -38338.360290331875, -27958.67955192084, -68969.95085119616, -27359.630448774155, -27647.364455147323, -51182.454965407254, -98128.9637838559, -187500.02235174447, -187500.02235174447, -44621.390953229784, -43514.577271291884, -76984.21352913542, -46492.164908905615, -85137.43700235331, -29609.534693900907, 0.0, 0.0, 0.0, 193.0, 0.0, 1.0, 1.0, 0.0, 0.0, 1.0, 1.0, 256.0, 1.0, 1.750526166699131E9, 0.0, 2025-06-21 19:16:06.699
250.0, -42112.11706544364, -38312.87930165283, -27940.23936274521, -68941.38532178228, -27356.41179757259, -27653.33237091689, -51143.80879924403, -98102.4546149319, -187500.02235174447, -187500.02235174447, -44573.75938579552, -43461.00013983252, -76960.78890094625, -46431.278757009364, -85169.13177599094, -29552.738911239972, 0.0, 0.0, 0.0, 193.0, 0.0, 1.0, 1.0, 0.0, 0.0, 1.0, 1.0, 256.0, 1.0, 1.750526166707177E9, 0.0, 2025-06-21 19:16:06.707
252.0, -42155.45709794248, -38345.088165412926, -27963.507528723185, -68980.21030190114, -27362.826748231262, -27624.65508278073, -51185.56185788654, -98140.67609795048, -187500.02235174447, -187500.02235174447, -44592.78072032699, -43489.65507622422, -76961.19123234645, -46470.26019933942, -85141.16974367735, -29587.741743056984, 0.0, 0.0, 0.0, 193.0, 0.0, 1.0, 1.0, 0.0, 0.0, 1.0, 1.0, 256.0, 1.0, 1.750526166715197E9, 0.0, 2025-06-21 19:16:06.715
254.0, -42110.463036353955, -38308.498359739584, -27946.833127359525, -68948.53788000798, -27365.307791865802, -27689.3857347233, -51177.53758162708, -98121.29713550773, -187500.02235174447, -187500.02235174447, -44599.3297814524, -43491.35380880282, -76975.31753484221, -46476.40692906463, -85158.33588341903, -29597.017717005936, 0.0, 0.0, 0.0, 193.0, 0.0, 1.0, 1.0, 0.0, 0.0, 1.0, 1.0, 256.0, 1.0, 1.750526166723242E9, 0.0, 2025-06-21 19:16:06.723
0.0, -42130.445495896995, -38320.59065348991, -27948.15188028239, -68956.04806614495, -27352.522594037368, -27652.795929049964, -51176.017663004124, -98126.2592227768, -187500.02235174447, -187500.02235174447, -44563.656397301726, -43450.58422691634, -76952.9657903869, -46438.252501279414, -85161.97921776524, -29560.13733865468, 0.0, 0.0, 0.0, 193.0, 0.0, 1.0, 1.0, 0.0, 0.0, 1.0, 1.0, 256.0, 1.0, 1.750526166731314E9, 0.0, 2025-06-21 19:16:06.731
2.0, -42142.98482453643, -38321.8423511794, -27967.10615958049, -68977.17046465522, -27361.284477863846, -27631.450013095146, -51189.719282355225, -98134.55171996972, -187500.02235174447, -187500.02235174447, -44617.412342716736, -43510.55395728993, -76984.39234309105, -46503.273725899904, -85148.70228155878, -29623.61629290775, 0.0, 0.0, 0.0, 193.0, 0.0, 1.0, 1.0, 0.0, 0.0, 1.0, 1.0, 256.0, 1.0, 1.750526166739324E9, 0.0, 2025-06-21 19:16:06.739
4.0, -42099.15305365957, -38296.137845055804, -27939.05472028908, -68939.99951362604, -27346.107643378695, -27652.438301138678, -51150.40256385834, -98099.28066721925, -187500.02235174447, -187500.02235174447, -44573.73703405107, -43458.04970956442, -76965.70628472642, -46438.45366697951, -85173.93740104884, -29562.640734033674, 0.0, 0.0, 0.0, 193.0, 0.0, 1.0, 1.0, 0.0, 0.0, 1.0, 1.0, 256.0, 1.0, 1.750526166748338E9, 0.0, 2025-06-21 19:16:06.748
6.0, -42156.48527818743, -38340.818982221965, -27970.660086948883, -68987.98870897159, -27348.678093991053, -27622.08463216837, -51186.8806108094, -98138.50797873831, -187500.02235174447, -187500.02235174447, -44596.40170292875, -43490.973829147086, -76968.67906673897, -46479.49146979946, -85150.13279320393, -29598.783504817904, 0.0, 0.0, 0.0, 193.0, 0.0, 1.0, 1.0, 0.0, 0.0, 1.0, 1.0, 256.0, 1.0, 1.750526166754314E9, 0.0, 2025-06-21 19:16:06.754
8.0, -42096.336733858196, -38294.08148456591, -27944.799118614093, -68954.08111263289, -27364.637239532145, -27669.492682158078, -51169.379194900896, -98117.43028371695, -187500.02235174447, -187500.02235174447, -44602.43667393168, -43493.11959661479, -76976.88215695407, -46484.85588846873, -85168.26005795719, -29604.95258628757, 0.0, 0.0, 0.0, 193.0, 0.0, 1.0, 1.0, 0.0, 0.0, 1.0, 1.0, 256.0, 1.0, 1.750526166763402E9, 0.0, 2025-06-21 19:16:06.763
10.0, -42122.46592312645, -38318.53429300002, -27950.34235123901, -68959.3784760688, -27359.384579585145, -27648.862022025827, -51171.70377632425, -98131.37777225707, -187500.02235174447, -187500.02235174447, -44560.996539711545, -43453.02056706197, -76947.06492985069, -46440.17475130258, -85163.54383987712, -29559.08680666528, 0.0, 0.0, 0.0, 193.0, 0.0, 1.0, 1.0, 0.0, 0.0, 1.0, 1.0, 256.0, 1.0, 1.750526166771424E9, 0.0, 2025-06-21 19:16:06.771
12.0, -42110.64185030959, -38299.15533055727, -27935.76901385415, -68948.2696590745, -27353.327256837758, -27628.99132120506, -51176.7776223156, -98124.00169658681, -187500.02235174447, -187500.02235174447, -44589.76323482552, -43484.98356163306, -76953.12225259808, -46480.02791166639, -85128.20573189328, -29593.843769293282, 0.0, 0.0, 0.0, 193.0, 0.0, 1.0, 1.0, 0.0, 0.0, 1.0, 1.0, 256.0, 1.0, 1.75052616677946E9, 0.0, 2025-06-21 19:16:06.779
